#   1 NUMBER                 Running object number                                     
#   2 MAG_AUTO               Kron-like elliptical aperture magnitude                    [mag]
#   3 X_IMAGE                Object position along x                                    [pixel]
#   4 Y_IMAGE                Object position along y                                    [pixel]
#   5 X_WORLD                Barycenter position along world x axis                     [deg]
#   6 Y_WORLD                Barycenter position along world y axis                     [deg]
#   7 A_WORLD                Profile RMS along major axis (world units)                 [deg]
#   8 B_WORLD                Profile RMS along minor axis (world units)                 [deg]
#   9 THETA_WORLD            Position angle (CCW/world-x)                               [deg]
#  10 FWHM_WORLD             FWHM assuming a gaussian core                              [deg]
#  11 ELONGATION             A_IMAGE/B_IMAGE                                           
#  12 ELLIPTICITY            1 - B_IMAGE/A_IMAGE                                       
         1  -9.8663     97.5619     12.5844   1.6128951011e+01   5.7006348467e+01    0.3931529    0.2196442  -7.30  0.001989611    2.541    0.606
         2 -10.3392     41.1404     13.7463   3.4656842501e+01   6.7781311169e+01    0.2421071    0.1574408  24.63 0.0002190563    1.292    0.226
         3  -8.4672     80.1810     12.1858   2.0364483361e+01   6.0750148469e+01    0.1559626    0.1400037  77.82 0.0007435914    1.349    0.259
         4  -9.3518     62.8165      9.7486   2.4656371937e+01   6.4410439448e+01    0.3136526    0.1040437  44.16  0.001395777    2.372    0.578
         5  -8.4181     65.1330      4.8618   2.1867358322e+01   6.4393739696e+01    0.1650016    0.1111726  31.42   0.00103147    1.291    0.225
         6  -8.0179     52.0179      3.0262   2.5480876345e+01   6.6992074828e+01     0.139406    0.1084015  29.41 -0.003769674    1.017    0.017
         7  -8.3948      2.8289      3.1810   4.9528690007e+01   7.3897259416e+01      0.14871   0.09458672  -3.72 0.0002284339    1.267    0.211
         8  -9.5724     67.5047      1.3773   1.9702511617e+01   6.4209015319e+01    0.2147037   0.09271323  54.66 2.056562e-05    1.877    0.467
         9  -8.9967    100.8479    247.1276   7.1175373704e+01   7.9789344136e+00    0.1740803    0.1541673   3.29 0.0003836305    1.324    0.245
        10 -10.4890    247.2148    248.3958   4.1138984446e+01  -1.2577235512e+01    0.3016895    0.2378647  -2.13 0.0008476863    1.131    0.116
        11  -9.2140    213.9651    250.2155   4.7493088678e+01  -8.9662615830e+00    0.2679226     0.142669  21.49  0.001447573    1.767    0.434
        12  -9.7701    205.2126    249.7130   4.9105938765e+01  -7.7742820396e+00    0.2558248    0.2002987  36.56  0.001430783    1.508    0.337
        13 -11.5176    166.3992    248.1780   5.6817834567e+01  -2.1311903098e+00    0.9890093    0.3930038  39.61  0.004236244    2.357    0.576
        14 -10.8217    169.8403    224.9659   5.2348570762e+01   1.5543460289e+00    0.5911067    0.3652612  34.30  0.002973853    1.512    0.339
        15 -11.4462    173.3526    244.7676   5.4814366884e+01  -2.5606445776e+00    0.6689271    0.5174854 -38.54  0.004027661    1.403    0.287
        16 -11.6100    167.3470    242.0812   5.5673961992e+01  -1.2030779981e+00    0.8315096     0.368932  31.18  0.002989755    2.054    0.513
        17 -11.0692    169.3966    233.5555   5.3870214129e+01   2.3962837774e-02    0.6552491    0.5078356  25.49  0.003358286    1.161    0.139
        18 -11.3986    162.3396    225.7973   5.4140119507e+01   2.5837710621e+00    0.6028022    0.3869976  25.81  0.002437213    1.491    0.329
        19 -10.8248     53.9676    248.8390   8.1698442569e+01   1.4203830548e+01    0.4878326    0.3560002   1.11  0.002037259    2.216    0.549
        20 -10.5657      6.6544    241.8639   9.1002408776e+01   2.1127989847e+01    0.5484014    0.4240811  34.16  0.003746098    1.461    0.316
        21 -10.0717     12.9820    250.1107   9.0211520479e+01   1.8749505968e+01    0.3397064    0.1922892  53.89  0.002047936    1.410    0.291
        22 -11.2859     19.2523    247.6902   8.8827544334e+01   1.8583206177e+01    0.6012118     0.306138  62.46  0.003300274    1.708    0.414
        23  -9.7713      4.2652    249.3237   9.1858761324e+01   1.9805805294e+01    0.3065134    0.1493447  54.35 0.0008338331    1.626    0.385
        24  -8.8559     86.7750    247.6091   7.4384805898e+01   9.9512228360e+00    0.2030466     0.100591  43.60 0.0009546768    1.713    0.416
        25  -9.0651     36.2834    247.3976   8.5323516063e+01   1.6704526041e+01    0.1701742   0.09403522  45.68 0.0004324647    1.499    0.333
        26 -10.7221     73.5920    244.5873   7.7004694263e+01   1.2457559788e+01    0.2805787    0.2588697  45.69 0.0005673709    1.143    0.125
        27  -9.7265     30.9494    244.5457   8.6228867489e+01   1.7936073247e+01    0.2947025    0.1083261  55.68  0.001280711    2.544    0.607
        28  -9.9233    250.5112    241.8654   3.9505696463e+01  -1.2026451455e+01    0.2883613    0.1615557 -33.71 0.0009346253    1.548    0.354
        29  -9.8636    248.5325    237.5096   3.9123364280e+01  -1.1192341666e+01    0.2328864    0.1638695 -16.54  0.001390765    1.121    0.108
        30 -11.2975    237.4743    240.7225   4.1590619108e+01  -1.0400818426e+01    0.5215174    0.3531319 -10.01  0.002497792    1.274    0.215
        31 -11.2417    238.9388    230.2303   3.9567691898e+01  -9.0135158235e+00    0.5318398    0.3233307   0.89  0.002238397    1.756    0.430
        32  -9.6796    242.7296    223.9664   3.7831557252e+01  -8.5139271989e+00    0.2464336    0.1679873 -32.36  0.001008385    1.284    0.221
        33 -10.8976     98.0466    241.3753   7.1114666803e+01   9.5771540222e+00     0.535282    0.3172616  35.13  0.001014025    1.495    0.331
        34  -9.0326    221.1771    239.9259   4.4441055157e+01  -8.3113073971e+00    0.2047531     0.155174  13.42 0.0006594748    1.180    0.153
        35  -7.6178    199.6699    240.6938   4.8738175886e+01  -5.6084630217e+00    0.1330929   0.08624409  -3.62 0.0004458319    1.658    0.397
        36  -9.1631     16.0905    237.8204   8.8858127640e+01   2.1027165948e+01     0.323916     0.125173  54.10  0.001528754    2.229    0.551
        37 -10.3436    231.1361    234.5686   4.1701690714e+01  -8.7279125884e+00    0.3021299    0.2298672 -18.27 0.0008029632    1.097    0.088
        38 -11.3069    106.5562    223.9313   6.6830202483e+01   1.1999871317e+01     1.251341    0.6281697 -37.64    0.0048872    2.903    0.656
        39 -12.1846     89.8570    230.6785   7.1698456403e+01   1.3097178908e+01     1.504293     1.104787 -84.92  0.008045387    1.553    0.356
        40 -10.9796     84.4292    214.4821   7.0931130569e+01   1.7596692384e+01    0.6105011    0.4186088 -73.13   0.00305914    1.572    0.364
        41 -10.8403     77.9191    210.6053   7.2039951163e+01   1.9488918297e+01    0.4448309    0.3718467 -77.49  0.001849852    1.214    0.176
        42 -11.6097     95.6242    217.9391   6.8643712919e+01   1.5070891737e+01    0.6381376    0.4127435  48.99      0.00211    1.473    0.321
        43 -10.3166    100.0113    217.4726   6.7504142371e+01   1.4486203224e+01    0.3456428    0.2470325  52.69 0.0009008904    1.372    0.271
        44 -11.1665    117.9777    227.7243   6.4653934062e+01   9.3544288067e+00     1.054455    0.3360157  40.63  0.003737297    2.762    0.638
        45 -11.6728    126.5070    221.3608   6.1678935982e+01   9.3280674540e+00     0.889231    0.5678362 -75.25   0.00281135    2.282    0.562
        46  -9.7340    114.9899    220.6775   6.4331161601e+01   1.1360324968e+01    0.2596056     0.230673  72.06 0.0006606742    1.212    0.175
        47  -8.2129    205.6745    229.7210   4.5702870049e+01  -4.6254951832e+00    0.1318309   0.08770244  -3.38 0.0005310694    1.591    0.372
        48  -9.1260    144.9390    227.5884   5.8356251392e+01   5.0268647798e+00    0.2479637    0.1880912 -24.92 0.0005725094    1.485    0.326
        49  -9.6824    249.3896    227.0071   3.7209725056e+01  -9.7553969982e+00     0.288002    0.1680075   0.84  0.001618277    1.933    0.483
        50  -7.8037    195.6734    227.7257   4.7365424264e+01  -2.8643736347e+00    0.1341941   0.09128411  -2.16 0.0002345365    1.585    0.369
        51  -8.3826    191.5050    227.0519   4.8103465914e+01  -2.1364550506e+00    0.1847608    0.1231962 -37.49  0.000302415    1.487    0.328
        52  -9.9176    181.0352    226.0707   5.0125211100e+01  -3.8815118640e-01    0.2755972    0.2592715  26.07 0.0009180785    1.217    0.178
        53  -8.1272     73.4834    224.4979   7.4835479081e+01   1.6889172481e+01     0.137506    0.1233984  58.97 5.953919e-05    1.025    0.024
        54  -9.4428     66.8138    223.7980   7.6342079533e+01   1.7990244464e+01    0.2267973    0.2067182  82.40 0.0006237695    1.088    0.081
        55  -9.4040    157.4765    221.5323   5.4515895587e+01   4.2007602747e+00    0.2740089     0.223849   1.19 0.0007314818    1.257    0.205
        56  -9.0414    213.6230    220.6564   4.2578275190e+01  -4.2067542034e+00    0.3428173    0.1608866  38.39  0.001618662    2.267    0.559
        57  -9.3673    219.2002    219.2366   4.1265165989e+01  -4.7371248500e+00    0.3264594    0.2411194 -11.10  0.001965789    1.240    0.194
        58  -9.6530    133.0075    220.5153   6.0006136503e+01   8.4362581021e+00    0.2400533    0.2036773 -75.93 0.0009104937    1.417    0.294
        59 -10.5798    131.0618    215.4316   5.9653041213e+01   9.8491266942e+00    0.5257434    0.5184188 -54.46  0.003117802    1.102    0.093
        60  -9.4377    127.9273    211.8185   5.9819501148e+01   1.1166912429e+01    0.4190264     0.207116  47.78  0.001059531    2.151    0.535
        61  -8.5762    149.3673    219.7726   5.6069414451e+01   5.8842998929e+00    0.2366615    0.1957475 -34.11 0.0007244099    1.267    0.211
        62  -9.3629    151.5042    216.0147   5.4945105944e+01   6.2996393178e+00    0.3551615    0.2293741   9.02  0.001101035    2.031    0.508
        63  -9.8292     75.0866    219.1934   7.3819887614e+01   1.7880880659e+01    0.3307054    0.2148558  53.44 0.0009908169    1.465    0.317
        64  -9.9978    190.3856    216.4702   4.6486810235e+01  -6.2279033141e-02    0.5273684    0.3064393 -38.74  0.002615642    1.683    0.406
        65  -9.4214     61.1745    218.5196   7.7104154730e+01   1.9990766641e+01    0.3408663    0.1344929 -51.78  0.001326819    2.896    0.655
        66  -9.2060    175.9819    216.1501   4.9489132491e+01   2.2601759923e+00    0.3070103    0.1853776 -37.73  0.001297317    1.675    0.403
        67  -8.4126    143.7493    217.0125   5.6912283803e+01   7.3874107753e+00    0.1832497    0.1236491 -50.06 0.0008904191    1.591    0.371
        68  -9.9128     23.2196    216.6506   8.5826299390e+01   2.5039142771e+01    0.4641543    0.1221296  32.35  0.001781354    3.316    0.698
        69  -9.3644    202.2205    210.7848   4.3050308974e+01  -8.2850096741e-01    0.3431851     0.179131 -40.78  0.001632944    1.826    0.452
        70 -10.0904    121.5094    222.5253   6.3046607170e+01   9.8963802934e+00    0.2896983    0.2756999 -72.26  0.001150618    1.155    0.134
        71  -9.6838    113.1950    212.5864   6.3540890638e+01   1.3460671058e+01    0.6429011    0.3934008  -6.31  0.002311872    3.408    0.707
        72  -9.5540    228.7699    213.2279   3.8426756227e+01  -5.0319054172e+00    0.3922507    0.1607427 -31.78  0.001703425    2.467    0.595
        73  -9.7092     64.1685    213.4918   7.5806002658e+01   2.0769294026e+01    0.4356552    0.1927165  46.04  0.001546081    2.091    0.522
        74 -10.2877    170.7861    215.1924   5.0455817458e+01   3.2841430983e+00    0.3097869     0.263786   9.92 0.0007259213    1.101    0.092
        75  -8.2638    212.6973    199.0670   3.8838327391e+01  -2.8963754869e-01     0.234536    0.1490503 -31.20 0.0007307478    1.461    0.316
        76 -10.5235    211.9533    208.1337   4.0655250698e+01  -1.8020668204e+00    0.4786893    0.3845987 -32.20  0.002648802    1.171    0.146
        77  -9.5065    213.1286    203.5779   3.9593223507e+01  -1.1655226496e+00    0.4937161    0.2038829  42.15  0.002077171    2.765    0.638
        78  -9.7332    237.7162    210.1583   3.6285421496e+01  -5.7066273747e+00    0.1996863    0.1673146  31.69  0.001318507    1.442    0.306
        79  -8.3861    135.7518    208.6205   5.7396831873e+01   1.0538300384e+01    0.1963044    0.1288934  43.43 0.0001845613    1.481    0.325
        80 -10.6085     12.0536    205.3981   8.7519133796e+01   2.8821199144e+01    0.5031717    0.2251376 -74.83  0.002415221    1.968    0.492
        81 -11.3589     15.6281    196.2195   8.5951334570e+01   3.0690385581e+01    0.7811518    0.3484569 -41.10  0.003049985    3.693    0.729
        82 -11.2434     20.3663    181.2243   8.3404430988e+01   3.3953304365e+01     0.898086    0.3771674 -61.36  0.003961981    2.104    0.525
        83  -9.7983     11.1285    187.3936   8.6313455287e+01   3.3270436721e+01     0.296791    0.2364687 -60.99 0.0005928632    1.297    0.229
        84 -11.8820     11.9040    180.6256   8.5530700838e+01   3.4879975443e+01    0.9051205     0.549334 -51.40  0.004471552    1.751    0.429
        85 -11.6537      5.7394    176.2520   8.6725557876e+01   3.6487031466e+01     1.132822    0.2511585 -63.74   0.00409309    3.272    0.694
        86 -11.3024      3.0072    171.1082   8.6989683364e+01   3.7980658568e+01      1.18159    0.1988008 -61.49  0.003947851    3.873    0.742
        87  -8.6453    224.3434    205.6553   3.7869988770e+01  -3.1488054967e+00    0.2533652    0.1484846 -51.66  0.001256843    2.094    0.522
        88  -9.3986    124.0649    205.9430   5.9793826300e+01   1.3138328489e+01    0.2094667    0.1992511  31.25  0.001173366    1.013    0.013
        89 -11.5711     98.6632    225.5155   6.8940088458e+01   1.2890481668e+01    0.5760412    0.5136794 -74.41  0.001700857    1.205    0.170
        90  -7.7862     33.9471    206.0000   8.2391472739e+01   2.6390908077e+01    0.2034049   0.07302064  29.02 0.0007920739    2.871    0.652
        91  -9.8539    129.9410    201.8308   5.7646689513e+01   1.3055686697e+01    0.5459219    0.3543486  71.99  0.002197454    2.511    0.602
        92  -9.7761    166.8324    199.0652   4.8413201557e+01   7.2020735808e+00    0.4334721    0.3108667 -24.56  0.001310184    1.531    0.347
        93  -9.8076    185.4118    189.9711   4.2606852755e+01   5.8565531824e+00    0.9114076    0.2115994  37.56  0.002615697    4.557    0.781
        94 -10.4144    183.1709    185.6971   4.2249127797e+01   7.1105880941e+00    0.4317775    0.3110826   0.66  0.002076628    1.721    0.419
        95 -11.0618    176.0245    185.0085   4.3662319192e+01   8.5159925424e+00    0.8312794    0.4647914 -56.00  0.002618927    2.138    0.532
        96  -9.7681    171.3618    201.2147   4.7799845502e+01   5.9819165727e+00    0.3573542    0.3035128 -85.70 0.0006544107    1.637    0.389
        97 -11.3761    178.1326    196.9814   4.5516152665e+01   5.6875107944e+00      0.82582    0.5284281 -24.93  0.002445673    1.796    0.443
        98 -11.3112    172.8802    195.5992   4.6407643781e+01   6.8718915894e+00    0.8344944    0.3615303 -42.33  0.002190062    2.303    0.566
        99  -8.1951    250.4176    200.4969   3.2409230077e+01  -5.7674773673e+00    0.1242014   0.09620208 -22.66 6.487144e-05    1.031    0.030
       100  -9.2122     59.8614    200.0076   7.5266412228e+01   2.4635096437e+01    0.4226423    0.2122936  30.53  0.001826718    2.040    0.510
       101  -9.4973     57.9653    196.0310   7.5260749265e+01   2.5879384341e+01    0.3418239    0.1797442 -59.75 0.0009767772    1.848    0.459
       102  -9.4922    105.1742    197.5969   6.3181622957e+01   1.8297711200e+01    0.3223346    0.2606739 -22.61 0.0009915206    1.509    0.337
       103  -8.5350     44.2175    199.3584   7.9175409746e+01   2.6808714872e+01    0.2018451     0.111343  42.54 0.0009520446    1.704    0.413
       104  -8.9109    112.6785    198.2477   6.1365235669e+01   1.6871020193e+01    0.4611004    0.2445922  64.88  0.001507696    3.528    0.717
       105  -8.7536    113.0288    194.2881   6.0605935539e+01   1.7751726575e+01    0.2466097    0.2187779 -35.96 0.0003535146    1.215    0.177
       106  -9.0788     51.4543    197.7471   7.7150533999e+01   2.6304360684e+01    0.3106529    0.1347443  43.61  0.001224698    2.155    0.536
       107  -9.6205    126.7790    196.6387   5.7524525484e+01   1.4797682980e+01    0.3112279     0.255176   4.87  0.001091724    1.403    0.287
       108  -9.4987    124.6053    193.1975   5.7461035967e+01   1.5982200850e+01     0.410089    0.2582292 -35.49  0.001622764    1.887    0.470
       109  -8.7147    248.5023    195.5456   3.1833019388e+01  -4.7183367870e+00    0.1253145   0.09918673 -22.24 3.230521e-05    1.029    0.028
       110  -8.9093    131.7981    195.0769   5.5994931312e+01   1.4268988819e+01    0.2286895    0.2022915  70.19 0.0007317779    1.265    0.210
       111  -8.4883     66.7933    195.0078   7.2821643499e+01   2.4919115077e+01     0.252601    0.1506018  72.94  0.001066518    2.115    0.527
       112  -8.7994     40.3507    194.8411   7.9664262673e+01   2.8394440948e+01     0.265051   0.09926828 -57.92  0.001041931    2.517    0.603
       113 -10.8141     93.8803    181.6178   6.3504074397e+01   2.4117549108e+01    0.4910104    0.3599045 -48.41  0.001062755    1.417    0.294
       114 -11.8729     97.9676    188.8160   6.3620130743e+01   2.1642766401e+01    0.7175233    0.4834051  67.38  0.001695199    1.844    0.458
       115  -8.1407    117.0303    191.0069   5.9005507990e+01   1.7837648057e+01    0.1835899    0.1649755  38.08 0.0003209133    1.075    0.070
       116 -10.0876    104.0559    189.4608   6.2118076591e+01   2.0458338538e+01    0.3510734     0.264988  31.40  0.001046084    1.331    0.248
       117 -10.0247    202.7373    187.1803   3.8513742644e+01   3.4963178432e+00    0.5751497    0.3342296  58.53  0.002355698    3.020    0.669
       118  -8.0428    138.5452    189.5174   5.3302259121e+01   1.4330125374e+01     0.149663    0.1453948  37.51 0.0002344941    1.038    0.037
       119  -8.8253    155.0085    187.7342   4.8987068972e+01   1.1730219895e+01    0.2808083    0.1888682 -32.07  0.001271701    1.638    0.390
       120 -10.4954     46.4957    181.1792   7.6433869484e+01   3.1115980226e+01      0.87593    0.2189213 -61.75  0.002761467    3.307    0.698
       121  -9.3258    250.4967    185.5535   2.9694201724e+01  -3.3301447484e+00    0.2667928    0.1025394 -41.23  0.001209665    2.161    0.537
       122  -9.3837    231.7668    185.7549   3.2850514008e+01  -7.4805008228e-01    0.2796784    0.2020915 -37.38  0.001376831    1.207    0.171
       123  -9.2784    228.0382    184.0365   3.3178280929e+01   1.0765931236e-01    0.2598978    0.2378089 -33.15  0.001678386    1.165    0.141
       124  -9.6125    108.2043    185.0269   6.0252160776e+01   2.0830053464e+01    0.3988356    0.2935959 -86.36  0.001814925    1.706    0.414
       125  -9.0966    111.5070    184.4501   5.9276515177e+01   2.0392671411e+01    0.2945648    0.2108619  32.57 0.0008865939    1.396    0.284
       126 -10.1142    209.6800    184.7001   3.6681398306e+01   2.8394148091e+00    0.2503911    0.2151422 -22.50  0.001481092    1.038    0.037
       127  -8.7087    217.6369    182.8210   3.4821777891e+01   1.9235908792e+00    0.1844263    0.1583265  -2.99 0.0006503689    1.150    0.130
       128 -10.3998     20.3855    168.5956   8.2093148980e+01   3.7154184131e+01    0.4930242     0.262598  75.10  0.002189211    2.191    0.544
       129  -9.9929     24.2594    174.5756   8.1686669656e+01   3.5259488194e+01    0.3981888    0.2309019  74.13  0.001207026    1.887    0.470
       130 -11.2867     29.4755    171.8752   7.9960552108e+01   3.5425820598e+01     1.177854    0.3361197 -59.70  0.004261947    2.866    0.651
       131 -11.0827    207.6462    168.2019   3.3805109729e+01   6.3409237305e+00    0.5702284     0.442179 -48.78  0.003120905    1.273    0.214
       132 -10.9897    204.6804    175.4105   3.5818526838e+01   5.4466433933e+00    0.6575709    0.3334978 -42.85   0.00292517    1.813    0.448
       133 -10.2615    180.6964    178.7895   4.1406118878e+01   8.9737360405e+00    0.5345085    0.3527301 -74.84  0.002132743    2.793    0.642
       134  -9.6769    158.0985    176.7152   4.6077391274e+01   1.3597188799e+01    0.4772401    0.3122371 -39.10  0.001735006    1.556    0.357
       135 -10.8702    150.6749    174.5198   4.7400153366e+01   1.5496930747e+01    0.6331643    0.4597341  36.51  0.001970098    1.376    0.273
       136  -9.6035    138.7508    179.9670   5.1419202656e+01   1.6495521656e+01    0.3549024    0.2404621  59.76  0.001525715    1.844    0.458
       137  -9.4567    112.3253    179.3243   5.8123308206e+01   2.1502468773e+01    0.3907765    0.2434079  24.90  0.001626744    1.841    0.457
       138  -9.5138    105.2212    174.6449   5.9167023516e+01   2.3923402401e+01    0.6890138    0.3806517 -87.58  0.001970018    4.531    0.779
       139  -9.7998    103.9528    179.6942   6.0435838555e+01   2.2886649442e+01     0.403407    0.3705058 -31.48  0.001199524    1.176    0.149
       140  -9.0149    100.6782    177.6839   6.0961953305e+01   2.3954945198e+01    0.2521431    0.1570647  32.24 0.0008708727    1.637    0.389
       141  -8.5035    219.2793    178.5409   3.3691889994e+01   2.4560205432e+00    0.2413784     0.148791 -48.66  0.000698673    1.622    0.384
       142  -8.8185    240.3698    177.9628   2.9927198742e+01  -6.3382149706e-01    0.1923153    0.1359381 -35.44   0.00112695    1.184    0.155
       143  -8.8615     89.2050    177.0389   6.4001247154e+01   2.6046392086e+01    0.3485972    0.2141012  87.50  0.001178848    2.491    0.599
       144  -8.6127     87.9852    173.2244   6.3677692467e+01   2.7218371474e+01    0.3217888    0.2428065  17.66   0.00129965    1.549    0.354
       145  -9.3395     91.9916    172.2693   6.2386309767e+01   2.6799079627e+01    0.3148719    0.2535721  52.30 0.0007909536    1.252    0.201
       146  -8.2563    118.0002    175.9698   5.5982738141e+01   2.1297825180e+01    0.1878786     0.178254 -57.80 0.0005749339    1.070    0.066
       147  -8.6445     77.4760    175.9308   6.7082723841e+01   2.8191509423e+01    0.2760352    0.1862923  69.26 0.0009622418    1.785    0.440
       148  -8.2581    224.1529    172.3577   3.1615153798e+01   2.8244446472e+00    0.1742871    0.1258094  52.18   0.00045116    1.762    0.432
       149  -8.4781    193.3002    172.5655   3.7506013433e+01   7.9896525859e+00     0.185636    0.1361677  23.46 0.0006972397    1.521    0.342
       150  -8.2256    179.6718    169.6877   3.9769894909e+01   1.1067931103e+01    0.1529325    0.1474279 -55.26 0.0003473996    1.113    0.101
       151  -8.9123    177.0020    167.5201   3.9897938670e+01   1.2027608929e+01    0.2696145    0.2105047 -42.77 0.0006111862    1.232    0.188
       152  -8.7569    135.2183    171.4026   5.0600740443e+01   1.9172094751e+01    0.2271057    0.1423356  48.25 0.0009504908    1.669    0.401
       153  -8.8183    121.7385    169.9129   5.3805122205e+01   2.2083213926e+01    0.3446525    0.2459755  69.91  0.001196767    1.850    0.460
       154  -8.4209     55.0519    169.5207   7.2441590477e+01   3.3048871300e+01    0.2945023    0.1503114  71.10    0.0010108    3.219    0.689
       155  -9.6488    199.9245    167.2455   3.5098953805e+01   7.8785894706e+00     0.362201    0.2500826  -7.72  0.001077585    1.987    0.497
       156  -9.3312    160.3204    166.2435   4.3393146391e+01   1.5504918161e+01    0.4963059    0.2711253 -63.09  0.001799288    2.660    0.624
       157 -10.8184    217.9333    165.4479   3.1357274423e+01   5.1245514897e+00    0.5380638    0.3792964  35.31  0.002159843    1.586    0.369
       158 -10.6905    150.0265    163.8946   4.5349259570e+01   1.8048996929e+01     0.484765    0.4123904  -8.48   0.00163767    1.335    0.251
       159  -9.7483     98.0431    165.4148   5.9412213765e+01   2.7509026914e+01    0.5694295    0.3263784  69.55  0.001759991    3.104    0.678
       160  -8.3506     80.7746    165.1497   6.4299319967e+01   3.0457901118e+01    0.2645954    0.1523465  70.62 0.0009342778    2.803    0.643
       161  -8.9410     37.7254    164.5905   7.6725422362e+01   3.6426556115e+01    0.3257298    0.1747567  69.50  0.001033433    2.460    0.594
       162 -11.4156    249.4118    155.0606   2.4179919940e+01   2.0181112792e+00    0.7892941     0.354088 -44.74  0.003779352    1.865    0.464
       163  -9.0195    138.9382    165.0473   4.8344314753e+01   1.9954259255e+01    0.3813911    0.2551399  87.23 0.0009814287    2.682    0.627
       164  -8.2372    130.4626    164.5631   5.0419117270e+01   2.1716052061e+01    0.1550383    0.1519604   3.67 0.0001860564    1.033    0.032
       165  -8.9556      1.5491    162.4399   8.6611143692e+01   4.0252069289e+01    0.2462337     0.138067 -82.65  0.000590522    1.554    0.356
       166  -9.6840    230.3009    160.8003   2.8298412041e+01   3.9616830246e+00    0.4003989     0.245569  26.82   0.00199211    2.145    0.534
       167 -10.5099     22.9152    160.2182   8.0428277883e+01   3.9067000000e+01    0.5321627    0.3228443   6.09  0.002383604    2.254    0.556
       168 -10.0584    219.2615    158.9515   2.9820563498e+01   6.1276034869e+00    0.3497459     0.187136  58.66  0.001457137    2.943    0.660
       169 -10.4593    142.7728    158.4502   4.5973064202e+01   2.0745069479e+01    0.7461567    0.2723597  45.77  0.002393484    2.875    0.652
       170  -9.3310    224.9026    157.3783   2.8530520690e+01   5.4745038895e+00    0.2349456    0.1711793 -50.37 0.0008335425    1.324    0.245
       171  -9.4349    166.4913    157.0832   4.0014032412e+01   1.6321733803e+01    0.4548824    0.3120401  72.39  0.001881351    2.243    0.554
       172  -9.2140    105.1473    157.6118   5.5855147152e+01   2.8212839792e+01    0.3086049    0.2355469  88.17 0.0008364681    1.652    0.395
       173  -9.6842    208.3375    156.6939   3.1330324458e+01   8.4613208695e+00    0.3394711     0.269885  38.03  0.001248542    1.386    0.278
       174 -11.2734    206.0272    150.1282   3.0394940991e+01   1.0164601273e+01    0.6806238    0.5315073 -74.62  0.003268313    1.644    0.392
       175  -9.4711    206.7597    142.2718   2.8609343799e+01   1.1567291807e+01    0.3819968    0.2399022 -26.34  0.001271278    1.928    0.481
       176  -8.7852    127.4860    156.8381   4.9566096437e+01   2.4155797807e+01    0.2421291    0.2166544 -12.41 0.0005131402    1.237    0.192
       177  -8.9206     49.9800    155.2118   7.1737288875e+01   3.7433029842e+01    0.3691202    0.1916128  55.41  0.001466319    2.387    0.581
       178 -10.1505    134.6293    153.7766   4.7028532833e+01   2.3472863570e+01    0.5755162    0.3836094  66.34  0.001768763    2.073    0.518
       179  -8.6799    119.4278    154.9199   5.1320431003e+01   2.6192564408e+01    0.3233537    0.2247095 -87.60  0.001287183    2.151    0.535
       180  -9.6948     81.9538    154.4525   6.1965813671e+01   3.3034990322e+01    0.2901427    0.2148908 -83.09 0.0007259708    1.571    0.364
       181  -9.9045     68.6250    153.7765   6.5844415768e+01   3.5274175143e+01     0.489542     0.339392  85.09  0.002026789    1.814    0.449
       182  -9.9477    100.0014    159.1756   5.7633136012e+01   2.8746819620e+01    0.4047947     0.337448 -55.68    0.0010575    1.192    0.161
       183  -9.3006     99.6550    153.4047   5.6556678115e+01   3.0270350899e+01    0.4397858    0.2701258 -75.34  0.001263217    2.243    0.554
       184  -9.5346      4.8588    152.1508   8.4698399803e+01   4.2602872891e+01    0.3978269    0.2046842  56.75   0.00137085    2.199    0.545
       185 -10.7244    223.3331    148.4828   2.7009592223e+01   7.3979911193e+00    0.4632623    0.4285822  -4.03  0.001891062    1.183    0.155
       186  -9.2612    189.7675    150.7336   3.3658641002e+01   1.3105995482e+01    0.3014823    0.2350738  56.53  0.001046027    1.456    0.313
       187  -8.8176     88.9855    151.1383   5.9217677623e+01   3.2717712123e+01    0.4260992    0.1672211  38.53  0.001464282    2.499    0.600
       188 -10.3309    122.5008    146.4564   4.8623209582e+01   2.7651887130e+01    0.6759257    0.4890355 -23.63  0.002351532    1.763    0.433
       189  -9.0462     28.0754    148.8896   7.7445862667e+01   4.1501864855e+01     0.418454    0.2026168  81.36  0.001504656    3.268    0.694
       190  -9.3734    107.4461    138.2446   5.0987600047e+01   3.2605582087e+01    0.3702137    0.3564667 -19.48  0.001463871    1.074    0.069
       191  -9.7320     39.3452    146.8749   7.3682352743e+01   4.0858021738e+01    0.5469575    0.2768945  72.81  0.001902531    3.458    0.711
       192  -9.1854    158.6867    146.1051   3.9382015511e+01   2.0332642482e+01    0.3872101     0.254867  -6.02  0.001413943    2.823    0.646
       193  -8.6338     77.5118    147.0202   6.1851515999e+01   3.5667107447e+01    0.2358767    0.1457933 -55.98  0.001015966    1.555    0.357
       194 -10.1458     57.5255    145.3491   6.7739153171e+01   3.9032193140e+01    0.8473897     0.301089  35.23  0.003014964    2.757    0.637
       195 -10.9543    244.3622    143.0270   2.2624370816e+01   4.8980438957e+00    0.6094756    0.2303755 -41.00  0.002614254    2.221    0.550
       196  -8.7396    195.3380    145.4593   3.1425312760e+01   1.3106654708e+01    0.3656006    0.1242512 -47.80  0.001229522    2.874    0.652
       197  -9.9174    148.8361    144.8431   4.1447936654e+01   2.2654924079e+01    0.5095976    0.3403806  88.85  0.001881933    2.705    0.630
       198  -8.9180    143.0225    146.0231   4.3155068758e+01   2.3585694763e+01    0.2418354    0.2294223  13.75 0.0006779971    1.104    0.094
       199  -9.9632    115.8894    143.5490   4.9792375793e+01   2.9665459970e+01    0.9913321    0.3683354  54.43  0.002352632    5.526    0.819
       200  -9.4936    107.0273    144.8923   5.2606561343e+01   3.1044269140e+01    0.5262129    0.3160646  75.93  0.001679765    3.483    0.713
       201 -10.6772     70.4193    141.6403   6.2980066567e+01   3.8153973308e+01    0.6128063    0.3638161  74.89  0.002203055    2.941    0.660
       202  -8.6884     13.6000    146.2991   8.1484968629e+01   4.3434753547e+01    0.2097368    0.1376111  68.92 0.0005956433    1.682    0.405
       203  -8.1575    165.4494    143.9588   3.7346454386e+01   1.9411400049e+01    0.2123527    0.1329124 -69.00  0.000592363    2.369    0.578
       204  -8.2804    138.3136    144.6430   4.4033443254e+01   2.4876621110e+01    0.1645403    0.1264156  87.56 0.0007044093    1.742    0.426
       205  -8.9554     88.0868    143.8762   5.7982862458e+01   3.4725347046e+01    0.3421248    0.2224193  71.90  0.001332102    2.301    0.565
       206  -9.1144      3.1874    142.5171   8.4160979816e+01   4.5143289171e+01    0.3176266    0.1524528  82.74  0.001356997    2.510    0.602
       207  -9.8220    192.9458    134.0000   2.9389930993e+01   1.5886203249e+01     0.365772    0.1908833  50.41  0.001546624    2.087    0.521
       208 -10.7554    197.8513    136.2292   2.8950809305e+01   1.4467694227e+01    0.5812977    0.4331608   2.87  0.002753417    1.988    0.497
       209  -9.4611    202.9710    136.2439   2.8010723942e+01   1.3467771179e+01    0.2734118    0.2247616  47.60 0.0008693584    1.335    0.251
       210  -9.9654     41.1269    135.6013   7.1259085005e+01   4.3578274011e+01    0.3893517    0.3249669 -18.17  0.001752973    1.348    0.258
       211 -10.8953     44.3013    131.1996   6.9425935041e+01   4.4345256884e+01    0.9213415    0.5767717  80.71  0.003875192    2.290    0.563
       212  -9.4415     23.7630    138.5132   7.7316552825e+01   4.4574356666e+01    0.4974913    0.2469485  66.58  0.001907188    3.099    0.677
       213  -9.3953     21.7060    132.2890   7.7061327954e+01   4.6342501582e+01    0.4706704    0.1627497 -47.14  0.001769988    2.762    0.638
       214  -9.1568     24.7918    126.1845   7.5086498534e+01   4.7620936357e+01    0.3639154    0.2253441 -78.80  0.001100233    1.674    0.403
       215  -9.8966     28.7082    122.7110   7.3169786834e+01   4.8138802997e+01    0.5915439    0.3877938  88.67  0.002857449    1.873    0.466
       216  -9.3281     28.5075    116.9963   7.2217591353e+01   4.9585143990e+01      0.52757    0.1970272 -36.73   0.00179655    3.543    0.718
       217  -9.6456    234.2144    136.8812   2.2937913231e+01   7.6636323664e+00    0.3318096     0.243188 -32.58   0.00107974    1.318    0.241
       218  -9.1760     81.3545    137.1230   5.8610810168e+01   3.7576854968e+01    0.3254857    0.1234318 -48.67  0.001093367    2.557    0.609
       219  -8.5662    161.9863    136.8361   3.6504296308e+01   2.1689515917e+01    0.2580778    0.1861656  12.11  0.001093032    2.027    0.507
       220  -8.2176     91.5226    135.6136   5.5132904283e+01   3.6209733845e+01    0.1521985    0.1500767  50.40 5.344756e-05    1.029    0.028
       221  -8.4381      3.9960    134.5041   8.2998878246e+01   4.7101438376e+01    0.1845469   0.09216975 -26.78 0.0008105875    2.669    0.625
       222  -9.7956    132.2665    131.4258   4.2502618405e+01   2.9208987706e+01    0.4461749    0.2815886 -67.21  0.001225636    2.118    0.528
       223 -10.1718    109.7877    131.7216   4.8784239562e+01   3.3736867940e+01    0.7066625     0.613317  10.37  0.002456281    1.296    0.228
       224 -11.0493    107.5446    113.4960   4.4904690082e+01   3.8466291995e+01     1.327462     1.209046 -53.88  0.006891315    1.117    0.105
       225 -10.4277    118.5014    118.5011   4.3039005840e+01   3.5070638314e+01     1.098862    0.3498794 -40.64  0.003088621    3.789    0.736
       226  -9.2747    104.9000    123.8314   4.8306149971e+01   3.6585659106e+01    0.3645679     0.249685  33.95  0.001158447    1.511    0.338
       227 -10.0544    108.9947    121.0004   4.6394231724e+01   3.6441632491e+01    0.4186813    0.3619372 -76.73 0.0008084317    1.300    0.231
       228  -9.7478     83.6871    131.7739   5.6699667908e+01   3.8533107436e+01    0.4527548    0.3174663  76.68  0.001331012    2.049    0.512
       229  -9.6235    209.3874    131.8232   2.5927628594e+01   1.3092162966e+01    0.2875552    0.2481907  63.39 0.0009633008    1.294    0.227
       230  -7.9151    143.3156    131.6676   3.9733727694e+01   2.6808398489e+01    0.1619485    0.1254442  89.86 0.0007046556    1.685    0.407
       231  -9.9183     13.1280    129.3114   7.9422393926e+01   4.7777656586e+01    0.4925599    0.2502353  72.39  0.002000692    2.945    0.660
       232 -10.6041    246.5608    128.5905   1.9519573776e+01   7.0635055037e+00    0.4086968    0.1818451 -54.80  0.001526388    2.492    0.599
       233  -9.7481     99.5002    128.1910   5.0983015899e+01   3.6576605823e+01    0.5344918    0.3559506  87.72  0.002005302    2.585    0.613
       234  -9.0027     73.4814    129.3873   5.9429253122e+01   4.0803752607e+01    0.2996441     0.206815  84.45 0.0008968311    2.121    0.528
       235  -8.1471    168.9762    129.5278   3.3255066489e+01   2.1777861361e+01    0.2077703     0.133722  73.98 0.0007049729    2.383    0.580
       236 -10.2420    228.6109    125.8061   2.1560410919e+01   1.0645258717e+01     0.543372    0.3308434  77.93  0.001995947    2.811    0.644
       237  -9.9889     59.9530    124.4062   6.2818610395e+01   4.4066946151e+01    0.5954077    0.3468879  73.84  0.002072083    3.423    0.708
       238  -8.6908    153.2902    129.4250   3.6778985238e+01   2.5166206879e+01      0.26614     0.182991 -65.38 0.0007710847    1.755    0.430
       239 -10.0329     44.3263    123.0101   6.7854983168e+01   4.6420875584e+01    0.6353719    0.3714808  74.41  0.002362371    2.974    0.664
       240  -9.4314    134.3959    124.1982   4.0183743586e+01   3.0404434425e+01    0.3959127      0.21455  30.23  0.001422162    2.451    0.592
       241  -9.3141    181.2452    120.2372   2.8555243652e+01   2.1075574189e+01    0.5788832    0.3428785 -18.91  0.002047525    3.277    0.695
       242  -8.6332     84.0590    121.9653   5.4300999468e+01   4.0892207302e+01    0.2504412    0.1857851 -16.37 0.0009778847    1.701    0.412
       243  -8.1196    158.5023    121.5137   3.3672704489e+01   2.5741016513e+01      0.15644    0.1449138 -81.29 0.0001354449    1.103    0.093
       244  -9.2971    142.1264    119.5263   3.7064500773e+01   2.9762749632e+01    0.3821772    0.2772302 -71.33  0.001376809    1.727    0.421
       245 -10.3727    117.1229    125.1215   4.5085966780e+01   3.3828412275e+01    0.6926196    0.4845788  42.86  0.002120903    1.426    0.299
       246  -9.0265     71.4134    120.1350   5.8011668460e+01   4.3429308061e+01    0.2127706    0.1439663 -69.99 0.0009363733    1.732    0.422
       247 -10.2589     22.5158    110.2415   7.3116305801e+01   5.1778641114e+01    0.5026219    0.2660843 -71.06  0.002270931    1.905    0.475
       248 -10.8740     15.5717    113.4489   7.6168101247e+01   5.1542898788e+01    0.7323163    0.3699489 -66.76  0.003191055    1.745    0.427
       249 -11.1958     16.9583    104.3606   7.4069715412e+01   5.3644681164e+01    0.6202405    0.3220874 -44.60  0.001754443    1.705    0.414
       250 -10.7110     24.0208    102.7414   7.1116008418e+01   5.3461122383e+01    0.8548679      0.40116  58.83  0.002824845    4.839    0.793
       251  -9.2095    130.6899    118.0454   3.9612394039e+01   3.2579820277e+01     0.436068    0.2796357 -81.88   0.00151914    2.896    0.655
       252 -10.1926    248.5751    116.8472   1.6985106397e+01   8.7439032501e+00    0.3167217    0.2363317 -44.04  0.001958409    1.132    0.117
       253  -9.3525      2.6350    116.4422   8.1118636722e+01   5.1658368788e+01    0.4949561     0.229427  81.40  0.001910537    3.437    0.709
       254  -9.1307      2.3967    109.7695   8.0245728276e+01   5.3292761774e+01    0.2356895    0.1235491 -39.44  0.001007537    1.823    0.451
       255  -9.9789    184.7879    113.5428   2.6320794577e+01   2.1644072658e+01    0.4764161    0.3427719 -83.49  0.001796159    1.803    0.445
       256  -9.6949     79.2542    112.4526   5.3533662210e+01   4.4003131561e+01    0.4443907    0.3049886  86.98  0.001373121    2.448    0.591
       257  -9.6598     66.3102    110.2433   5.7383791340e+01   4.6613363862e+01    0.4541642    0.2683322  66.54  0.001620354    3.281    0.695
       258  -8.8814     59.4757    109.4964   5.9598427478e+01   4.7795482740e+01    0.2145519    0.1407873 -66.76 0.0009089482    1.724    0.420
       259  -9.5149     61.3851    106.0236   5.8073695677e+01   4.8346979697e+01    0.2655663    0.2025606   3.02 0.0006491779    1.490    0.329
       260 -10.9398    249.9683    102.4967   1.4060218015e+01   1.0908872222e+01    0.8991151    0.2065006 -37.98   0.00271449    5.089    0.804
       261  -9.5595     92.9144    112.7573   4.9184305340e+01   4.1489656143e+01    0.4337378    0.3191499 -89.22  0.001484592    2.001    0.500
       262  -9.5286      8.5543    108.1154   7.7795986665e+01   5.3324840083e+01    0.3073838    0.1154456 -44.44  0.001296283    2.378    0.580
       263  -9.5917    133.8935    108.4565   3.6315896444e+01   3.3963782840e+01    0.6232824    0.2271253 -45.41  0.002049922    2.772    0.639
       264 -10.3204     46.0901    102.4407   6.2769643686e+01   5.1238603702e+01    0.7934098    0.4312105  65.67  0.002547131    4.693    0.787
       265  -8.5568    139.9346    104.7798   3.3844460845e+01   3.3385888020e+01    0.2548451    0.1779293  78.03 0.0009765155    1.963    0.491
       266  -8.7315    150.5322    103.9506   3.1120060864e+01   3.1161448444e+01    0.3245096    0.1868705 -60.33  0.001267172    2.186    0.543
       267  -8.7021     93.2451    103.8791   4.6734106188e+01   4.3451929235e+01    0.2991936    0.2034467   8.12  0.001234056    2.128    0.530
       268  -9.5625     35.3195    102.8863   6.6896896964e+01   5.2350485669e+01    0.3078305    0.2314169  88.28 0.0008959375    1.741    0.425
       269 -10.1967     29.7151    100.7228   6.8542763188e+01   5.3423787809e+01    0.4105812    0.2193084  39.51   0.00121416    2.162    0.537
       270 -10.9546    131.5833    101.5067   3.5073934583e+01   3.5932669138e+01    0.8156436    0.4376958  31.29  0.002649325    2.609    0.617
       271  -9.9483    108.7696     98.2527   4.0444618235e+01   4.1563565103e+01    0.6070373    0.4148968  80.32  0.002236221    2.456    0.593
       272  -8.5220     82.4152    100.1026   4.9237781823e+01   4.6295328988e+01    0.2806937    0.1939489  72.37  0.001160649    2.352    0.575
       273  -9.6993     64.1598     96.1809   5.4532182825e+01   5.0201187067e+01    0.4942013    0.3169677  75.78  0.001781912    3.424    0.708
       274  -9.0556      7.0017    103.0512   7.7527278142e+01   5.4636421412e+01     0.197202    0.1452818  66.42 0.0006934959    1.705    0.413
       275  -8.6776     95.0526     96.9777   4.4259875554e+01   4.4614322456e+01    0.2349571    0.1889084  87.54 0.0007171234    1.684    0.406
       276 -10.5340     22.4482     92.3977   6.9553849651e+01   5.6022440965e+01    0.4724916    0.3545352 -29.37  0.001571704    1.254    0.203
       277  -9.4679     44.6802     91.8898   6.0701235626e+01   5.3846383904e+01    0.4607006    0.2247807  17.74  0.001907483    2.456    0.593
       278  -8.2105    139.3026     92.6159   3.0774455522e+01   3.5966170878e+01    0.1599144     0.117372 -79.53 0.0007020153    1.786    0.440
       279  -8.7452    108.0545     91.7660   3.8827646638e+01   4.3058082350e+01    0.2920681    0.2063104  26.83  0.001006046    1.616    0.381
       280  -8.7188     57.7913     91.8000   5.5687565511e+01   5.2123259595e+01    0.1818483    0.1683401  63.82 0.0003226453    1.300    0.231
       281  -9.5975      4.8143     91.3079   7.6297217803e+01   5.7517291821e+01    0.3258483    0.1855435  66.16  0.001234593    2.903    0.656
       282  -8.9799    124.6725     90.8649   3.3962915855e+01   3.9621556923e+01    0.3379308     0.244431  75.79  0.001511178    1.798    0.444
       283  -9.5673     35.8767     81.5276   6.1487246968e+01   5.7156637658e+01    0.5156419    0.2604611 -11.36  0.001946231    3.328    0.700
       284  -8.0505     96.4890     90.4690   4.1953849986e+01   4.5699283609e+01    0.1503926    0.1414883  10.51 0.0001724282    1.052    0.049
       285  -9.2553     86.5604     86.5589   4.4004383578e+01   4.8431049065e+01    0.3519925    0.2431344  69.53  0.001478479    2.273    0.560
       286  -8.9915     65.5560     86.5970   5.1350778824e+01   5.2079648244e+01    0.4031908    0.1919969  18.12  0.001366025    3.451    0.710
       287  -9.3969     48.4921     84.2713   5.7175918159e+01   5.5046710368e+01    0.3727269    0.2394465  61.13  0.001369213    2.682    0.627
       288  -9.2884      7.5157     84.6461   7.3922479308e+01   5.8874490946e+01    0.2727279    0.1492516 -31.51  0.001278399    1.754    0.430
       289  -9.3500      8.7190     80.6256   7.2580365277e+01   5.9696824196e+01    0.2161576    0.1918398  22.90 0.0007452212    1.324    0.245
       290  -9.1842    104.6402     82.7918   3.7221673129e+01   4.5555770796e+01    0.3655607    0.2577931 -87.13   0.00129752    2.422    0.587
       291  -9.7496     34.7593     89.4316   6.3972776874e+01   5.5529737608e+01    0.4668997    0.2822727 -77.49  0.002074193    2.481    0.597
       292  -8.8576    116.8953     83.0156   3.3810250545e+01   4.2864116942e+01     0.220433    0.2100528  25.86  0.000337267    1.066    0.062
       293 -10.1069    186.9738     81.3619   1.8404519545e+01   2.7067617966e+01    0.4473244    0.2316096  47.07  0.001937096    2.216    0.549
       294  -8.6007     86.2433     80.6987   4.2353062409e+01   4.9665711124e+01    0.3019314       0.1693  21.85  0.001161948    2.529    0.605
       295  -8.2032     74.7069     80.3768   4.6204869301e+01   5.1839734784e+01    0.1406898    0.1164114  87.40 0.0006353229    1.740    0.425
       296  -9.0418    176.1896     76.6515   1.9087473743e+01   3.0309559892e+01    0.3021926    0.1933551 -72.95  0.001375328    1.929    0.482
       297  -9.1561     49.5020     76.6923   5.4596434508e+01   5.6509262599e+01    0.2779078    0.1878078  -4.02 0.0008523958    1.721    0.419
       298  -8.2994    214.9404     76.5387   1.3227030697e+01   2.1825795410e+01    0.1717366    0.1067647  39.54   0.00080838    2.490    0.598
       299  -8.4258    105.7346     76.2618   3.4944840477e+01   4.6550484665e+01    0.2442436    0.1123597  36.98 0.0008974124    2.425    0.588
       300  -8.0797    128.3012     75.6348   2.8724491697e+01   4.1637688738e+01    0.1521296     0.114215 -79.65 0.0007034694    1.731    0.422
       301  -9.8532     10.4577     74.1771   7.0383148457e+01   6.0990698372e+01     0.292457    0.1810484  14.18  0.001336228    1.721    0.419
       302  -9.1052     82.3351     72.4677   4.1104334357e+01   5.1980836528e+01    0.2858189    0.2258224  81.95 0.0009342216    1.921    0.479
       303  -9.9431     28.7207     70.2322   6.1387306652e+01   6.0292048976e+01     0.784781    0.3336495 -17.54  0.002288368    5.905    0.831
       304  -8.2417    105.8249     71.6175   3.3502571791e+01   4.7366060075e+01    0.2044439     0.132438  57.18 0.0004792706    1.638    0.389
       305  -9.3722     51.7398     69.8428   5.1604761196e+01   5.7571992141e+01    0.3812812    0.2231877 -64.56  0.001626612    2.785    0.641
       306  -8.8599     16.5464     69.1858   6.6459557750e+01   6.1602575129e+01    0.3534885    0.1655515 -70.95  0.001432322    3.353    0.702
       307  -9.4648     24.7170     80.7292   6.5899072217e+01   5.8446278042e+01    0.3579123    0.2503973  73.29  0.001380752    2.398    0.583
       308  -9.1566      1.6280     68.8343   7.3030498302e+01   6.2662946922e+01    0.2047845    0.1146952 -44.33 0.0009660408    1.417    0.294
       309  -9.6540      8.8554     65.9877   6.9090786636e+01   6.2826194792e+01    0.2872854     0.122493 -21.74  0.001229055    2.866    0.651
       310  -9.0284     83.9725     64.1376   3.7864531198e+01   5.3160442306e+01    0.3981416    0.2042517  19.40  0.001277311    4.129    0.758
       311  -8.6220     95.5196     71.5519   3.6550903411e+01   4.9547513747e+01    0.2526174    0.1346195 -52.65  0.001023333    2.382    0.580
       312  -9.4819     18.1719     61.2656   6.3534079989e+01   6.3080969987e+01    0.3288819    0.1639656 -40.49  0.001150005    1.716    0.417
       313  -7.7576    170.2903     60.6980   1.6140066582e+01   3.4229148482e+01    0.1410173   0.09846814 -75.26 0.0002411657    1.566    0.361
       314  -8.3330    100.6369     60.3173   3.1445967943e+01   5.0387663106e+01    0.1425396     0.112012  87.72 0.0007041186    1.769    0.435
       315  -9.2373     73.4932     59.4852   3.9903903004e+01   5.5926613509e+01    0.2988219    0.2192247 -56.55  0.001175181    1.803    0.445
       316  -8.2279    165.0233     59.4934   1.6721211136e+01   3.5645273048e+01    0.2084302    0.1270901  61.99 0.0007092229    1.526    0.345
       317  -8.0151    111.4456     58.4312   2.7860661077e+01   4.8319097318e+01    0.1424441    0.1272509  38.78 0.0001162397    1.068    0.063
       318  -9.6150     39.1619     57.5242   5.2875812775e+01   6.1588058387e+01    0.2680946    0.1461078 -30.18  0.001029467    1.880    0.468
       319  -8.9306      7.6370     57.3682   6.7372972965e+01   6.4652921872e+01     0.163065    0.1436318  63.83 0.0007431273    1.654    0.395
       320  -9.8330      2.3103     56.0681   6.9571909049e+01   6.5242798315e+01    0.3036965    0.1889838 -58.04  0.001815641    1.534    0.348
       321  -8.0560    119.3166     55.6589   2.5007493837e+01   4.6960493143e+01    0.1428479    0.1085166 -81.21 0.0007048567    1.709    0.415
       322  -8.5377     63.1415     55.1040   4.2197778954e+01   5.8476416766e+01    0.1676643    0.1639713  66.30 0.0006866689    1.329    0.247
       323  -8.7392     25.9972     54.8208   5.7922291162e+01   6.3590413135e+01    0.2139813    0.1230639  -9.50 0.0009252031    1.992    0.498
       324  -9.4014    249.2626     54.2848   5.0857515105e+00   1.8440809461e+01    0.1984723   0.06623791 -49.77 0.0009058049    2.394    0.582
       325  -8.3378    100.8199     54.3967   2.9475040130e+01   5.1274363925e+01    0.2024122    0.1169344  40.41 0.0005383734    1.653    0.395
       326  -8.6434     54.4784     53.9703   4.5195997601e+01   6.0066490980e+01    0.1695478    0.1198611 -67.44 0.0007446559    2.556    0.609
       327  -8.6616     36.3411     53.6566   5.2812296999e+01   6.2639430726e+01    0.1183549     0.102714  63.76  0.000704809    1.780    0.438
       328  -8.4266     20.3478     52.6814   5.9890266094e+01   6.4541037233e+01    0.1126334   0.09667849  54.19 0.0007048585    1.731    0.422
       329  -8.7610     92.4777     50.7142   3.0684569076e+01   5.3598230553e+01    0.2446422    0.1317912 -41.70  0.001012646    2.080    0.519
       330  -8.3858     31.1551     51.4150   5.4396198797e+01   6.3654281970e+01    0.1664343    0.1082206  35.45 0.0005808346    1.710    0.415
       331  -8.9092     75.7458     49.9928   3.5819107118e+01   5.7040423729e+01     0.294515    0.1492202  25.49  0.001178741    2.679    0.627
       332 -11.2798     45.5694     48.8618   4.7071172513e+01   6.2247542066e+01    0.2689342    0.2177953 -19.08 0.0004219224    1.145    0.127
       333  -8.4873     81.8965     46.8519   3.2652573683e+01   5.6318897276e+01    0.1671961    0.1595934  71.08 0.0004833318    1.271    0.213
       334  -8.5585     64.6034     46.4469   3.8539341231e+01   5.9609290491e+01    0.2539952     0.108079  32.11  0.001028854    2.520    0.603
       335  -8.8890     22.6388     46.5027   5.6724814060e+01   6.5441646382e+01    0.2387431    0.1110068  22.84  0.001193526    2.106    0.525
       336  -8.7184      1.5890     45.9804   6.7086583239e+01   6.7230369006e+01    0.1641238    0.1183958 -38.77 0.0004317545    1.140    0.123
       337  -8.4490    150.0000     44.4824   1.5380997515e+01   4.1332552716e+01    0.2699269    0.0780298 -33.74 0.0009228224    3.839    0.740
       338  -9.6542     16.5266     43.8290   5.8811793498e+01   6.6497429932e+01    0.3215859     0.157198 -60.88  0.001470837    3.100    0.677
       339  -8.0915     31.3418     44.3383   5.1800653091e+01   6.4860415265e+01     0.135038   0.08249859 -11.56 0.0007049849    1.768    0.434
       340  -8.5637     58.5012     42.5646   3.9427134478e+01   6.1237806813e+01    0.2179989    0.1197136 -48.81  0.001025137    2.466    0.594
       341  -9.8177      5.0385     40.8676   6.3701818569e+01   6.7942968340e+01    0.4111522    0.2016662 -67.64  0.001819742    3.713    0.731
       342  -8.9006    113.9601     41.0967   2.1759720962e+01   5.0219001476e+01    0.2041374    0.1753334  48.54 0.0003373603    1.052    0.050
       343  -8.2281     69.1942     41.3895   3.4993812566e+01   5.9529939574e+01    0.1771754    0.1156934  50.84 0.0005016075    1.630    0.387
       344  -8.9424    123.4578     40.1064   1.9300725102e+01   4.8158845143e+01    0.2257199    0.1603396  50.29 0.0003679182    1.269    0.212
       345  -8.7918     84.2713     39.4652   2.9273752846e+01   5.6870461948e+01    0.2739315    0.1514017  34.62  0.001305883    1.808    0.447
       346  -8.6077    106.6571     36.6750   2.2100651028e+01   5.2427896454e+01    0.2133824    0.1405447  31.05 0.0009495606    1.698    0.411
       347  -8.3374     95.3383     37.6500   2.5393384411e+01   5.4790168952e+01    0.1320195    0.1038599 -83.33 0.0007045605    1.791    0.442
       348  -8.7492     26.0844     36.2598   5.1283623916e+01   6.6792732780e+01    0.1875636    0.1537038 -47.77  0.001122781    1.587    0.370
       349  -8.5217     36.8037     40.7867   4.7944308129e+01   6.4759176607e+01    0.1541213    0.1438208  21.36  0.000542114    1.358    0.264
       350  -8.5338     37.8345     35.3917   4.5372772091e+01   6.5453613984e+01    0.1750663    0.1006301  20.05 0.0004499437    1.691    0.409
       351  -9.4658      6.2860     33.5962   6.0536150109e+01   6.9116884667e+01    0.2444212    0.1643186 -11.11   0.00096818    1.263    0.208
       352  -8.2743    119.3817     33.2169   1.8058939508e+01   4.9948150426e+01    0.1717018    0.1206769 -46.73 0.0004571951    1.636    0.389
       353  -9.1763    222.2555     32.4045   3.3705411603e+00   2.6644307873e+01    0.1681171   0.09636951  88.45 0.0009493901    1.637    0.389
       354  -8.1621     60.4860     32.5075   3.4784123988e+01   6.2305628498e+01    0.1267093    0.1088415  22.77 0.0003218372    1.065    0.061
       355  -8.7690     12.7371     31.1068   5.6132325949e+01   6.8985986219e+01     0.167406    0.1391414 -43.86 0.0009791011    1.486    0.327
       356  -9.1731    147.9697     28.4944   1.1391186373e+01   4.3786611855e+01     0.213869    0.1119079  64.86 0.0002429243    1.631    0.387
       357  -8.7693      1.3405     27.8575   6.1170886737e+01   7.0434998946e+01    0.1546489   0.07975176 -37.94 0.0002512901    1.586    0.369
       358  -8.2679     81.6409     27.3208   2.5646119986e+01   5.8904561673e+01    0.1233291    0.1003413 -89.87 0.0007043937    1.767    0.434
       359  -7.9448     62.3016     26.6707   3.1790629996e+01   6.2714830704e+01    0.1112746    0.1009741  86.95 0.0007032703    1.646    0.393
       360  -9.8113     44.3744     25.1726   3.8266820774e+01   6.5917720221e+01    0.2228785    0.1638567  19.83 0.0003621331    1.141    0.124
       361  -8.4079     28.3333     26.3279   4.6151950538e+01   6.8015583626e+01    0.1270284   0.07756463  -2.59 0.0007051738    1.718    0.418
       362  -7.7591    118.6703     24.6403   1.5538346229e+01   5.1072161854e+01    0.1383724   0.08748882  35.17 0.0007041871    1.794    0.443
       363  -8.5297    110.5021     24.1017   1.7090750774e+01   5.2997740911e+01    0.1647092     0.131322 -23.51 0.0004140597    1.485    0.327
       364  -9.0478     67.0014     23.6635   2.8930840373e+01   6.2196547202e+01    0.1754611    0.1393534  34.36 0.0003459788    1.053    0.051
       365  -8.4399     58.7832     22.1269   3.1232076906e+01   6.3879703610e+01    0.1697448    0.1209872  18.44 0.0002383045    1.314    0.239
       366  -9.9412     13.1309     20.9982   5.1794873705e+01   7.0492575608e+01    0.2519947    0.1715275   5.83 0.0006882324    1.230    0.187
       367  -9.6172    189.0310     20.3649   4.0899870482e+00   3.5217933737e+01    0.1808401    0.1700117 -78.53  0.001284069    1.282    0.220
       368  -8.6500     84.8397     21.1462   2.2430304175e+01   5.8914814416e+01     0.178248    0.1604776  67.56 0.0005072572    1.258    0.205
       369  -7.8123     48.3019     21.6753   3.5129243751e+01   6.5724891652e+01    0.1043268   0.09835696  72.19 0.0003563302    1.637    0.389
       370  -8.7774     40.9990     21.0057   3.7944585614e+01   6.6957626644e+01    0.1816053    0.1413873  14.53            0    1.030    0.029
       371  -7.9151     63.3145     20.6593   2.8998021462e+01   6.3219857827e+01    0.1112737   0.09890921 -89.10 0.0007047571    1.703    0.413
       372  -8.0603     73.6692     19.3636   2.5053886841e+01   6.1372226991e+01    0.1175262   0.09774566 -82.08 0.0007037889    1.809    0.447
       373  -9.3086     29.6908     18.8882   4.2245338811e+01   6.8839674820e+01    0.2514533     0.138888  39.40  0.001435244    1.876    0.467
       374  -7.9208      1.3299     19.6918   5.7979150912e+01   7.1729197214e+01   0.09522248   0.08422979  28.72 0.0004983762    1.662    0.398
       375 -10.0174    196.1335    248.5800   5.0723288954e+01  -6.3959137182e+00    0.2851959    0.2102561  28.57  0.001145752    1.291    0.225
       376  -9.2639    188.1771    248.8027   5.2367805959e+01  -5.3451744604e+00    0.1788744    0.1295109  -1.45 0.0004669238    1.332    0.249
       377  -8.7749     27.4995     13.4400   4.0830259695e+01   6.9806985372e+01    0.1180829   0.08865109   9.38 3.968369e-05    1.033    0.032
       378 -10.7420    161.4462    231.2535   5.5233866176e+01   1.6837406926e+00    0.6425987    0.2990499  29.80   0.00163177    2.069    0.517
       379  -8.0914      3.4567     12.5144   5.3607845480e+01   7.2604227393e+01    0.1129416   0.08162492  -8.47 0.0002462139    1.024    0.024
       380  -8.1703     32.1521     11.3917   3.7624142019e+01   6.9397466233e+01    0.1497514   0.09587177  40.26 0.0004170355    1.584    0.369
       381  -8.9069    148.1810    248.9996   6.0875608050e+01   4.3742615041e-01    0.2468197    0.1756461  32.13  0.001391078    1.217    0.178
       382  -9.9694    107.3146    247.0357   6.9709417438e+01   7.0268210255e+00     0.478693     0.284337 -75.51  0.001988402    2.340    0.573
       383  -8.8096     50.4309     15.3279   3.1533071155e+01   6.6087799728e+01    0.2343934    0.1392056  21.41 0.0008899239    1.670    0.401
       384 -10.7614    107.3846    238.0764   6.8553311906e+01   8.8418303702e+00    0.4819002     0.306411 -60.77  0.002463039    1.779    0.438
       385  -9.1170     12.8025    244.5900   8.9932945862e+01   1.9922836036e+01     0.221606    0.1569578  39.52  0.001438034    1.393    0.282
