#   1 NUMBER                 Running object number                                     
#   2 MAG_AUTO               Kron-like elliptical aperture magnitude                    [mag]
#   3 X_IMAGE                Object position along x                                    [pixel]
#   4 Y_IMAGE                Object position along y                                    [pixel]
#   5 X_WORLD                Barycenter position along world x axis                     [deg]
#   6 Y_WORLD                Barycenter position along world y axis                     [deg]
#   7 A_WORLD                Profile RMS along major axis (world units)                 [deg]
#   8 B_WORLD                Profile RMS along minor axis (world units)                 [deg]
#   9 THETA_WORLD            Position angle (CCW/world-x)                               [deg]
#  10 FWHM_WORLD             FWHM assuming a gaussian core                              [deg]
#  11 ELONGATION             A_IMAGE/B_IMAGE                                           
#  12 ELLIPTICITY            1 - B_IMAGE/A_IMAGE                                       
         1 -12.0530     12.2183     49.2805   9.8106128132e+01   6.5641652433e+01    0.9014055    0.5461783 -49.95  0.005338657    1.380    0.276
         2 -12.5246    129.2378     19.1368   4.5007105015e+01   5.0138850353e+01    0.2881703    0.2483918  -9.75  0.000464105    1.344    0.256
         3 -12.4307    128.7670     11.6362   4.2652911187e+01   5.0978868542e+01    0.3879851    0.2772891  82.70  0.002195711    1.453    0.312
         4  -9.9595     33.4694      1.5914   6.7144809728e+01   7.0992256391e+01    0.2039107    0.1374133  35.33 0.0008830858    1.424    0.298
         5 -10.2517     14.9857     13.9703   8.3344289172e+01   7.1636929669e+01    0.1938026    0.1334354 -27.18 0.0004888444    1.228    0.186
         6 -10.8584     15.8822      6.5870   7.9208962204e+01   7.2591605613e+01     0.489868    0.2604951 -35.90  0.002978726    1.769    0.435
         7 -11.3597     12.2629      2.0834   7.9000756247e+01   7.3563619869e+01    0.3141481    0.1807657   8.38  0.001978563    1.586    0.369
         8 -11.0583     26.4497      2.5794   7.1234021809e+01   7.1845927576e+01    0.2854505    0.1738604  33.69 0.0009964235    1.577    0.366
         9 -11.2755     20.2431     17.4591   8.2014192643e+01   7.0591266594e+01    0.3736899    0.2835452   8.42  0.002227764    1.185    0.156
        10 -10.6280     22.5235     13.1251   7.8723788746e+01   7.0971749905e+01    0.2098978    0.1141389 -34.87  0.001233944    1.707    0.414
        11 -10.9135     24.0129      8.0084   7.5372892240e+01   7.1486092713e+01     0.301949    0.2230204  45.70 0.0004295805    2.134    0.531
        12 -11.7565     20.9707      4.1161   7.5024246538e+01   7.2342537447e+01    0.4703118    0.1944047 -34.90  0.002508377    2.322    0.569
        13 -12.0433      8.4973      8.6974   8.4662342851e+01   7.3008958220e+01    0.4032051    0.2124083  27.74  0.002146322    1.971    0.493
        14 -10.0201      5.4241     13.2783   8.8670524222e+01   7.2569592681e+01    0.1988811    0.1490089 -35.61 0.0007204574    1.302    0.232
        15 -11.9828      4.3365     17.9402   9.1339244053e+01   7.1902649817e+01    0.4125648    0.3560011  42.75  0.002146776    1.863    0.463
        16 -11.0489      9.6297     15.9944   8.7376653274e+01   7.1808612534e+01    0.2801675    0.1625346 -15.44  0.001097453    1.550    0.355
        17 -11.5735    238.1585     18.0596   3.1538663660e+01   2.5414762626e+01    0.2213092    0.1715139 -42.78 0.0002725107    1.339    0.253
        18 -11.2543     48.2422     15.5571   6.7335330599e+01   6.7163423565e+01    0.6008532     0.396153  10.00  0.003159405    1.470    0.320
        19 -10.7129     43.5449      8.6928   6.6090197107e+01   6.8703593345e+01    0.3299319    0.1988059 -24.96 0.0007939079    1.653    0.395
        20 -10.9314     39.7287     11.0122   6.8973334998e+01   6.9009491806e+01    0.2349075    0.2228515  26.95 0.0006882033    1.531    0.347
        21 -11.2883     40.0853     15.6324   7.1040739816e+01   6.8382473606e+01    0.3038959    0.2447228  10.54  0.001161527    1.070    0.065
        22 -11.7519    233.8625     13.2399   3.0898609423e+01   2.6832249506e+01    0.4421256    0.1436991 -34.55  0.002020183    2.909    0.656
        23 -10.8799    157.5672     11.8703   3.8243565602e+01   4.4113048778e+01    0.2935445    0.1834605 -67.50  0.001107437    1.806    0.446
        24 -11.3904     77.8851     11.0091   5.4392593071e+01   6.2302288494e+01    0.4956019    0.2284899  50.34 0.0007720191    1.845    0.458
        25 -10.9970     70.2588     14.6764   5.8444645155e+01   6.3420571898e+01    0.5302846    0.2576158  -5.82  0.002214346    3.271    0.694
        26 -10.4438    117.9262     11.9018   4.4787017524e+01   5.3485923408e+01    0.4419497    0.2159195 -16.88  0.002054359    2.582    0.613
        27 -10.5544    100.0300     12.2436   4.8847987929e+01   5.7506379154e+01    0.2519225    0.1816345  22.30 0.0007186189    1.464    0.317
        28  -9.6844     65.5159     11.9552   5.8887590778e+01   6.4598296707e+01    0.1638203    0.0931031   9.38 0.0004014426    2.202    0.546
        29 -11.3548    164.3115      8.0294   3.6318832155e+01   4.2878821117e+01    0.3691784    0.2178915 -11.13 0.0009826822    2.446    0.591
        30 -11.8330    146.3632      7.1599   3.8451114736e+01   4.7215133035e+01    0.4553551    0.2834722  37.48  0.002086592    1.872    0.466
        31 -10.7231    148.3698      1.9153   3.6644741803e+01   4.7190799098e+01    0.2330177    0.1563013 -89.69 0.0008281369    1.469    0.319
        32 -12.9006    214.4099      5.6702   3.0821454221e+01   3.1722865762e+01    0.8775113    0.4593274  89.50  0.004813986    1.787    0.440
        33 -10.0502    246.2830      8.3654   2.9089620867e+01   2.4895128565e+01   0.09562277   0.08757824  39.20 0.0007017285    1.688    0.408
        34 -11.1411    190.7197      6.8140   3.3142974605e+01   3.6857151105e+01    0.3721362    0.3085847  84.90  0.002128747    1.070    0.065
        35 -11.5452    195.1660      2.5946   3.1746038772e+01   3.6262313726e+01       0.3683    0.2159459 -85.01  0.001428152    1.580    0.367
        36 -11.4221     98.1096      4.1625   4.6222825235e+01   5.8634418880e+01    0.3587366    0.2260653  19.23  0.001969714    1.828    0.453
        37 -10.6343     90.4374      7.4292   4.9374446790e+01   6.0025710276e+01    0.3384826    0.1552174  57.73  0.001626445    1.905    0.475
        38  -9.6846     93.4979      4.5208   4.7453152235e+01   5.9612954173e+01    0.1818465    0.1230358 -11.82  0.001057621    1.687    0.407
        39 -10.4777    230.9966      6.5086   2.9759210978e+01   2.8151044447e+01    0.1640452   0.09766509  83.16 0.0003567473    1.503    0.335
        40 -12.2688    179.0222      4.3023   3.3698275783e+01   3.9784376177e+01    0.2816234    0.2157096  89.45 0.0002987639    1.113    0.101
        41 -10.3393     81.4553      5.4827   5.1002185278e+01   6.2081561821e+01    0.2220068    0.1798453 -49.35  0.001046249    1.651    0.394
        42 -11.4154    236.6832      3.7530   2.8830449105e+01   2.7288931863e+01    0.3032323    0.2199771  35.24  0.001891092    2.409    0.585
        43 -11.1643    170.3339      3.3963   3.4394566011e+01   4.1889283527e+01    0.4387247    0.1778244 -63.41  0.001701958    3.547    0.718
        44 -11.7652     67.8130      3.7141   5.4375204821e+01   6.4956556514e+01    0.2206704    0.1704811  34.35 0.0003393154    1.052    0.049
        45 -10.7509    243.0478      2.9820   2.8276939317e+01   2.6106403937e+01    0.1729845    0.1349066 -69.94 0.0005456143    1.054    0.051
        46 -10.2029    126.1945      2.8066   4.0223039484e+01   5.2341773052e+01    0.2052775    0.1687831  30.91 0.0005096175    1.316    0.240
        47  -9.4855    118.5476      3.5525   4.1808097022e+01   5.4059937000e+01    0.1284638      0.10544  54.21  0.000393599    1.049    0.046
        48 -10.0903     74.3064      2.3688   5.1740985538e+01   6.3797445626e+01    0.2171874     0.171252 -72.70  0.001095687    2.021    0.505
        49 -10.7033    230.7004      1.5896   2.8801811291e+01   2.8725206385e+01    0.1835002    0.1147618  70.36 0.0001589487    1.570    0.363
        50 -10.7690    108.0523      1.6628   4.3154876931e+01   5.6610302174e+01    0.1881253    0.1486731  53.10  0.000613249    1.052    0.049
        51  -9.7120    156.2491      6.5352   3.6924339173e+01   4.4924590663e+01     0.176633   0.09988968  59.73 0.0004689446    1.536    0.349
        52  -9.3083     82.4634      1.3890   4.9004356784e+01   6.2211175596e+01    0.1245342   0.09902854  41.43 9.926998e-05    1.025    0.024
        53 -12.6406     21.9135    157.0869   1.1381395041e+02   3.9421174980e+01    0.6034934    0.5035026  -1.69  0.000909797    1.544    0.352
        54 -12.3970    226.0279    245.6968   7.9260705152e+01  -8.4327952293e+00    0.5701669    0.3008797  -9.79  0.002898077    2.326    0.570
        55 -12.2813    232.7674    244.8958   7.7906729948e+01  -9.1583061738e+00     0.596612    0.2012025 -31.89  0.002669085    3.023    0.669
        56 -11.4717     89.0248    249.6003   1.0759094404e+02   1.0362042248e+01    0.2924601    0.2221783  37.58 0.0008448821    1.181    0.153
        57 -10.1302     72.6067    250.1315   1.1100692636e+02   1.2465516594e+01    0.1974392    0.1642729   1.85  0.001266198    1.703    0.413
        58 -12.0195     28.9594    247.8645   1.1943011314e+02   1.8140821570e+01    0.5378538    0.2751225  78.10  0.003054867    1.900    0.474
        59 -13.0227     19.1901    237.6819   1.2070505335e+02   2.1194572298e+01    0.6915325    0.4010331  48.50  0.004353627    1.424    0.298
        60 -11.7088      4.7145    235.7915   1.2334794614e+02   2.2983157700e+01    0.4282128    0.3204318  58.79  0.001985849    1.128    0.113
        61 -13.3252      5.6846    245.1310   1.2359924335e+02   2.1039246204e+01    0.9140241    0.5416926  38.17  0.004794452    1.607    0.378
        62 -12.2873     22.1980    248.9219   1.2075915159e+02   1.8654099573e+01    0.4618165    0.2465161  40.23  0.001583855    1.622    0.383
        63 -11.0231     17.4806    247.4819   1.2155682998e+02   1.9420952758e+01    0.2134795    0.1527001  77.62 0.0004986583    1.150    0.131
        64  -9.4570    216.4640    155.4332   6.4207920638e+01   7.8313097742e+00    0.1393622    0.1250608 -27.16 5.886769e-05    1.035    0.034
        65  -9.5261    157.6681    154.9768   7.6493592783e+01   1.9116000296e+01    0.2647468    0.1154975 -29.59 0.0007044664    4.507    0.778
        66 -10.0762     11.2745    153.7022   1.1633155797e+02   4.1114011463e+01     0.227748    0.1400374  41.43  0.001261919    1.727    0.421
        67  -9.8717    177.1584    150.7316   7.1096735334e+01   1.6168085296e+01    0.2392208    0.1969504  63.97  0.001191528    1.472    0.321
        68  -9.3618      5.6602    149.7726   1.1746773734e+02   4.2480349163e+01    0.1175064   0.08488804 -43.65 0.0002986251    1.537    0.349
        69 -10.7557     33.1529    148.0510   1.0961032279e+02   4.0674435236e+01    0.1975094    0.1907311 -86.45 0.0003154461    1.123    0.110
        70 -10.4106     17.8587    146.9268   1.1382634297e+02   4.2294521086e+01    0.2904206    0.1967598 -22.36  0.001029492    1.970    0.492
        71 -10.2381    207.0568    146.5096   6.4047264013e+01   1.1225918358e+01    0.2028623    0.1431881  42.70 0.0005884959    1.537    0.350
        72  -9.3614     41.1844    146.3466   1.0704448448e+02   4.0300523420e+01    0.1780649     0.120426  41.98 0.0002815655    1.569    0.363
        73  -9.7276    220.4607    143.9957   6.1049341650e+01   9.2254484664e+00    0.2141308    0.1244987 -40.34 0.0007098672    1.534    0.348
        74  -9.9709     10.4671    144.4771   1.1563539304e+02   4.3456952993e+01    0.1935269    0.1231136  -7.61 0.0007709172    2.223    0.550
        75  -9.6393     82.3809    139.8431   9.3602142310e+01   3.6602521057e+01    0.2188188     0.129823 -48.16 0.0009378119    1.639    0.390
        76 -10.1432     55.2459    138.7030   1.0162574935e+02   4.0661581049e+01    0.3650864    0.2552822  47.83   0.00183462    1.545    0.353
        77 -10.1725      2.8232    136.4224   1.1697643554e+02   4.5946371731e+01    0.2587171   0.08316778 -77.76  0.001010158    2.732    0.634
        78  -9.8117      9.4966    136.5122   1.1506659013e+02   4.5501388076e+01    0.1299271    0.1071226 -75.36 -2.829564e-05    1.002    0.002
        79  -9.5968    122.7167    135.3174   8.0957632009e+01   3.0574960309e+01    0.1556651    0.1253274  86.36 0.0002344956    1.583    0.368
        80  -9.4260     40.0476    135.1965   1.0571813021e+02   4.3263256548e+01    0.1644964    0.1115213  23.46 0.0003229096    1.683    0.406
        81  -9.7469     20.6758    135.2438   1.1161948235e+02   4.5004657388e+01      0.19609   0.09754548 -62.78 0.0009320392    1.649    0.394
        82  -9.9263    249.2931    134.0107   5.4291349554e+01   5.9834436612e+00    0.1929426    0.1451311 -36.77 0.0009587537    1.106    0.096
        83  -9.2306     48.9372    134.2980   1.0281831364e+02   4.2531549881e+01    0.2337734   0.07391053  46.67 0.0007034204    4.278    0.766
        84 -10.6354    111.8745    132.7395   8.3387534247e+01   3.3275913002e+01    0.2897433    0.2050777 -41.75  0.001282594    1.423    0.297
        85 -10.6781     54.9856    132.5422   1.0062032025e+02   4.2267556321e+01    0.3566587    0.2223384  47.57  0.001153619    1.786    0.440
        86 -11.4353     73.7535    129.4187   9.4112439880e+01   4.0541080681e+01    0.3673705    0.3185037  50.29  0.001087617    1.233    0.189
        87 -11.5743     36.9502    129.3114   1.0575412681e+02   4.5070486227e+01    0.5831822    0.2579037 -49.62  0.002484424    2.075    0.518
        88 -10.6404     24.3662    126.0209   1.0922943798e+02   4.7029262915e+01    0.2102841    0.1985859  17.25 0.0002908362    1.239    0.193
        89 -11.2058     13.2596    126.0458   1.1270584838e+02   4.7851397310e+01    0.3302567    0.1920555  22.32 0.0003606455    2.015    0.504
        90 -11.5728     10.7942    123.0012   1.1308623104e+02   4.8770474389e+01    0.7162035     0.225612  34.76  0.002930469    3.331    0.700
        91  -9.9516    220.1876    124.2302   5.6778575965e+01   1.2895427217e+01    0.1934209    0.1544162 -58.11  0.000564508    1.318    0.241
        92 -10.4389      2.8398    122.8453   1.1552904113e+02   4.9284212332e+01    0.2231509    0.1344933 -61.94  0.000574183    1.340    0.254
        93  -9.7371      1.3215    119.1701   1.1557818095e+02   5.0266017427e+01    0.1933345    0.1015718 -73.27 0.0002659529    1.545    0.353
        94 -11.2413     21.7039    121.3384   1.0939499788e+02   4.8414026463e+01    0.2915259    0.2113072 -23.41 0.0008932058    1.612    0.380
        95 -10.6545     72.9261    118.0418   9.1905071619e+01   4.3507143490e+01    0.4497379    0.2679279 -80.96  0.001705463    2.692    0.629
        96 -10.7027     86.1049    116.5613   8.7309504272e+01   4.1798322806e+01    0.2825666     0.208975 -47.52 0.0004107294    1.288    0.224
        97  -9.1887     32.4633    121.5590   1.0593717666e+02   4.7453845083e+01    0.1383481    0.1172688 -54.80 2.854928e-05    1.066    0.062
        98  -9.9350    213.9742    115.6479   5.5896970348e+01   1.5675544266e+01    0.1866881    0.1771722  49.40 0.0004999849    1.168    0.144
        99 -10.6299     16.7705    115.3822   1.1012628117e+02   5.0257918583e+01    0.3156866    0.1513027 -29.52  0.001369134    2.706    0.630
       100 -11.0650    249.2924    112.1283   4.9778852185e+01   9.6481638684e+00    0.2507995    0.1857687 -49.62 0.0004097153    1.198    0.165
       101  -9.9502     94.9887    112.4934   8.3498833465e+01   4.1242131888e+01    0.2460384    0.2040945 -49.10 0.0009544726    1.169    0.145
       102 -11.3328     37.3947    110.3264   1.0228095659e+02   4.9794880567e+01     0.532104     0.283942  55.23  0.002108655    2.688    0.628
       103 -11.8671     55.3557    109.6601   9.5924812926e+01   4.7970520649e+01     0.474764    0.2582655 -50.67   0.00144453    1.637    0.389
       104 -10.4234      1.4115    108.9735   1.1431278567e+02   5.2742370939e+01    0.3289899    0.1496603 -82.59   0.00120637    2.187    0.543
       105 -10.5255      2.4976    105.4937   1.1349357075e+02   5.3529249185e+01    0.1902658    0.1591722  18.25  0.000555862    1.453    0.312
       106 -12.4719     14.7286    109.1802   1.0987937057e+02   5.1924103850e+01    0.4644076    0.3410248  18.65   0.00252515    1.605    0.377
       107 -10.4427    243.9650    104.7039   4.8946611940e+01   1.1831615704e+01    0.1788398      0.16015 -48.55 0.0005930705    1.064    0.060
       108 -11.0557    120.7103    100.5403   7.2616722748e+01   3.8929253110e+01    0.7493728    0.3201329 -30.83  0.002150194    3.978    0.749
       109 -10.5031     51.6684    104.0605   9.5962321051e+01   4.9787158850e+01    0.2116757    0.1678794 -48.12  0.001005567    1.130    0.115
       110 -10.9967     36.9221    102.0268   1.0079590115e+02   5.1876554689e+01    0.4551239    0.2768163   4.44  0.002194039    2.072    0.517
       111  -9.7071     82.5324    109.0089   8.6599765860e+01   4.4207093520e+01    0.2358107    0.1430293 -52.45  0.001027636    1.581    0.368
       112 -11.3977      3.9719     99.2388   1.1210431144e+02   5.4958146347e+01    0.3361335    0.2555676 -58.50  0.001132336    1.060    0.057
       113  -9.7372      1.2050     95.9954   1.1260650767e+02   5.5864704471e+01    0.1920578    0.1076561 -69.80 0.0004639656    1.469    0.319
       114 -11.4652    143.5399     98.5811   6.6042692868e+01   3.4359143160e+01    0.4923927    0.3920126  70.40  0.002352322    1.462    0.316
       115 -10.7335     61.9418     98.8584   9.1070543014e+01   4.9720137504e+01    0.3188202    0.2652816 -31.00 0.0009022144    1.159    0.138
       116 -10.7766     66.5524     98.2153   8.9275397309e+01   4.9225314452e+01    0.2522787    0.2366143  -8.39 0.0004679494    1.072    0.068
       117 -10.2507     50.5370     99.1973   9.5246273507e+01   5.1093553436e+01    0.2132409    0.1937724  11.48 0.0003106911    1.180    0.153
       118  -9.7496     24.1406     99.1602   1.0485990839e+02   5.3688673329e+01    0.1671826    0.1492221  67.87 0.0003483301    1.317    0.241
       119 -11.4943     14.9729     98.4927   1.0806331773e+02   5.4504027823e+01    0.2235238    0.2046087 -75.87 0.0007630645    1.153    0.132
       120 -11.0796     14.3292     94.9950   1.0768926856e+02   5.5383120018e+01    0.3444512    0.1207257 -55.66  0.001492852    2.110    0.526
       121  -9.5628    250.1869     95.8237   4.6282157993e+01   1.2148586760e+01    0.1625462    0.1419606 -25.31 0.0004410931    1.272    0.214
       122 -10.5300     37.8394     95.1045   9.8973695695e+01   5.3451808839e+01    0.2953547     0.175603  37.17 0.0009952048    1.912    0.477
       123 -10.4484    173.2011     83.7721   5.5477204005e+01   3.0373666613e+01    0.2841342    0.2020153 -20.20 0.0008546936    1.767    0.434
       124 -12.7978    158.3557     89.6236   6.0128359666e+01   3.2738889190e+01    0.7371768     0.552553 -58.64  0.003474353    1.453    0.312
       125 -12.3842    165.7752     83.5798   5.6909871318e+01   3.2133893638e+01     1.010779    0.6959331  62.48  0.004755996    1.530    0.346
       126 -10.8710     21.7691     87.2062   1.0337783748e+02   5.6710320142e+01    0.4797033    0.1806726 -58.17  0.002083072    2.089    0.521
       127 -11.5112     25.7479     90.5666   1.0255130634e+02   5.5612857422e+01    0.5460845    0.2882218 -42.03   0.00268358    1.704    0.413
       128  -9.5071    109.0000     92.9676   7.3865872008e+01   4.2972582609e+01    0.2608365   0.08604266 -45.08   0.00081218    3.010    0.668
       129  -9.5531     31.3951     93.1762   1.0096542770e+02   5.4516415356e+01    0.1794439    0.1197467 -71.09 0.0003646624    1.550    0.355
       130  -9.3570    127.6653     92.7095   6.8488547609e+01   3.9082518467e+01    0.1564195    0.1216263   8.17 0.0003521719    1.634    0.388
       131  -9.4666     46.5500     92.5626   9.5127408381e+01   5.3127867402e+01    0.1375412    0.1244315 -42.96 9.252672e-05    1.040    0.039
       132 -10.9813     10.3083     91.0031   1.0847817063e+02   5.6574397867e+01    0.2286929    0.2010453 -33.00 0.0008721346    1.159    0.137
       133  -9.5267     10.5026     87.5119   1.0777881579e+02   5.7383466486e+01    0.1845796    0.1116498 -75.93 -1.197267e-06    1.658    0.397
       134 -10.6243     57.6458     90.0928   9.0368186304e+01   5.2339303919e+01    0.4029536    0.2463579  18.53   0.00156724    1.870    0.465
       135  -9.3519     27.9723     95.5638   1.0274588788e+02   5.4243284114e+01    0.1678016    0.1309867  15.85            0    1.445    0.308
       136 -10.6624     96.5739     89.6892   7.6751321860e+01   4.6114243522e+01    0.3783757    0.1867464  36.89  0.001486109    2.094    0.522
       137 -10.5120     83.0221     88.9243   8.0998711962e+01   4.8734237194e+01    0.2258645    0.2047612 -20.48   0.00057491    1.055    0.052
       138 -10.6881     78.7425     88.1730   8.2251756148e+01   4.9622128970e+01    0.3603345    0.1971477 -50.27  0.001546377    1.801    0.445
       139 -10.3619     65.1273     87.6690   8.6958508995e+01   5.1852842154e+01    0.2976699    0.2324703 -50.27  0.001578867    1.239    0.193
       140 -10.5405     67.8017     83.8153   8.4884939607e+01   5.2312088007e+01    0.3405727    0.2022587 -24.15   0.00144869    2.135    0.532
       141 -11.1874     45.6724     86.4342   9.3930125093e+01   5.4648644869e+01    0.5667694    0.3883142  86.86  0.002611966    2.424    0.587
       142  -9.1999    139.2741     87.6695   6.4042793829e+01   3.7495780520e+01    0.1523964    0.1202129 -75.79 0.0006989127    1.592    0.372
       143  -9.4161    120.9914     83.9586   6.7753039391e+01   4.2296635974e+01    0.1839831    0.1642347 -36.75 0.0003098568    1.128    0.113
       144 -11.5992      4.9969     84.4052   1.0933446746e+02   5.8402961409e+01    0.5750489    0.2187095 -39.88  0.002115661    2.388    0.581
       145  -9.4051     51.3453     86.1220   9.1678758883e+01   5.4049647424e+01    0.1879649    0.1252743 -64.38 0.0007951608    1.663    0.398
       146 -10.2062    115.5793     84.0318   6.9299861149e+01   4.3446824854e+01    0.3225374    0.1493391  36.68  0.000949243    2.432    0.589
       147 -11.4494     30.9435     81.4621   9.8467653684e+01   5.7283186716e+01    0.5737423    0.3100151 -12.20  0.002412106    2.487    0.598
       148 -11.7030     20.9928     80.4974   1.0223675449e+02   5.8318651549e+01    0.4987305    0.3404167 -23.31  0.002746778    1.486    0.327
       149 -12.7459     44.6247     75.2015   9.1315562014e+01   5.7279762429e+01    0.3303765    0.2687633  44.92 0.0005542769    1.509    0.337
       150 -11.9806      6.1803     42.2383   9.8990379151e+01   6.7410879337e+01      1.06867   0.08702793 -53.10  0.001792582    4.334    0.769
       151 -11.5199     43.6118     38.2835   7.9283376075e+01   6.4548419055e+01    0.6111625    0.3095492  41.17  0.002974011    2.318    0.569
       152  -9.9705    247.6484    249.7117   7.6059734941e+01  -1.1534409128e+01    0.1194408   0.06852397  -0.40 0.0003779497    1.667    0.400
       153 -12.2689     31.0956     63.1569   9.3516713037e+01   6.1272621934e+01     1.131793    0.7952423  74.98  0.005551113    2.750    0.636
       154 -10.7174     15.1259     59.5902   9.9639777502e+01   6.3328735455e+01    0.2624485    0.1751664 -26.46  0.000503492    1.358    0.263
       155 -13.1620     10.6316     75.2434   1.0531541770e+02   6.0195139054e+01     1.036303    0.6330749  15.70  0.005915408    1.862    0.463
       156 -14.0247     16.6265     67.5439   1.0101927914e+02   6.1522679698e+01    0.5894268    0.5133922  -9.33  0.001815904    1.198    0.165
       157 -13.2808     37.2478     50.0268   8.6554030832e+01   6.3244393921e+01    0.8779237    0.6513001  14.21  0.005307489    1.327    0.246
       158 -12.2704     26.7615     49.8874   9.1348536506e+01   6.4355871503e+01    0.6768709    0.3247692 -50.51   0.00339194    1.879    0.468
       159 -12.2060      5.1699     58.8841   1.0398845852e+02   6.4074885687e+01    0.3322039    0.2612679 -75.47 0.0003092789    1.472    0.320
       160 -12.1429      6.0971     67.9874   1.0566572670e+02   6.2059691749e+01    0.2522877    0.1747655 -49.73 0.0003479107    1.136    0.120
       161 -12.5861      3.0653     62.8626   1.0585582619e+02   6.3327299979e+01    0.4812954    0.3114758 -82.43  0.002166016    1.921    0.479
       162 -10.9307     61.0221     78.1291   8.5741092026e+01   5.4538263751e+01    0.3202747    0.1942889 -46.49 0.0007686354    1.534    0.348
       163 -11.4519     62.3199     71.6987   8.3280050688e+01   5.5705022918e+01    0.4249335    0.2679197 -22.02  0.001158781    1.835    0.455
       164  -9.4438    121.7167     75.9900   6.5140990728e+01   4.3665696122e+01    0.1855374    0.1332014 -38.32 0.0008736353    1.419    0.296
       165 -10.2834     74.5506     75.2336   7.9835630896e+01   5.3069060983e+01    0.2925674    0.1837723 -43.97  0.001165169    1.539    0.350
       166 -10.7779     76.8617     64.0488   7.5347672903e+01   5.4879894181e+01    0.3754544    0.2819493 -46.17  0.001984029    1.414    0.293
       167 -10.0415     74.3362     71.3285   7.8670197910e+01   5.3896210832e+01    0.2255058    0.1435462  28.63 0.0007924185    1.619    0.382
       168 -10.8475     77.4191     69.7708   7.7053162136e+01   5.3683160918e+01    0.3762583    0.2534841  47.93  0.001241063    1.696    0.410
       169 -10.7069     48.8063     60.3712   8.5040680859e+01   5.9851656388e+01    0.2130375    0.1753581 -45.45 0.0005142482    1.260    0.206
       170 -10.9847     51.4065     62.9702   8.4817930337e+01   5.8997348915e+01     0.341286    0.2222991 -32.62  0.001214166    1.438    0.305
       171 -10.8401    207.5713     73.3762   4.7041514865e+01   2.4335029408e+01    0.2240475    0.2170783 -65.71 0.0002810646    1.124    0.111
       172 -11.2969    155.9800     83.0085   5.8827948114e+01   3.4521574362e+01    0.8321031    0.3949468  34.54  0.002745923    3.324    0.699
       173 -10.6814     93.8500     73.8571   7.2772578435e+01   4.9878557997e+01    0.2595216    0.2387875  87.84 0.0003862267    1.347    0.258
       174 -12.1770     50.2603     68.7838   8.7133809969e+01   5.7962698039e+01    0.3777987    0.2563693 -44.12 0.0003229949    1.348    0.258
       175 -11.8223     35.5233     42.5691   8.4657808834e+01   6.4809316664e+01    0.6546386    0.3355336   9.59  0.003034972    2.469    0.595
       176 -10.8540    100.7742     72.3373   7.0084265037e+01   4.8800524625e+01    0.3874204    0.2676083  72.73 0.0005872178    2.361    0.576
       177 -10.0360    129.0102     71.5283   6.1849858351e+01   4.2840987157e+01    0.2283739    0.1423665  48.71 0.0004249538    1.555    0.357
       178  -9.8355    194.5809     70.2654   4.8248720329e+01   2.7735861740e+01    0.1837027    0.1340628 -27.36 0.0007145097    1.553    0.356
       179 -10.1118    167.8373     69.8310   5.2761253880e+01   3.4028933033e+01    0.2017449    0.1902761  40.37 0.0003166297    1.145    0.126
       180 -10.0010    123.1039     68.4659   6.2434293588e+01   4.4718548618e+01     0.301227    0.1903501 -22.88  0.001305079    1.948    0.487
       181 -10.1355     42.8002     68.7163   9.0176281457e+01   5.8878370060e+01    0.2405498    0.2102735 -42.39  0.001056913    1.141    0.123
       182  -9.1010    189.2729     68.6610   4.8690664423e+01   2.9206994194e+01    0.1466168    0.1009422 -66.23 0.0002437713    1.608    0.378
       183  -9.7589    127.6846     66.6704   6.0687022565e+01   4.3992172170e+01    0.1931983    0.1700127 -83.21  0.001018913    1.319    0.242
       184  -9.4461    103.6594     67.7098   6.7699034292e+01   4.9068234847e+01    0.1509373    0.1113723  11.60 0.0003617851    1.647    0.393
       185 -11.3687     93.7224     66.6284   7.0454893303e+01   5.1273528035e+01    0.3407846    0.2571513   9.60 0.0006789145    1.524    0.344
       186  -9.6158     99.6033     65.1464   6.8097875005e+01   5.0365736894e+01    0.2066045    0.1343202 -25.22 0.0009413557    1.731    0.422
       187  -9.1899    143.7200     64.3548   5.6163587603e+01   4.0649594215e+01    0.1496793    0.1120718 -70.76  0.000701323    1.657    0.396
       188 -10.8584    106.7994     62.7998   6.5146402338e+01   4.9279135195e+01    0.4171619    0.1637828  41.86  0.001513155    2.548    0.608
       189 -11.3195     84.6881     60.6524   7.1436052616e+01   5.4090919639e+01    0.5174871     0.319327  12.98  0.002204331    2.310    0.567
       190 -10.1282    119.6654     61.0261   6.0976093730e+01   4.6762145095e+01    0.2003027    0.1912711   6.17 0.0006990385    1.057    0.054
       191 -10.4544    201.6973     62.0041   4.5156368048e+01   2.7414712757e+01    0.2193447    0.1842654  82.48 0.0004423178    1.165    0.141
       192 -10.6422    154.9447     59.9897   5.2512504557e+01   3.8680631289e+01     0.249768    0.2034516  79.20 0.0008165885    1.284    0.221
       193  -9.3264     98.4217     60.4248   6.6877780945e+01   5.1438558409e+01    0.1416362    0.1323845  15.72 2.273182e-05    1.011    0.011
       194 -10.8551     59.4546     58.7398   8.0131134191e+01   5.8690127097e+01    0.2661478    0.2375858 -18.17   0.00104886    1.067    0.062
       195  -9.8600    147.0382     56.9790   5.3247785509e+01   4.1034673855e+01    0.2107253    0.2024896 -84.39 0.0003548377    1.050    0.047
       196  -9.3482    111.6314     57.6969   6.2066850376e+01   4.9094002671e+01    0.1532367    0.1075609  19.47 0.0007033807    1.745    0.427
       197 -12.3237    105.1738     52.9484   6.2292285791e+01   5.1259148524e+01    0.3613244     0.331085 -22.42   0.00046338    1.131    0.116
       198 -10.5315     75.1909     56.2889   7.3257245104e+01   5.6588214714e+01     0.225266    0.1853623 -33.77 0.0004046309    1.221    0.181
       199  -9.7609     68.4651     56.4431   7.5813285261e+01   5.7703898489e+01     0.137206    0.1227605  -1.69 2.373207e-05    1.020    0.019
       200 -10.3744     54.1090     74.1957   8.7241689857e+01   5.6325869418e+01    0.2328281    0.1890642 -46.32  0.000557113    1.195    0.163
       201 -10.2578    132.0790     54.3025   5.5735814188e+01   4.4982542593e+01    0.3560142    0.2346778  29.79   0.00163428    1.845    0.458
       202 -11.2769     62.6692     51.1523   7.6148789287e+01   5.9580723926e+01    0.4088053     0.230812 -37.09  0.001715104    1.717    0.418
       203 -10.0926    120.2473     52.3667   5.7999009572e+01   4.8010798790e+01    0.2661652    0.1894027  24.85 0.0007656211    1.644    0.392
       204 -11.5380     88.2522     51.2796   6.6929971169e+01   5.5008924511e+01    0.2849931    0.2436366   5.35 0.0006035727    1.139    0.122
       205  -9.7498     56.6385     53.0846   7.9275916064e+01   6.0154394921e+01    0.1928451    0.1091197 -31.07 0.0005792455    1.767    0.434
       206  -9.8933    237.5000     51.5131   3.8454961164e+01   2.1285461246e+01     0.126423    0.1040917 -63.56 0.0003072757    1.001    0.001
       207 -11.4730    129.2202     49.0190   5.4721544328e+01   4.6440042675e+01    0.4936565    0.3527207  -5.90   0.00240289    1.838    0.456
       208 -10.3648     78.3308     46.5536   6.8574622623e+01   5.7659146009e+01    0.3010285    0.1935209 -53.34  0.001382303    2.164    0.538
       209  -9.6555     70.4837     51.4690   7.3255629287e+01   5.8241635188e+01    0.2355584    0.1243042  49.18  0.001025459    2.311    0.567
       210 -10.7922    199.8541     49.6945   4.2424262431e+01   2.9631575737e+01     0.236796    0.1933233 -77.22 0.0003565953    1.144    0.126
       211  -9.5644    223.4637     49.4699   3.9510305117e+01   2.4472166251e+01    0.1283777    0.1098826 -67.56 2.558923e-05    1.019    0.019
       212  -9.4646    181.5234     49.5132   4.4978050595e+01   3.3903248533e+01    0.1398141    0.1227166 -79.15 -3.362807e-05    1.067    0.062
       213 -10.4434     53.6267     49.9717   7.9390937578e+01   6.1152131564e+01     0.302849    0.1853295  25.35 0.0009834564    1.631    0.387
       214  -9.9438    151.6611     47.8230   4.9608160660e+01   4.1277904603e+01    0.1924079    0.1611941  49.09 0.0003178421    1.181    0.153
       215  -9.4553    119.9557     47.0691   5.6317454063e+01   4.8865573561e+01    0.1648632     0.156803  38.05 0.0008250515    1.027    0.026
       216 -10.4706    142.8951     45.5085   5.0643156217e+01   4.3703110494e+01    0.2806654    0.2097131 -74.21  0.001425795    1.624    0.384
       217  -9.9973    113.8745     45.1657   5.7226291517e+01   5.0518413496e+01    0.4608168    0.2087405  33.99  0.001561784    3.047    0.672
       218 -10.8240     57.1186     46.1237   7.6508728962e+01   6.1309331755e+01    0.2048976    0.1587295  -2.98 0.0002672808    1.223    0.182
       219 -10.3783    100.9533     36.1709   5.7540998010e+01   5.4607672308e+01    0.3391923    0.2176622 -18.13  0.001694204    1.800    0.445
       220 -10.4115     95.8199     35.1045   5.8617472275e+01   5.5845870491e+01    0.5399041    0.2735904 -52.89  0.002085104    3.441    0.709
       221 -10.7641     92.0130     43.5093   6.2890025512e+01   5.5461004287e+01    0.4122407    0.2739075 -56.48  0.001957379    2.201    0.546
       222 -10.7624     95.8263     42.8815   6.1487459228e+01   5.4766097788e+01    0.4992173    0.3015702  12.46  0.001733768    2.508    0.601
       223 -10.9881     97.9089     31.4987   5.6670716771e+01   5.5865224526e+01    0.4098755    0.2847897  62.93  0.002161042    1.592    0.372
       224 -11.4537    101.8648     28.6105   5.4512478785e+01   5.5361230721e+01    0.3840227    0.2937629  79.05 0.0006411243    1.679    0.404
       225  -9.7756     50.8301     44.8255   7.8652171912e+01   6.2452990217e+01    0.1640057     0.151528 -42.03 0.0006532153    1.361    0.265
       226 -10.4793    125.1597     42.7214   5.3621520483e+01   4.8277779727e+01    0.2706594    0.2128108 -89.87  0.001420411    1.569    0.363
       227 -10.2415    107.5486     42.6961   5.8056177020e+01   5.2276969483e+01    0.3382106    0.1991829  35.03 0.0009692722    1.784    0.439
       228 -11.7537     65.5520     40.7732   7.1075126215e+01   6.0831595475e+01    0.4589452    0.2896085  35.51  0.001809908    1.502    0.334
       229 -11.3251     70.6564     39.5229   6.8651663817e+01   6.0140093291e+01    0.4822391    0.3151111 -51.71  0.002036974    2.138    0.532
       230 -12.0883     74.3934     36.5491   6.6118850750e+01   5.9902580021e+01     0.563136    0.3514541  -0.75  0.001931018    2.110    0.526
       231 -10.3007     18.1989     42.3838   9.2981510946e+01   6.6541356881e+01    0.2994853    0.1476043 -31.62   0.00065211    1.840    0.457
       232 -11.0452      8.2522     34.0082   9.5240246444e+01   6.8838318512e+01    0.3869993    0.3262225 -54.88  0.002401906    1.428    0.300
       233 -11.5453     17.4497     31.5446   8.9453808237e+01   6.8572561689e+01    0.4862681    0.3331611  11.40   0.00312918    1.412    0.292
       234 -10.4670     22.2567     25.3311   8.4401724107e+01   6.9162799014e+01    0.3013028    0.2488399  -7.06  0.001414391    1.120    0.107
       235 -10.8335     24.0168     41.9338   8.9946766706e+01   6.6118466660e+01    0.3218511    0.2722946  15.78    0.0021789    1.312    0.238
       236  -8.7229     30.1582     33.1113   8.3574614703e+01   6.7048875939e+01     0.478037    0.3036687 -34.70  0.002845964    1.392    0.281
       237 -10.6774     20.6872     37.6867   9.0079966413e+01   6.7197696719e+01    0.2340689    0.1506918 -21.10 0.0005463343    1.381    0.276
       238 -12.1714     27.7424     38.0763   8.6702392255e+01   6.6451983247e+01    0.3565122    0.1965354  27.14  0.001099022    1.858    0.462
       239 -11.4920     24.1744     35.1010   8.7348699556e+01   6.7332030648e+01    0.2611535    0.1925808  -0.94 0.0007604857    1.223    0.182
       240 -11.3625     52.9457     40.7719   7.6182679933e+01   6.2828847750e+01    0.3123159    0.2194494  31.99  0.001116732    1.406    0.289
       241 -12.5077     57.4122     34.3492   7.1732111098e+01   6.3151646308e+01    0.3503228    0.2952105 -25.69  0.002219238    1.236    0.191
       242 -10.9669    152.6113     39.1098   4.6868881071e+01   4.2229614616e+01    0.2434667    0.2304601  71.46 0.0004222026    1.045    0.043
       243  -9.4078    109.3104     46.6730   5.8962503533e+01   5.1316085203e+01    0.1497182    0.1317755  27.40 0.0006485502    1.089    0.082
       244 -10.9977    224.7715     38.2982   3.6924175372e+01   2.5698746366e+01    0.3199283    0.1905008  76.72 0.0005997173    1.667    0.400
       245  -9.4602    116.7912     39.5990   5.4583445433e+01   5.0629312865e+01    0.1921088    0.1277961  65.40 0.0006888263    1.609    0.379
       246  -9.5542    160.4125     38.4380   4.5325834680e+01   4.0439088567e+01    0.1350839    0.1235412  81.70 6.934692e-05    1.010    0.010
       247 -10.2576      1.7532     37.7378   9.9900172193e+01   6.8526368022e+01     0.208734    0.1155724 -40.37 0.0009910682    1.376    0.273
       248 -11.0671     83.0597     35.3214   6.2663946149e+01   5.8422863894e+01    0.4264667    0.3204127  32.29  0.002429317    1.206    0.171
       249  -9.6252    134.5862     35.7342   4.9294678564e+01   4.6977850184e+01    0.1831799      0.12645 -44.11 0.0007471996    1.583    0.368
       250  -9.2792    120.0073     35.9698   5.2574526506e+01   5.0365991424e+01    0.1596314    0.1527877  30.84 0.0005242515    1.067    0.063
       251 -10.1246    107.4027     34.7327   5.5272233468e+01   5.3381315562e+01    0.2457968     0.136967  38.72 0.0006258595    1.781    0.438
       252 -10.0269    201.7239     34.0571   3.8443088135e+01   3.1291872269e+01    0.1756451    0.1525432 -64.95 0.0004056503    1.079    0.073
       253 -11.2108    221.7022     32.1387   3.5889553109e+01   2.7137879175e+01    0.2119718    0.1746995 -77.03 0.0002692791    1.035    0.034
       254 -10.4744    205.8561     32.5677   3.7628318255e+01   3.0549599396e+01    0.1925452    0.1668192 -40.04 0.0004571559    1.278    0.217
       255 -10.2963    166.5262     32.7676   4.2767268313e+01   3.9683312593e+01      0.23131    0.1378793 -24.32  0.001121342    2.021    0.505
       256  -9.7833    145.7260     31.3868   4.5803731249e+01   4.4848472051e+01    0.2384745    0.1531689 -44.84 0.0009393307    1.678    0.404
       257 -10.5419     89.6874     31.8081   5.9200123070e+01   5.7555446370e+01    0.2321624    0.1881091  44.87 0.0002178145    1.161    0.138
       258 -10.8326     48.2257     31.8466   7.4592646276e+01   6.4931034822e+01     0.229368    0.1626481  15.51            0    1.300    0.231
       259 -10.5424    236.2390     30.3037   3.4167438668e+01   2.4336298346e+01    0.2186108     0.192729  62.16  0.000864882    1.420    0.296
       260 -10.7633     50.2115     27.8784   7.2035262603e+01   6.5221926322e+01    0.3048317     0.183973   9.16  0.001006988    1.902    0.474
       261 -10.0510    111.5175     28.1196   5.1880592732e+01   5.3267734333e+01    0.2229226    0.1357489 -19.45 0.0007672993    1.924    0.480
       262 -11.1211     69.7217     26.8017   6.3828423444e+01   6.2091379533e+01    0.4028846    0.2890377  23.01  0.001797043    1.286    0.223
       263 -10.4629    250.2336    246.9715   7.5172697547e+01  -1.1480019040e+01    0.1869686    0.1360534   0.77  0.001078229    1.040    0.039
       264 -12.1191     36.9296    244.0161   1.1765501605e+02   1.8019977677e+01    0.6367326    0.3006928 -88.13  0.002904205    2.243    0.554
       265 -10.3764    132.8938     27.8017   4.7101359203e+01   4.8333385637e+01     0.273102    0.1945112 -76.72  0.001025727    1.775    0.436
       266 -10.8352    127.9794     26.8232   4.7770212752e+01   4.9606711240e+01    0.3521399    0.2425134  61.03  0.000784474    1.307    0.235
       267  -9.8882     60.2685     27.3740   6.7652288673e+01   6.3679528247e+01    0.2029294     0.156202 -34.71 0.0006375246    1.455    0.313
       268 -11.3994     59.6400     22.7081   6.5879433824e+01   6.4400281645e+01    0.4215227    0.2889239  37.18  0.001793723    1.340    0.254
       269  -9.9114    214.2362     25.7967   3.5222169559e+01   2.9525620895e+01    0.1566335     0.140249  62.23 0.0007060386    1.331    0.249
       270 -10.0522    203.8448     25.8203   3.6278645376e+01   3.1821022463e+01    0.1862434    0.1265074 -64.71 0.0006414823    1.369    0.270
       271 -10.5435    193.1562     25.8028   3.7447741507e+01   3.4249955951e+01    0.2048836    0.1541415 -70.92 0.0007447035    1.233    0.189
       272 -11.8272    164.9957     23.1489   4.0345085983e+01   4.1170704095e+01    0.2759118    0.2078443  63.90  0.001604238    1.207    0.171
       273  -9.7913    119.0343     25.6940   4.9294938221e+01   5.1823344605e+01    0.1857017    0.1490821  50.95 0.0003360561    1.102    0.092
       274 -12.3680     75.4401    239.8583   1.0947527653e+02   1.4101832449e+01    0.6746789    0.4325185 -39.56  0.003600996    2.297    0.565
       275 -10.2671      1.6241     25.9696   9.6041345540e+01   7.0705505508e+01    0.2030785     0.133285 -38.19 0.0006756546    1.189    0.159
       276 -12.3289     74.6437    234.1148   1.0908459402e+02   1.5372194046e+01    0.6047457     0.440054  62.72  0.003642928    1.270    0.212
       277 -10.8370     31.7914     17.1013   7.5766941996e+01   6.9308635291e+01    0.4659352    0.1886747  21.50  0.001997791    3.114    0.679
       278 -10.6601     25.0126     20.3180   8.0750871435e+01   6.9650709151e+01    0.2570828    0.1808312 -14.16  0.001016737    1.186    0.157
       279 -10.4533     88.8518    241.3027   1.0678006961e+02   1.1982493990e+01    0.2264155    0.1549418 -34.46  0.001223437    2.138    0.532
       280  -9.2604     50.3176    240.3122   1.1472092750e+02   1.7204400759e+01    0.1068256   0.09390257 -29.99 0.0005650596    1.644    0.392
       281  -9.8852    195.4064    238.7168   8.3977619145e+01  -3.3222883605e+00    0.2261641     0.136778  12.27  0.001193799    1.738    0.425
       282 -10.7824      8.6499     25.1472   9.1759705669e+01   7.0383411652e+01    0.4584934    0.1558913  20.89  0.002183465    2.952    0.661
       283 -10.4336     14.1714     22.8888   8.7757780353e+01   7.0318921472e+01    0.4119936    0.1728611 -32.02  0.002075566    2.171    0.539
       284 -10.7848    243.9334    237.3638   7.4684527587e+01  -9.4952051791e+00    0.1926593    0.1437035 -28.33  0.000865097    1.375    0.273
       285 -10.7504     29.8236    233.0146   1.1833338557e+02   2.1038569683e+01    0.2778547    0.1525283  65.48  0.001582418    1.625    0.385
       286 -10.3531    109.4843    242.8011   1.0254616805e+02   8.7425881893e+00    0.2476185    0.1616379  54.60 0.0006605039    1.528    0.345
       287  -9.7867    177.3284    235.3285   8.7094264161e+01  -1.4534303233e-01    0.1351235    0.0910406  -0.62 0.0007051027    1.707    0.414
       288 -10.1547     89.5047     20.9639   5.5019314886e+01   5.8888297032e+01    0.2572882      0.16853  30.90 0.0008382736    1.476    0.323
       289 -10.5446     93.9740     22.5104   5.4357644353e+01   5.7771849649e+01    0.3275533     0.216767  41.25   0.00117207    1.330    0.248
       290 -10.1370    106.4635     22.5019   5.1092806916e+01   5.5039509489e+01    0.2145993    0.1682315 -39.60  0.000586824    1.467    0.318
       291 -10.4849     97.7820     23.6565   5.3753572895e+01   5.6824835651e+01     0.352345    0.1661425  48.17   0.00121423    1.821    0.451
       292  -9.9841     98.7237     20.6744   5.2373164219e+01   5.6947571365e+01    0.2064156     0.197708  75.83 0.0004172953    1.215    0.177
       293 -10.8308    103.5984     19.7191   5.0775272125e+01   5.5975529394e+01    0.3225042    0.2553822  23.50  0.001244298    1.282    0.220
       294 -11.3689    108.5344     17.5040   4.8784699370e+01   5.5096784294e+01    0.3067448    0.2091007  40.56 0.0008035346    1.350    0.259
       295  -9.5943     78.6433     24.1726   5.9659525471e+01   6.0725245591e+01    0.1694862    0.1155229 -10.52 0.0003961173    1.597    0.374
       296 -10.4957    186.0867     22.9712   3.7572701986e+01   3.6211319409e+01    0.1988658    0.1651567 -81.29  0.000493932    1.067    0.063
       297  -9.9832    226.3082     22.1534   3.3331723035e+01   2.7374316128e+01    0.1888032     0.143447  73.24 0.0005263448    1.326    0.246
       298 -10.4633     67.5145     21.7610   6.2488002884e+01   6.3125516367e+01    0.4104414    0.1617237  52.37  0.001509978    2.891    0.654
       299 -10.5517    169.0120     25.9946   4.0555681165e+01   3.9891435283e+01    0.1959258    0.1730067  86.97            0    1.013    0.012
       300 -10.1344     86.9390    233.4688   1.0635671646e+02   1.3815379595e+01    0.2009781   0.07993557  51.56 0.0008091041    2.621    0.618
       301 -10.1261     24.1753    232.3801   1.1941834966e+02   2.1768076833e+01    0.1819541    0.1653342  85.36 0.0007165801    1.254    0.203
       302 -10.1374     38.2296    232.8103   1.1661968565e+02   2.0153819169e+01    0.1779779    0.1316859  67.21 0.0005564687    1.119    0.106
       303  -9.8068    152.2013    229.8060   9.1551858848e+01   4.6659774938e+00    0.2188031    0.1410418  67.98 0.0009556198    2.864    0.651
       304  -9.5836    169.8442    228.8899   8.7636645861e+01   2.0869729598e+00    0.1696526    0.1553504  52.34 0.0006389503    1.340    0.254
       305 -10.0183    139.0587     20.1564   4.3543899208e+01   4.7702375786e+01    0.2305158    0.1184756  44.79  0.001065095    1.978    0.495
       306 -10.8494    120.5544    226.3141   9.8027598399e+01   1.0281144841e+01    0.2284193    0.1359746 -62.52  0.000978905    1.990    0.498
       307 -11.1250      4.6160    226.5396   1.2291785819e+02   2.4887947087e+01    0.3019064    0.1486748  53.58  0.001775139    1.659    0.397
       308  -9.5031    190.4932    226.4997   8.2965648629e+01  -6.4804753161e-01    0.1327042    0.1101755   6.28 0.0008103805    1.037    0.035
       309 -10.8557     41.8136     19.3798   7.1993379114e+01   6.7641626339e+01    0.3134073     0.180155  25.16  0.001261145    1.612    0.380
       310 -10.1496     66.0050    226.0928   1.1016925141e+02   1.8193655032e+01    0.1915138    0.1685978  61.65 0.0005001083    1.052    0.049
       311  -9.5296    181.5051     19.5177   3.7246914991e+01   3.7664631769e+01    0.1278788     0.111548  83.10 0.0008097434    1.057    0.054
       312  -9.8330     85.0568     18.8989   5.5498102533e+01   6.0036753769e+01     0.345594    0.1326769  57.36 0.0008030962    2.725    0.633
       313  -9.5849     54.7110     18.9982   6.6202901679e+01   6.5695247220e+01    0.1680705     0.141601   9.41  0.001112135    1.063    0.059
       314 -11.3287     21.1760    222.2243   1.1938173648e+02   2.4216214920e+01    0.2755043    0.1790275  83.22  0.001016957    1.332    0.249
       315  -9.6888    158.7396     15.4014   3.9072407220e+01   4.3484921509e+01    0.2214898    0.1342351 -53.53 0.0008626427    1.789    0.441
       316  -9.9739    126.7272    221.9841   9.6030553588e+01   1.0181786157e+01    0.2145697    0.1677481  37.52 0.0003824584    1.147    0.128
       317 -11.6890      9.9422    217.1757   1.2136247096e+02   2.6385532051e+01    0.3169326    0.2124859  55.62  0.001863969    1.271    0.213
       318 -10.2260     74.8165     15.9781   5.7483730938e+01   6.2403392505e+01    0.3522703    0.1933942  56.56  0.001249294    1.946    0.486
       319  -9.7753     37.9908    217.5466   1.1550878092e+02   2.3448109579e+01    0.1784982    0.1129424  35.68  0.000798997    1.566    0.361
       320 -10.0066     61.9658     14.9448   6.1527559177e+01   6.4922413713e+01    0.2011091    0.1646756  19.40  0.001041128    1.005    0.005
       321 -10.9687     29.8145    215.9278   1.1714085977e+02   2.4693393138e+01    0.3117702    0.2600563  21.27  0.001542599    1.528    0.345
       322  -9.8807     26.1804     14.4582   7.7404187515e+01   7.0363754351e+01    0.1477163   0.09117343   8.83 -0.0001541599    1.520    0.342
       323 -10.3360     23.6078    216.4996   1.1849746214e+02   2.5210593519e+01    0.2214608    0.1573039 -41.69  0.001145813    2.012    0.503
       324  -9.3502     96.5309     13.5178   5.0202892843e+01   5.8152704847e+01    0.1313035    0.1084944  39.17 0.0001435794    1.046    0.044
       325  -9.8099     30.9716     12.8278   7.4130996851e+01   6.9990470631e+01    0.1779606    0.1247086   1.38 0.0005400947    1.218    0.179
       326 -10.1432     21.7756    212.7159   1.1862416476e+02   2.6227302166e+01    0.3017565    0.1298606  50.22  0.001513411    2.028    0.507
       327 -11.8499    237.0604    213.6219   7.1798379472e+01  -5.2350675020e+00    0.5334939    0.2947125   0.35  0.002019313    2.407    0.585
       328  -9.8574    208.8632    211.9185   7.6763571908e+01  -9.7341579842e-01    0.2040255    0.1529094  -5.31  0.000540227    1.258    0.205
       329 -12.0948      4.9279    208.1467   1.2187289227e+02   2.8802585370e+01    0.5363125    0.2794571  80.75  0.003004493    1.688    0.408
       330 -11.2187     20.6418    199.8437   1.1794658602e+02   2.9240317238e+01    0.4968999    0.2481503 -65.43  0.002602982    1.862    0.463
       331 -10.3170    175.4449    202.7656   8.1991126906e+01   5.9610298368e+00    0.2432098    0.1811138  33.11   0.00050493    1.279    0.218
       332 -10.0933    243.7335    202.3604   6.8584131412e+01  -4.4117317366e+00    0.1657041    0.1054809  20.17 0.0009447417    1.603    0.376
       333  -9.2772    188.2527    205.3364   7.9736441990e+01   3.3777553769e+00    0.1378188   0.09717385 -10.41 0.0003295552    1.566    0.362
       334 -10.8515     16.8663    193.3299   1.1830939628e+02   3.1099152108e+01    0.2850989    0.2150089  24.16  0.001789059    1.612    0.380
       335 -10.5637     10.8023    208.2985   1.2065544794e+02   2.8249130879e+01    0.2157063    0.1727228 -54.48 0.0004110121    1.540    0.351
       336 -11.3517     16.5260    184.6403   1.1771706465e+02   3.3171018706e+01    0.4289516    0.1938192 -78.29   0.00168536    1.936    0.483
       337 -10.0987     14.6972    180.6599   1.1783217047e+02   3.4277835201e+01    0.2188588    0.1668163 -46.73 0.0007764228    1.563    0.360
       338 -10.2726    167.8092    183.6046   8.0073035553e+01   1.1080277470e+01    0.2106129    0.1328344  46.68 0.0007825724    1.705    0.413
       339  -9.7891     58.5246    182.4736   1.0712685034e+02   2.9194945887e+01    0.1368218    0.1246906  86.87 0.0002179434    1.027    0.026
       340  -9.9833    244.4579    178.4917   6.3955154382e+01  -7.1625300120e-01    0.2366419     0.102765 -29.81   0.00102389    2.290    0.563
       341 -10.8333     46.4710    177.8615   1.0966297858e+02   3.1780760378e+01    0.3158863    0.2370458 -84.97   0.00124388    1.234    0.189
       342  -9.6752     69.5674    178.2280   1.0370210699e+02   2.8788467338e+01    0.1894342    0.1235017 -53.55 0.0005636621    1.550    0.355
       343 -10.8202     34.1453    174.1082   1.1240924577e+02   3.4042380290e+01    0.2619259    0.1814975 -64.62 0.0004573993    1.336    0.251
       344 -10.7835     18.2098    173.1869   1.1634430358e+02   3.5773855477e+01    0.3553446    0.1965523  63.47  0.001814436    1.837    0.456
       345 -12.7017     49.3493    161.7670   1.0687163056e+02   3.5474022708e+01    0.7321577    0.4428329  31.35  0.003600607    1.763    0.433
       346 -12.3955     36.3846    166.0129   1.1092540249e+02   3.5822871777e+01    0.8928643    0.4758113 -77.05  0.004234821    1.757    0.431
       347  -9.7459     99.1566    164.8858   9.3611893448e+01   2.7621859389e+01    0.2197435    0.1957753  75.60 0.0003516327    1.170    0.145
       348 -10.6133     10.2469    162.8510   1.1743851609e+02   3.8943899047e+01    0.3126238    0.1533859  36.84  0.000914395    2.100    0.524
       349  -8.9717    200.3016    162.6408   6.8835084883e+01   9.3699142171e+00    0.1406766    0.1149398 -74.38 0.0007037337    1.717    0.418
