#   1 NUMBER                 Running object number                                     
#   2 MAG_AUTO               Kron-like elliptical aperture magnitude                    [mag]
#   3 X_IMAGE                Object position along x                                    [pixel]
#   4 Y_IMAGE                Object position along y                                    [pixel]
#   5 X_WORLD                Barycenter position along world x axis                     [deg]
#   6 Y_WORLD                Barycenter position along world y axis                     [deg]
#   7 A_WORLD                Profile RMS along major axis (world units)                 [deg]
#   8 B_WORLD                Profile RMS along minor axis (world units)                 [deg]
#   9 THETA_WORLD            Position angle (CCW/world-x)                               [deg]
#  10 FWHM_WORLD             FWHM assuming a gaussian core                              [deg]
#  11 ELONGATION             A_IMAGE/B_IMAGE                                           
#  12 ELLIPTICITY            1 - B_IMAGE/A_IMAGE                                       
         1 -13.0855     84.4918     24.1323   3.1016557686e+01   6.1027796847e+01    0.4810589    0.2852146 -72.94  0.001959871    2.487    0.598
         2 -11.8114     66.7820     15.4896   3.2363184904e+01   6.6559258484e+01    0.3862567    0.2292487 -19.60  0.001777234    2.132    0.531
         3 -11.5957     99.4770     11.2468   2.1575293203e+01   5.8679679435e+01    0.3562657    0.1829635 -54.79  0.001539853    2.170    0.539
         4 -11.3742     54.8425     11.0440   3.4474203594e+01   6.9965708217e+01    0.2480322    0.1818337  53.42  0.000942594    1.211    0.174
         5 -13.7441     90.4976      4.2043   2.0108230109e+01   6.1720871177e+01    0.4713077    0.3161735 -72.27  0.001651935    1.574    0.365
         6 -12.8171     83.2895      8.9011   2.3973348643e+01   6.3145052185e+01    0.4405065    0.2831762  81.08  0.002177183    1.526    0.345
         7 -10.8659    103.6147      7.2304   1.9095536735e+01   5.7992708921e+01    0.1652468    0.1362487  -2.65 0.0002588646    1.534    0.348
         8 -10.9800    152.7814      5.8133   1.2723962392e+01   4.5532883327e+01    0.1738716    0.1575934 -75.18 0.0004199482    1.136    0.120
         9 -12.1482    100.9181      2.5384   1.7507905003e+01   5.9130994161e+01    0.3571851    0.2097905  69.61  0.001286238    1.471    0.320
        10 -10.7184     49.7980      1.3204   3.0221628353e+01   7.2256035449e+01    0.1917333     0.102054  53.02 0.0002655856    1.601    0.375
        11 -12.8827     62.3202    234.4843   8.4841277708e+01   1.7601248541e+01    0.5244249    0.3547607  69.35  0.001926267    1.736    0.424
        12 -11.7231    245.3040    249.9548   5.0822197362e+01  -3.2775346421e+00    0.2142287    0.1146961 -12.57 0.0003830812    1.445    0.308
        13 -11.3549    248.3126    248.2908   5.0179039401e+01  -3.3394133413e+00    0.1348146   0.09011691 -12.01 0.0003110663    1.115    0.103
        14 -11.9516    236.7239    249.2692   5.1975917890e+01  -2.5343149311e+00    0.2096257    0.1290538 -13.28 0.0008130576    1.186    0.157
        15 -10.0289    179.5370    250.5174   6.1497745194e+01   2.4090158906e+00    0.1088593   0.07921135   5.12 0.0001253295    1.006    0.006
        16 -11.2132    125.0149    249.5805   7.2049012599e+01   8.1893444809e+00    0.2010735    0.1402143 -20.72 0.0008008686    1.584    0.369
        17 -12.3989    114.6831    249.7743   7.4257582531e+01   9.2770191078e+00    0.2933644     0.191903  15.86 0.0008841375    1.264    0.209
        18 -13.7900    109.5851    235.6441   7.3927313092e+01   1.2135165716e+01    0.9636679    0.3488498  14.56     0.003126    4.873    0.795
        19 -12.9399    101.6741    241.8495   7.6326669165e+01   1.1985194293e+01    0.4708893    0.1868966  20.27  0.002125978    2.363    0.577
        20 -11.9473    107.4688    240.4666   7.4897586167e+01   1.1567950056e+01    0.2327045    0.1623951  50.61  0.001439135    1.668    0.400
        21 -12.6172     98.7409    249.6064   7.7701989194e+01   1.1027904668e+01    0.2912987    0.2083454 -47.54 0.0002732454    1.733    0.423
        22 -12.1595     85.2998    250.3868   8.0748093399e+01   1.2336975917e+01    0.2551043      0.13933  27.77  0.000176451    1.374    0.272
        23 -10.6014     85.5004    246.4586   8.0380200360e+01   1.2977089391e+01    0.1840261   0.08432247  32.85 0.0009068177    1.629    0.386
        24 -12.8375     70.5092    248.0401   8.3904490246e+01   1.4289304353e+01    0.2810383    0.2134456  49.74 0.0007137603    1.304    0.233
        25 -12.8723     68.2895    245.3190   8.4217714857e+01   1.4997038024e+01    0.4237002    0.2208136  18.43  0.001841102    1.728    0.421
        26 -12.0876     56.3137    250.4521   8.7294060832e+01   1.5308862975e+01    0.2033653    0.1113913  28.61 0.0008463423    1.361    0.265
        27 -14.4734     34.6075    226.5748   9.1105115253e+01   2.1934203430e+01     1.902286    0.2901506  27.84    0.0065812    3.625    0.724
        28 -13.0396     20.9632    198.8035   9.3279797847e+01   2.9160204104e+01    0.5325751    0.2803229  67.13   0.00263978    1.876    0.467
        29 -14.3436     13.0647    216.9714   9.6084356036e+01   2.5835632957e+01     1.018534    0.3692803 -88.32  0.004494143    3.082    0.676
        30 -14.8931     19.0774    212.3660   9.4378795035e+01   2.6312984310e+01     1.831787    0.7808943  39.48  0.009010072    1.745    0.427
        31 -13.6040     29.7752    233.5379   9.2612847232e+01   2.1000192578e+01    0.8096004    0.2399426  26.74  0.003508234    2.437    0.590
        32 -14.5829      2.6967    210.5349   9.8533479928e+01   2.8029525649e+01    0.7254972    0.3806733 -81.47  0.003901161    2.061    0.515
        33 -13.2625      6.9885    203.1232   9.7217748458e+01   2.9333463524e+01    0.3329613    0.2471242  26.92  0.001190534    1.235    0.191
        34 -14.9508     23.8687    247.4285   9.4540473310e+01   1.8892723551e+01    0.8853775    0.4222697  27.67  0.004990633    1.573    0.364
        35 -16.7238     11.9881    238.4008   9.6986779361e+01   2.1598841634e+01     1.491736     1.091461 -23.39  0.009529977    1.943    0.485
        36 -16.1871      4.7750    229.5552   9.8460575813e+01   2.3911184981e+01     1.043561    0.7430208  89.89  0.006902247    1.557    0.358
        37 -10.5557    248.3185    241.3305   4.9257992338e+01  -2.6265031019e+00     0.101624   0.05192197  -8.33 0.0007047635    1.688    0.408
        38 -11.2286    199.1143    241.4930   5.6910295145e+01   1.6409890045e+00    0.1488091    0.0832931  20.38 0.0003894673    1.491    0.329
        39 -10.7545    135.0116    241.4802   6.9068359980e+01   8.3243400185e+00    0.1786122   0.09293603  25.74 0.0004072807    1.524    0.344
        40 -11.3281     89.4833    241.0429   7.9008697625e+01   1.3473145168e+01    0.1913237    0.1307101  26.14 0.0004496245    1.141    0.123
        41 -10.9902     68.0330    231.0560   8.3209394451e+01   1.7638718149e+01     0.190183    0.1435113  32.54 0.0003521926    1.048    0.046
        42 -12.0206     71.1170    240.1784   8.3183062857e+01   1.5618237112e+01    0.3092761    0.2080309  -4.96  0.000263941    1.837    0.456
        43 -13.0267     71.4886    234.0279   8.2615997715e+01   1.6705328854e+01    0.2971278    0.2084825  31.58  0.000492949    1.116    0.104
        44 -12.4600     73.5299    229.6544   8.1768653776e+01   1.7301855788e+01    0.3331896    0.2390404 -29.21  0.001715012    1.771    0.435
        45 -11.3362    148.4805    239.0368   6.6014962120e+01   7.2022110517e+00    0.2381238    0.1320599  12.48  0.001136843    1.673    0.402
        46 -10.8552     97.6986    237.0731   7.6762507873e+01   1.3243875845e+01    0.1577359    0.1403766  20.71 0.0003610173    1.132    0.116
        47 -11.4967     79.0405    237.0089   8.1075653528e+01   1.5334794801e+01    0.1818293    0.1414627  27.36  0.001184976    1.022    0.021
        48 -11.0299    211.0332    236.0291   5.4192052485e+01   1.1760012972e+00    0.1361016    0.1219226  19.30  0.000606293    1.715    0.417
        49 -12.0444     91.2609    234.0037   7.7952347476e+01   1.4511788069e+01    0.3966161    0.2526702  75.18    0.0014101    2.461    0.594
        50 -10.5935    246.6900    234.6995   4.8590946748e+01  -1.7980035847e+00    0.1003943   0.05350665  -7.80 0.0002247278    1.602    0.376
        51 -10.6862    180.8231    232.4105   5.8926186201e+01   4.6460321677e+00    0.1578475   0.08614089  14.37 0.0006627943    1.638    0.390
        52 -12.5381    219.3762    230.1323   5.2040207613e+01   1.1013412505e+00    0.2025841    0.1397555   1.46  0.000368856    1.106    0.096
        53 -12.0399    130.1452    231.1409   6.8890407357e+01   1.0501794720e+01    0.1610546     0.127651  36.32 0.0006024603    1.315    0.239
        54 -13.5786    105.3247    226.7798   7.3948751355e+01   1.4169111148e+01    0.5175329    0.3105127 -24.86  0.002701775    2.199    0.545
        55 -12.3735    100.2866    226.9916   7.5144318911e+01   1.4726676317e+01    0.2705992    0.1691035  32.35 0.0005858066    1.305    0.234
        56 -12.5530     96.5079    225.5383   7.5881125053e+01   1.5436490163e+01     0.254722    0.2213902  59.53  0.001690309    1.350    0.259
        57 -10.8223    194.1534    229.5632   5.6152415038e+01   3.6398283357e+00    0.1762975    0.1106271 -26.19  0.001185496    1.449    0.310
        58 -10.5332     83.7414    229.9660   7.9346849459e+01   1.6098420326e+01    0.1328705    0.1112877 -63.40 0.0005636063    1.482    0.325
        59 -11.5069    178.0865    228.3810   5.8883843412e+01   5.4909633360e+00     0.175672    0.1257478 -14.13 0.0005009671    1.235    0.191
        60 -11.3626    149.9970    229.5079   6.4514169826e+01   8.4621010501e+00    0.1816194   0.09680412  26.11 0.0005556337    1.558    0.358
        61 -12.2539    231.5120    227.2372   4.9765259318e+01   3.2990844839e-01    0.2592381    0.1700552 -10.19  0.002013181    1.131    0.116
        62 -12.5934    112.5729    227.7970   7.2397598137e+01   1.3130851318e+01    0.3354259    0.2244132   7.89 0.0009274198    1.480    0.324
        63 -13.3942    117.9421    226.4016   7.1022376616e+01   1.2733337138e+01    0.4836382    0.2083177  46.96  0.001794768    3.032    0.670
        64 -13.5759    113.7214    219.3099   7.1149798523e+01   1.4492230793e+01    0.4225629    0.2985796 -50.64  0.002352364    1.656    0.396
        65 -13.1647    109.5650    214.4449   7.1539916414e+01   1.5897906945e+01    0.3835118    0.2447831 -18.67  0.001986965    2.011    0.503
        66 -11.8299     91.4029    226.5894   7.7199415955e+01   1.5841695946e+01     0.283729    0.1925522 -50.52  0.001199131    1.751    0.429
        67 -11.0939    137.5532    226.2760   6.6701704080e+01   1.0419983531e+01    0.2470967    0.1588674  42.15  0.001443578    1.713    0.416
        68 -12.2232     68.2575    225.4033   8.2700661662e+01   1.8701387280e+01    0.2904939    0.1869395  75.20  0.001287759    1.994    0.499
        69 -10.5217    222.4623    225.5195   5.0906790382e+01   1.3634939938e+00    0.1044896   0.07599189  -6.31 9.451609e-05    1.030    0.030
        70 -11.1266     59.5720    224.8368   8.4802677037e+01   1.9757849443e+01    0.3085459    0.1301524  43.63  0.001447682    1.989    0.497
        71 -11.2113    213.1653    222.3929   5.1938213645e+01   2.6425084909e+00    0.2316023    0.1099511 -21.08  0.001333995    2.109    0.526
        72 -12.1854    159.8391    222.2238   6.1557178946e+01   8.4364670508e+00    0.3004489    0.1774095  25.04 0.0007507348    1.445    0.308
        73 -11.3560     41.5742    219.7235   8.8977645572e+01   2.2658239185e+01    0.1929616    0.1602098  62.34 0.0004419509    1.205    0.170
        74 -12.5526     53.1289    222.0071   8.6206353188e+01   2.1008267748e+01    0.3538203    0.1870406  18.72 0.0004599779    1.784    0.439
        75 -12.7610     47.5325    218.3124   8.7370017239e+01   2.2347350801e+01     0.394231    0.2811374  82.13   0.00178367    1.589    0.371
        76 -12.9647    124.9327    221.5058   6.8863825806e+01   1.2732333240e+01    0.3325556     0.198977  22.42 0.0006971691    1.421    0.297
        77 -11.8268    246.7330    220.9921   4.6669219287e+01  -3.0372047153e-01    0.1410325   0.09523174 -15.59 0.0004684429    1.078    0.072
        78 -11.7069    237.7179    221.0313   4.7964119883e+01   4.8740620891e-01    0.1482712    0.1013067 -14.40  0.001171557    1.074    0.069
        79 -13.3175     77.5051    219.0056   7.9848521892e+01   1.8909527066e+01     0.486936    0.3043808  61.51 0.0007315751    1.919    0.479
        80 -12.9063     87.7363    213.1644   7.6712133198e+01   1.8848291938e+01    0.5230888    0.4120468 -17.25  0.001914529    1.476    0.322
        81 -13.0877     79.4587    212.9662   7.8773535448e+01   1.9885606305e+01    0.4505018    0.2405966  34.05  0.001775704    1.518    0.341
        82 -11.9682     75.6842    212.3387   7.9671514201e+01   2.0460747906e+01    0.3076951    0.1550637  36.33  0.001352681    1.612    0.380
        83 -10.9350    222.9061    220.4509   5.0111550365e+01   1.9332222255e+00    0.1453128    0.0861868  20.50  0.001014184    1.549    0.355
        84 -10.4770    189.6115    220.1913   5.5633529785e+01   5.3747710992e+00    0.1491418   0.08700339 -24.67 7.016552e-05    1.602    0.376
        85 -11.9809    173.3150    219.0214   5.8477264412e+01   7.3588512122e+00    0.2414953    0.1766135 -24.92 0.0009870396    1.302    0.232
        86 -12.0319    129.6886    217.5686   6.7304204071e+01   1.2825882364e+01    0.2105873    0.1969885  59.34 0.0008812111    1.401    0.286
        87 -11.7434     64.4618    217.2032   8.2970241099e+01   2.0757117591e+01     0.296553    0.2534874  70.46  0.001903744    1.289    0.224
        88 -12.6939    145.3230    216.0020   6.3695390733e+01   1.1158676828e+01    0.4017862    0.2751622  30.00  0.001777592    1.313    0.239
        89 -12.8548    141.0877    211.1149   6.3930426476e+01   1.2504096206e+01    0.2591222    0.2316119 -59.34 0.0008305858    1.488    0.328
        90 -10.8397    224.3794    216.4825   4.9305518900e+01   2.2757580490e+00    0.1700637   0.08643595  37.67  0.001029856    2.547    0.607
        91 -11.1543    155.3017    214.6365   6.1422244886e+01   1.0158774841e+01    0.1967479    0.1268526 -19.44 0.0006812176    1.633    0.388
        92 -12.9916    125.1505    212.8763   6.7716509131e+01   1.4217104018e+01    0.2597951    0.2196832  10.21 0.0004193186    1.047    0.045
        93 -13.2008    120.5226    214.4702   6.8982086136e+01   1.4516256870e+01    0.5020069    0.2340276  48.44  0.002151272    2.878    0.653
        94 -10.5573     69.4790    215.4429   8.1542141064e+01   2.0548871523e+01    0.1310243    0.1100014  26.17 0.0001675311    1.067    0.063
        95 -10.5954     58.2637    215.3948   8.4406992107e+01   2.1813341972e+01    0.1250057   0.09328292 -27.64 0.0005036629    1.713    0.416
        96 -10.8682     36.6754    215.1697   8.9962943167e+01   2.4094887206e+01    0.2403246      0.13936  54.46  0.001209439    1.571    0.364
        97 -11.9701    247.6143    212.9032   4.5376620909e+01   5.3280168951e-01    0.1623435    0.1202289   8.39 0.0003820703    1.299    0.230
        98 -10.6235     57.5340    212.3119   8.4350179521e+01   2.2537108918e+01    0.4540114    0.2008732   5.11  0.001524816    4.308    0.768
        99 -11.4111     63.9912    211.2681   8.2584531741e+01   2.2035901556e+01    0.2161651    0.1780233 -73.17   0.00030384    1.425    0.298
       100 -12.5691     67.6943    207.7166   8.1298772222e+01   2.2357861554e+01    0.4275352    0.2166253  18.29  0.001912992    1.978    0.494
       101 -11.9628     70.7062    206.7072   8.0413904482e+01   2.2218003039e+01    0.2438985    0.2248923  18.96 0.0001863317    1.123    0.109
       102 -11.4153     47.2169    210.6206   8.6921288045e+01   2.4002192726e+01    0.2623193    0.1894821 -28.97  0.001457691    1.819    0.450
       103 -11.1489     96.9249    209.5916   7.4029003239e+01   1.8415611565e+01    0.2466952    0.1763882  82.08  0.001326014    2.008    0.502
       104 -12.5355    229.2995    207.2301   4.7178539682e+01   2.9339816543e+00    0.2972495    0.1841404 -42.69  0.001408846    1.963    0.491
       105 -11.5312    225.2657    204.0573   4.7307506574e+01   3.7391078157e+00    0.1669442    0.1146918  -9.12 0.0004253528    1.165    0.142
       106 -13.2430    105.0397    207.1805   7.1742078940e+01   1.7853680763e+01    0.5491886    0.3589637  15.39  0.002644386    1.490    0.329
       107 -11.4197    180.9988    207.7933   5.5380909174e+01   8.1232916993e+00    0.2182885    0.1420761   8.35  0.001345037    1.439    0.305
       108 -11.0190     37.6650    195.5310   8.8456069413e+01   2.8340320151e+01     0.298607    0.1314209  42.47 0.0005978614    1.855    0.461
       109 -12.0468     33.9930    205.7475   9.0116940377e+01   2.6396563168e+01      0.26632    0.2351608 -55.74 0.0008452231    1.373    0.272
       110 -12.5517     36.4812    203.0006   8.9276918043e+01   2.6764051476e+01    0.3106933    0.2237231 -58.60 0.0004919307    1.636    0.389
       111 -11.3816    160.3377    206.6652   5.9239449386e+01   1.0815693085e+01    0.1897604     0.151497 -55.14  0.001203461    1.694    0.410
       112 -12.4606    118.1066    206.9444   6.8571284269e+01   1.6205491818e+01    0.2466421    0.1880843  44.02 0.0003591113    1.374    0.272
       113 -12.6394     54.9163    205.8377   8.4515920038e+01   2.4208938784e+01    0.3014713    0.2248403  23.87 0.0009113093    1.214    0.176
       114 -10.6903    205.1369    206.1841   5.0859784406e+01   5.5968061786e+00    0.1332421    0.1152265  -0.87 0.0002378428    1.264    0.209
       115 -11.2078     40.2496    198.4331   8.7939101705e+01   2.7414755666e+01    0.2023374    0.1443358  37.87 0.0005728088    1.164    0.141
       116 -12.6846    145.5071    202.9384   6.1801342307e+01   1.3337959426e+01     0.412723    0.2105005 -43.56  0.002096703    2.060    0.515
       117 -13.5794     94.0053    183.5523   7.1495301561e+01   2.4221358945e+01    0.5738713    0.3474721 -56.50  0.002796935    1.813    0.449
       118 -12.7031     89.8074    201.5773   7.4892610683e+01   2.0937504251e+01       0.5847     0.317403 -41.67  0.002752706    2.235    0.553
       119 -14.1902     94.6791    194.1566   7.2721079547e+01   2.1850238080e+01     1.147311    0.5277979  43.20  0.004960258    2.081    0.519
       120 -11.3003     51.9993    200.7384   8.4886007954e+01   2.5650856056e+01    0.3227733     0.193912  15.81  0.001599131    1.696    0.410
       121 -11.2395     42.1241    205.5197   8.7919567424e+01   2.5637757689e+01    0.3288026    0.1101399  24.85  0.001299049    2.494    0.599
       122 -12.6035     77.6616    201.7846   7.8084765934e+01   2.2421785825e+01    0.4199539    0.2569411 -51.55  0.001613595    1.869    0.465
       123 -11.7026     60.9928    203.9755   8.2732650346e+01   2.3931917948e+01    0.3702797    0.1789625  22.93  0.001475138    1.881    0.468
       124 -10.8929    162.9904    201.9425   5.7990942470e+01   1.1244993701e+01    0.1495526    0.1230729   5.84  0.000387773    1.022    0.021
       125 -11.3358    212.4158    200.2180   4.8736145309e+01   5.6057152099e+00    0.1434998   0.09419181 -40.44 0.0009341512    1.655    0.396
       126 -12.3482     80.2252    193.6687   7.6498080130e+01   2.3849500266e+01    0.7482009     0.364412  51.82  0.003144484    2.322    0.569
       127 -13.2887     75.3819    179.6005   7.6155225777e+01   2.7652977341e+01    0.8428141    0.3745494 -65.77  0.003445528    2.523    0.604
       128 -13.8692     66.0872    181.5405   7.9062173399e+01   2.8397734640e+01    0.6204402    0.4465447  66.66  0.002096888    1.517    0.341
       129 -10.8466     43.9748    200.3082   8.7047987117e+01   2.6606333984e+01    0.1819763    0.1434449  35.08 0.0002651411    1.076    0.071
       130 -11.0898     59.7628    199.2252   8.2636736878e+01   2.5115169651e+01    0.1624339    0.1468443 -18.06 0.0002162012    1.291    0.225
       131 -10.4003     14.9408    199.4822   9.4954395509e+01   2.9518521448e+01     0.190441    0.1106004  26.15  0.000639783    1.498    0.333
       132 -13.0538     99.6895    184.9146   7.0168267914e+01   2.3129559000e+01    0.5183346    0.3554836 -27.60  0.002230439    1.787    0.441
       133 -11.5107     48.8125    203.9710   8.6006606591e+01   2.5279762033e+01    0.2999169    0.1921779 -71.41   0.00100429    1.769    0.435
       134 -12.0454    139.2853    196.2462   6.2174693090e+01   1.5351906571e+01    0.3225814    0.1683605 -11.25 0.0006403204    4.008    0.751
       135 -13.3102    122.8670    196.5360   6.6010716931e+01   1.7540769018e+01    0.4629816    0.2062201  40.55  0.002032936    2.172    0.540
       136 -12.1640      1.4292    196.3409   9.8518794508e+01   3.1280265136e+01      0.25552    0.1165653 -85.66 0.0007449174    2.255    0.557
       137 -12.3012     84.0840    198.5995   7.6038367447e+01   2.2293611613e+01      0.37519    0.2765445  87.83  0.001884593    1.731    0.422
       138 -12.3702    191.1051    193.9748   5.1375504727e+01   8.9664067147e+00    0.3904885    0.2701295  27.02  0.002524912    1.419    0.295
       139 -11.7173    152.4257    195.7344   5.9226363243e+01   1.3666317062e+01    0.2284498    0.1392389  37.65 0.0008752782    1.638    0.389
       140 -11.1960     49.5493    195.6463   8.5142703611e+01   2.7066163259e+01    0.3599561    0.2307961  22.76  0.001864911    1.439    0.305
       141 -12.7163     10.6564    194.5222   9.5937809176e+01   3.1002958574e+01      0.43395    0.2327941  23.33  0.001428384    1.674    0.402
       142 -12.3252     26.7629    192.9074   9.1356829677e+01   3.0000254458e+01    0.4474684    0.2216575 -81.75  0.001111395    2.178    0.541
       143 -11.8964     30.4002    188.4609   9.0049161867e+01   3.0705456705e+01    0.3899198      0.16673  27.16  0.001113157    1.967    0.492
       144 -11.2129    217.7563    193.7106   4.6855470909e+01   5.8933339120e+00    0.1659244    0.1342001 -49.04 0.0008876947    1.832    0.454
       145 -12.3965    162.8057    192.9151   5.6619549809e+01   1.2758013383e+01    0.2466012    0.2402989 -32.58 0.0008227377    1.341    0.254
       146 -11.0687     69.3310    193.6830   7.9469678203e+01   2.5213072283e+01    0.1680821    0.1490291 -10.17 0.0009392825    1.276    0.216
       147 -11.2719    239.8528    193.3834   4.3508737605e+01   3.5953835611e+00    0.1412935   0.08311289  13.43 0.0009482119    1.750    0.429
       148 -13.9024     37.2301    244.4257   9.1351556807e+01   1.8238159755e+01     1.010215    0.5111722  30.02   0.00572571    1.461    0.316
       149 -11.1700     34.6533    191.1151   8.9004717391e+01   2.9666540614e+01    0.3519184    0.1880108 -41.52  0.001563582    2.557    0.609
       150 -13.1832    134.5347    188.2591   6.2030193262e+01   1.7490952208e+01    0.4767132    0.2418463 -30.83  0.002063646    2.547    0.607
       151 -11.1883    234.1960    190.0546   4.3791449258e+01   4.5970572833e+00    0.1563642    0.1148007 -47.53  0.001087924    1.954    0.488
       152 -10.7729    178.4722    190.5584   5.3152111027e+01   1.1082870482e+01    0.1225378     0.101353  -3.18 9.891217e-05    1.012    0.012
       153 -12.3845     50.7091    189.9498   8.4329709055e+01   2.8250062877e+01    0.3649075    0.2557988   4.43 0.0005936049    1.655    0.396
       154 -13.0765     51.3514    184.0728   8.3611647031e+01   2.9560067056e+01    0.6119924    0.2439906  33.85  0.001615359    2.022    0.505
       155 -11.8339     22.8497    174.0917   9.1387129916e+01   3.4899229364e+01    0.3598673    0.2948369  50.86  0.002045925    1.057    0.054
       156 -12.6372     22.0612    180.1383   9.1987516390e+01   3.3476067887e+01    0.8458447     0.324809  32.44  0.002427605    2.061    0.515
       157 -10.9957     16.9969    175.4931   9.3255090570e+01   3.5052207158e+01    0.2344106     0.145882  30.57 0.0006125416    1.417    0.294
       158 -11.5299      3.1137    187.1670   9.7802133045e+01   3.3291829755e+01    0.4791836    0.1976072  68.70  0.002115175    2.302    0.566
       159 -12.6463      8.9311    184.0547   9.6033705069e+01   3.3603776273e+01    0.5473379    0.3413523 -13.74  0.002714565    2.190    0.543
       160 -11.2780     10.7297    180.6274   9.5372134200e+01   3.4293356877e+01    0.2291566    0.1636052   9.00 0.0009129493    1.537    0.349
       161 -12.9741     11.5140    188.5194   9.5467305568e+01   3.2339505942e+01    0.3126107    0.2600174 -17.89  0.001388955    1.502    0.334
       162 -12.4854      7.9996    188.4968   9.6463305179e+01   3.2617268495e+01    0.2954768    0.2222947 -47.97  0.001711873    1.648    0.393
       163 -12.1641    194.7011    187.5424   4.9688350459e+01   9.4844070501e+00    0.2700848    0.1490806  40.95  0.001496581    2.148    0.535
       164 -11.7064    151.9756    187.7121   5.8050683951e+01   1.5132703689e+01     0.180699    0.1528906  12.96 0.0004478424    1.054    0.051
       165 -12.1918    110.2030    188.0111   6.7890950914e+01   2.0996199622e+01    0.2526402    0.1815656  29.95 0.0007521289    1.236    0.191
       166 -11.5453     42.8623    186.8012   8.6321313529e+01   2.9843891841e+01    0.3932723    0.2090319  70.60   0.00175045    2.176    0.540
       167 -10.7984     18.9373    187.6987   9.3307870795e+01   3.1923663628e+01    0.2068979     0.176888 -79.27  0.001242033    1.286    0.222
       168 -13.1667    121.5693    186.6788   6.4867188962e+01   1.9648628297e+01     0.399718    0.2210286  28.78  0.001040032    1.650    0.394
       169 -13.4197    118.6907    180.3359   6.4597719059e+01   2.1349691221e+01    0.5566074    0.3225445  55.97  0.001705836    2.444    0.591
       170 -10.3250    241.3336    186.2704   4.2177157220e+01   4.3314335316e+00    0.1062884   0.06483411  -6.85 0.0003494397    1.592    0.372
       171 -11.4884    247.7931    185.7258   4.1209077695e+01   3.7391939741e+00     0.167285    0.1122982  15.22  0.001253082    1.515    0.340
       172 -11.6905     24.7631    185.7170   9.1514727178e+01   3.1884188944e+01    0.2027657    0.1902226   5.80  0.000332251    1.226    0.185
       173 -11.3035    164.3464    185.0505   5.5023865920e+01   1.3877873181e+01    0.1721013    0.1506162 -22.61 0.0006053059    1.139    0.122
       174 -11.9479      4.8044    181.3141   9.7133129323e+01   3.4568996065e+01    0.2247515    0.2127633 -26.47 0.0005385806    1.294    0.227
       175 -11.1095    142.4707    181.4745   5.9124479226e+01   1.7627702598e+01    0.1332491    0.1180446   6.44 5.123639e-05    1.008    0.008
       176 -13.2778    106.4289    176.7326   6.7186257160e+01   2.3920922458e+01    0.4748701    0.2602753 -60.30 9.562953e-05    2.102    0.524
       177 -12.0186     31.4259    178.0258   8.9037832145e+01   3.3128379633e+01    0.3461955    0.2340038  61.96  0.001067243    1.406    0.289
       178 -11.2678    191.8685    177.8721   4.8558187068e+01   1.1323379516e+01    0.1485855    0.1410418   3.80 0.0009739628    1.300    0.231
       179 -11.9668    166.9562    178.0252   5.3305193349e+01   1.4715056588e+01    0.1897614    0.1653844  -4.34 0.0003041131    1.008    0.008
       180 -13.3593     56.6315    176.1089   8.1252866138e+01   3.0857043306e+01    0.4677248    0.3829261  55.45  0.001994944    1.156    0.135
       181 -12.5135    148.9770    176.2721   5.6795830771e+01   1.7641404942e+01       0.2742    0.2127836   6.85  0.001035068    1.286    0.223
       182 -10.5277     40.6969    191.2786   8.7293276040e+01   2.9016920428e+01    0.1441633   0.08403385  50.58 0.0003077159    1.547    0.354
       183 -10.5552     71.4071    176.7393   7.6949757134e+01   2.8847287933e+01    0.1797983    0.1315692 -50.65 0.0002817737    1.520    0.342
       184 -12.1425      3.9285    174.9662   9.7177244700e+01   3.6178930629e+01    0.4165571    0.1768736  44.17   0.00132983    1.897    0.473
       185 -11.4155      2.4827    171.5338   9.7497872459e+01   3.7127107757e+01     0.223155    0.1835915  34.20 0.0004976348    1.143    0.125
       186 -12.5771    130.9107    169.1889   5.9742439616e+01   2.1769628583e+01    0.4115597    0.2680153  15.43  0.001984577    1.743    0.426
       187 -13.8628    126.0695    171.9591   6.1399568223e+01   2.1955802850e+01    0.6937291    0.4096017 -76.25  0.002674467    3.443    0.710
       188 -13.4494     89.4378    182.9443   7.2652866713e+01   2.4989357874e+01    0.6827159    0.4335053 -72.92  0.003045675    1.952    0.488
       189 -13.1847     91.4001    169.8781   7.0251215926e+01   2.7669233865e+01    0.4965349    0.2858077 -34.77  0.002105885    2.271    0.560
       190 -11.1488     48.9152    175.3517   8.3505013591e+01   3.1944115406e+01    0.2307294    0.1448852  40.93 0.0005728969    1.389    0.280
       191 -11.4082     12.4353    174.8315   9.4606756937e+01   3.5583283136e+01    0.2445483    0.1904744 -49.00 0.0006510405    1.529    0.346
       192 -10.3905     15.3312    171.2970   9.3544696361e+01   3.6234897954e+01    0.1854705    0.1377445  -6.26  0.000757162    1.634    0.388
       193 -11.6739    214.2010    174.1726   4.4184651215e+01   9.0241154847e+00    0.2016551    0.1505467  36.87 0.0007494772    1.612    0.379
       194 -11.9598    144.1271    172.7750   5.7274312252e+01   1.9027603524e+01    0.2765982     0.145651  51.40  0.001153864    2.682    0.627
       195 -12.2974      2.5570    153.3581   9.6812815348e+01   4.1752577439e+01    0.3886748    0.2492556  55.88  0.002013722    1.382    0.276
       196 -13.3432      1.9424    130.3233   9.6000939538e+01   4.7928095605e+01    0.9622182    0.2718627 -83.64   0.00319358    3.364    0.703
       197 -13.6547     23.0629    161.5842   9.0492523999e+01   3.8058606552e+01    0.6363903      0.48127 -50.87  0.003409066    1.505    0.336
       198 -15.2393     11.2961    134.7661   9.2736516574e+01   4.6136818461e+01     1.515813    0.9001576  62.30  0.006209858    1.621    0.383
       199 -12.8648     29.3671    172.4976   8.9268713242e+01   3.4698975229e+01    0.8036501    0.2491248  20.52   0.00279424    3.104    0.678
       200 -12.3267     25.2783    168.6027   9.0271391810e+01   3.6061763475e+01    0.4047083    0.2355086  18.92  0.001212771    1.708    0.415
       201 -12.8710     26.5315    154.9606   8.8839231858e+01   3.9474063968e+01    0.5485689    0.2448216  43.01  0.001254204    1.962    0.490
       202 -13.2591     26.9808    149.6935   8.8243429702e+01   4.0827170501e+01    0.6838605    0.2982869  60.17  0.002596985    2.490    0.598
       203 -13.1740     14.3333    151.0486   9.2710496744e+01   4.1539243391e+01    0.4725144    0.3313326 -65.27  0.001413182    1.484    0.326
       204 -13.2310     20.1254    153.8311   9.0921433230e+01   4.0337544655e+01    0.6825448    0.3239557 -50.30  0.002817535    2.426    0.588
       205 -13.0380     19.8667    148.3363   9.0610377719e+01   4.1816821565e+01    0.4443446    0.3435692 -11.59  0.001431388    1.550    0.355
       206 -11.5492    235.0854    171.5345   4.0634902539e+01   6.9118006024e+00    0.2243862    0.1410185 -13.12 0.0009885184    1.513    0.339
       207 -11.4638    193.0474    171.6673   4.7268948293e+01   1.2134057751e+01    0.1694281    0.1401781   6.22 0.0004983719    1.131    0.116
       208 -11.5811    197.2886    170.5762   4.6339368708e+01   1.1732884298e+01    0.2166186     0.127075 -21.40  0.001179878    1.768    0.434
       209 -12.4575    100.8011    172.1367   6.7985440265e+01   2.5765345666e+01    0.2902949    0.2082498 -77.44   0.00107809    1.783    0.439
       210 -13.7056     69.3339    186.8880   7.8733169521e+01   2.6749966847e+01     1.014646    0.3028366  33.77  0.003064666    2.593    0.614
       211 -12.4401     57.4372    163.9109   7.9624811161e+01   3.3774241459e+01    0.4057285    0.2388323  56.72 0.0009589831    1.789    0.441
       212 -12.6250    152.4499    167.1991   5.4434998101e+01   1.8806467379e+01    0.5249559    0.1552998 -49.24  0.001808645    3.675    0.728
       213 -11.7795     41.2704    168.3647   8.5203188653e+01   3.4531924725e+01    0.3391204    0.2082778  63.48  0.001571125    1.676    0.403
       214 -13.0784     37.5169    163.1911   8.5922357995e+01   3.6248667429e+01    0.5211862    0.2935395  88.12  0.002316207    1.969    0.492
       215 -13.5670      4.0533    147.5996   9.6060474384e+01   4.3170269501e+01    0.7280742    0.5259437  64.68  0.003713219    1.251    0.200
       216 -11.8435      9.9449    166.7663   9.5001020833e+01   3.7795363595e+01    0.3280563    0.2276106  26.65  0.001769543    1.355    0.262
       217 -12.6463      4.9602    162.3743   9.6390453819e+01   3.9267898286e+01    0.4510988    0.3013642  46.96 0.0009947221    1.295    0.228
       218 -11.6825    111.1182    165.1294   6.4068065045e+01   2.5734935579e+01      0.20309     0.167036  57.32 0.0009778418    1.349    0.259
       219 -13.0199     88.2482    164.5399   7.0344311929e+01   2.9378435214e+01      0.31675    0.2596285  16.00 0.0009929746    1.250    0.200
       220 -11.7467    206.5461    163.4944   4.3534492856e+01   1.1574447120e+01    0.2665637    0.1561789  -5.08  0.001355102    2.376    0.579
       221 -12.5660     61.7109    169.0677   7.8915452460e+01   3.1952098680e+01    0.4254172    0.2599059  81.95  0.001688205    2.062    0.515
       222 -11.8232     68.2623    164.4200   7.6315442845e+01   3.2242369351e+01    0.2109352    0.1214525  39.03 0.0005214829    1.552    0.356
       223 -13.1117     65.0224    161.7942   7.6973315123e+01   3.3327448441e+01    0.4844956    0.2565188 -47.82  0.002032388    2.145    0.534
       224 -12.5856     47.6828    161.7209   8.2487434323e+01   3.5505516382e+01     0.365043    0.2224612  65.08   0.00164936    1.779    0.438
       225 -11.7158    178.7978    160.6254   4.7864109527e+01   1.5964427802e+01    0.2128879    0.1787559 -27.82 0.0003245097    1.099    0.090
       226 -12.6588    170.0798    160.0833   4.9450062952e+01   1.7380031713e+01    0.2991228    0.2380826 -40.49  0.001791165    1.252    0.201
       227 -11.0541     73.3667    161.3057   7.4315776478e+01   3.2309568653e+01    0.1521834    0.1121266 -17.68 0.0007036192    1.747    0.428
       228 -12.1086     12.1303    161.1290   9.4023994176e+01   3.9072938036e+01    0.2882468    0.1968734  11.66 0.0006737504    1.570    0.363
       229 -11.8858     16.2032    160.1741   9.2642870492e+01   3.9002133592e+01    0.3030317    0.1853241  47.89 0.0007134081    1.443    0.307
       230 -11.5673    158.9746    160.0801   5.1721576387e+01   1.9111015875e+01    0.1962105    0.1792241  -2.61  0.000289343    1.015    0.015
       231 -13.1809     81.4141    157.3578   7.1263268699e+01   3.2116447870e+01    0.3913572    0.3163091 -76.62  0.001308606    1.364    0.267
       232 -11.8585     77.1935    159.8871   7.2936036264e+01   3.2114730585e+01    0.2280963    0.1900177  58.38 0.0004535644    1.211    0.174
       233 -11.3398    187.5410    158.1667   4.5796033521e+01   1.5078620997e+01    0.2232162    0.1620789  54.44 0.0008063891    1.910    0.476
       234 -11.4626    105.3507    158.1419   6.4429736681e+01   2.8213356874e+01      0.27707    0.1974647  39.88 0.0004287345    1.326    0.246
       235 -12.8305     56.9859    157.3797   7.8963680855e+01   3.5488728256e+01    0.4241552    0.2271435  35.35 0.0008319185    1.655    0.396
       236 -12.5653     50.9664    154.1397   8.0537984879e+01   3.7072502951e+01     0.326139    0.2143729 -85.78 0.0007390554    1.670    0.401
       237 -11.8475     33.0807    157.9540   8.6900788785e+01   3.8059157548e+01    0.2147832    0.1896895  52.32 0.0003225452    1.015    0.014
       238 -12.8714    126.0308    166.9969   6.0555908806e+01   2.2984460410e+01    0.3604231    0.2482665  46.38  0.001567525    1.530    0.347
       239 -12.5315     62.9542    156.9520   7.6981575698e+01   3.4822221930e+01    0.2239568    0.2094644  39.61 0.0004436568    1.038    0.037
       240 -12.1421    212.2415    153.3700   4.0794663655e+01   1.2323839011e+01    0.2831993    0.1762096 -49.98  0.001197628    1.896    0.473
       241 -11.3553    141.3126    154.6551   5.4604983093e+01   2.3022270684e+01    0.1370666    0.1121684  79.53 0.0007046619    1.709    0.415
       242 -12.0258     88.4684    153.0079   6.8421147220e+01   3.2099068097e+01    0.2204674    0.1487723 -60.04  0.000655023    1.575    0.365
       243 -12.7082     66.8687    152.8980   7.5151774707e+01   3.5321022354e+01    0.2627019    0.2032963  15.45 0.0005417994    1.380    0.275
       244 -12.6675     36.0890    143.6439   8.4445348808e+01   4.1545352518e+01    0.4124444    0.2415727 -24.37  0.001668359    2.460    0.593
       245 -14.0452     34.5207    148.8790   8.5547666266e+01   4.0306943000e+01    0.8206371    0.2571277  35.15    0.0029121    2.568    0.611
       246 -10.7257    249.3126    151.9163   3.5413826663e+01   7.8488894524e+00     0.152636     0.104264 -27.39 0.0002745892    1.104    0.094
       247 -12.3062     40.3824    145.7831   8.3165834819e+01   4.0507841646e+01     0.333125    0.1382476 -72.70  0.001244747    2.463    0.594
       248 -11.8430    147.4986    149.5198   5.2184093066e+01   2.3002140143e+01    0.2865882    0.2462544  74.88  0.001260884    1.513    0.339
       249 -12.4496    108.5924    148.9133   6.1851727194e+01   2.9783516311e+01     0.327619    0.2892296 -70.79 0.0008283787    1.248    0.199
       250 -13.0264    101.4674    142.5037   6.2655539936e+01   3.2484016593e+01    0.7624363    0.3634242  55.72  0.002562425    3.124    0.680
       251 -12.9008     84.7309    148.9179   6.8865352219e+01   3.3679971801e+01    0.3592183     0.268204 -47.56  0.001051315    1.436    0.303
       252 -13.0015     76.8461    155.1156   7.2320427528e+01   3.3341258922e+01    0.4291022    0.1872049  37.56  0.001043151    2.038    0.509
       253 -12.9510     79.2240    147.3858   7.0329215556e+01   3.4911166547e+01     0.625346    0.3440666  -4.05  0.001852884    4.499    0.778
       254 -11.3661    121.5072    146.5092   5.7901835352e+01   2.8106269257e+01    0.1455443    0.1381095   8.03 0.0008102462    1.040    0.039
       255 -12.3366    169.0635    144.8293   4.6686542414e+01   2.0265262968e+01    0.4020872    0.2136991  31.08  0.001460664    2.153    0.535
       256 -11.9666     65.8535    148.8600   7.4886753975e+01   3.6494587244e+01    0.2269858    0.2067766 -16.73 0.0005413513    1.238    0.192
       257 -10.3574    132.0161    144.7294   5.4875568108e+01   2.6651425227e+01    0.1750416    0.1228484  37.28 0.0002592245    1.399    0.285
       258 -13.4994     35.2689    138.8651   8.4208691412e+01   4.2922470454e+01    0.6823042     0.313007   2.84  0.002262419    3.481    0.713
       259 -13.7562     36.0069    131.8472   8.3100267389e+01   4.4757073535e+01    0.6141221    0.3691207  72.32  0.001169382    1.857    0.462
       260 -12.1488     41.5551    139.5400   8.2002068734e+01   4.2053085672e+01    0.2532596    0.2332295  88.91 7.910041e-05    1.084    0.077
       261 -12.7596     96.8403    148.2342   6.5090042651e+01   3.1902293412e+01    0.4370545     0.322643  -1.84  0.002023833    1.763    0.433
       262 -11.3765    222.9542    139.4084   3.6622787230e+01   1.2905205244e+01    0.2773275    0.1324213 -30.67  0.001043193    1.869    0.465
       263 -12.6349     57.2946    139.4752   7.6381103384e+01   4.0117343603e+01    0.3150928     0.158827 -51.86 0.0007872259    2.094    0.522
       264 -13.2999     28.3810    128.2666   8.5608381580e+01   4.6513863045e+01    0.7281365    0.2790797  58.22  0.002054049    3.240    0.691
       265 -11.5705    188.6814    138.6633   4.1810926726e+01   1.8136977752e+01    0.2271112    0.1829057 -38.40 0.0007185925    1.150    0.131
       266 -10.9097     77.2817    139.3265   6.9563906142e+01   3.7243992990e+01    0.1524399    0.1172782 -25.36 0.0001941044    1.599    0.375
       267 -11.3804    126.7710    137.3845   5.4676352721e+01   2.9155216902e+01    0.2061086    0.1370534  27.71 0.0003462051    1.634    0.388
       268 -12.4706    118.7565    135.3396   5.6345298021e+01   3.1065222477e+01    0.4043226     0.324195  84.59  0.001592242    1.598    0.374
       269 -13.3928     81.7115    127.9808   6.5946012954e+01   3.9407031853e+01    0.5116854    0.3326721  43.74  0.002269789    1.479    0.324
       270 -11.9717     85.8659    135.1352   6.6000136075e+01   3.6913889609e+01    0.2450717    0.1884727 -18.09 0.0004610216    1.661    0.398
       271 -12.3839    102.8980    134.0079   6.0531705327e+01   3.4241364741e+01    0.2847885      0.22033  36.57  0.001394623    1.251    0.201
       272 -12.7785     77.9743    133.4407   6.8257768943e+01   3.8633268579e+01    0.4023358    0.2683269 -11.84  0.001610401    2.333    0.571
       273 -10.8167    128.2968    133.6449   5.3489528852e+01   2.9681358091e+01    0.1482132     0.117142  85.69 0.0004639974    1.696    0.410
       274 -13.1311     19.4044    123.3124   8.8641937337e+01   4.8676186447e+01    0.4616255    0.2544773   2.58  0.001933082    2.198    0.545
       275 -13.6041     14.8608    145.4489   9.2163635862e+01   4.2989795759e+01    0.7528606    0.3473914  37.28  0.001492765    1.891    0.471
       276 -13.0377     20.5885    131.3093   8.8935370035e+01   4.6372534518e+01    0.4302338    0.2422069  10.16  0.001476128    1.983    0.496
       277 -12.4822     21.9480    127.5243   8.8046415039e+01   4.7300263840e+01     0.298879    0.2433542  62.78 0.0004979807    1.166    0.142
       278 -10.9173    230.0904    130.6835   3.4016679526e+01   1.3165544465e+01    0.1517829    0.1281318 -21.65 0.0004535266    1.086    0.079
       279 -12.4914     69.3046    130.5571   7.0683213774e+01   4.0739358095e+01    0.3653905    0.2051696 -32.05  0.001334118    2.661    0.624
       280 -12.1793    206.2628    129.3652   3.7096100669e+01   1.6860754646e+01    0.2242797    0.1824946 -32.49 0.0003173632    1.046    0.044
       281 -12.5502     50.1943    129.9567   7.7493718423e+01   4.3600051927e+01    0.3477233    0.1865982  39.48 0.0009188764    1.726    0.421
       282 -12.6545     45.2316    128.2381   7.9102871649e+01   4.4688156053e+01    0.3666223    0.2342287  51.94 0.0007477019    1.564    0.361
       283 -13.2681     44.3158    120.8698   7.8330269614e+01   4.6814022779e+01    0.5551645    0.3465819 -47.37  0.001381735    1.732    0.423
       284 -10.1955    130.4794    128.4584   5.1800507546e+01   3.0383163541e+01    0.1439657    0.1422627   5.27 0.0001304087    1.003    0.003
       285 -11.0195    121.6334    127.8751   5.3953153075e+01   3.2186748641e+01    0.2141563    0.1404575 -61.34 0.0009430139    1.752    0.429
       286 -11.6101     64.5137    126.9733   7.1729492555e+01   4.2406000172e+01    0.2476826    0.1925807  80.52 0.0006511435    1.424    0.298
       287 -13.4801     60.7478    126.6673   7.3043775351e+01   4.3041103662e+01    0.3900623    0.2861882 -88.00 0.0006383872    1.520    0.342
       288 -13.5074     45.1321    140.1914   8.0796711794e+01   4.1463001092e+01    0.5004669    0.2880505 -69.82 0.0003694278    1.761    0.432
       289 -12.7076     74.0476    125.5509   6.8074889288e+01   4.1293403190e+01    0.3342838    0.2841885  16.92 0.0008561076    1.270    0.213
       290 -11.1536    109.0495    123.0199   5.6343271213e+01   3.5677623986e+01    0.2372214    0.1830879  74.85 0.0004062298    1.607    0.378
       291 -11.2872    188.9840    121.6868   3.8243051453e+01   2.0919357338e+01    0.1677361    0.1623803 -12.97 0.0002122424    1.107    0.097
       292 -10.8865    165.4181    122.1812   4.2606129153e+01   2.5039681245e+01    0.1894841    0.1231218 -51.37 0.0004213303    1.586    0.369
       293 -12.1494    103.8210    121.5794   5.7551264595e+01   3.7006604331e+01    0.3905748    0.2741444  58.09  0.001145424    1.590    0.371
       294 -12.1206     98.8068    117.4585   5.8127680857e+01   3.8935050946e+01    0.3364791    0.2432903  70.16 0.0009066174    1.732    0.423
       295 -13.6475     13.1744    112.5221   9.0192283374e+01   5.2140412825e+01    0.7046386     0.357934 -79.68  0.001488284    1.893    0.472
       296 -13.7654      9.6995    105.5399   9.1064798193e+01   5.4308890878e+01    0.5511057    0.3126725  88.84  0.001484115    1.756    0.430
       297 -12.7771      9.5262    116.2572   9.2068323358e+01   5.1344646191e+01    0.3630485    0.2249116  70.32  0.001702028    1.605    0.377
       298 -13.2698     20.8062    116.8881   8.7399406206e+01   5.0344841129e+01    0.6436195    0.3936052  58.65  0.002011862    1.661    0.398
       299 -11.6491     24.0322    115.0339   8.5827968017e+01   5.0583605784e+01    0.4095137    0.2341791  52.47 0.0008653798    1.767    0.434
       300 -10.9248    224.2840    120.0573   3.2722207400e+01   1.5517793693e+01    0.1653148    0.1261717 -34.91 0.0003659882    1.065    0.061
       301 -12.0321     79.0236    120.5100   6.5311380914e+01   4.1761013533e+01    0.2376431    0.1497359  35.02 0.0004815779    1.537    0.349
       302 -12.3245     63.8964    118.8176   7.0408482835e+01   4.4658030075e+01    0.2382107    0.2087805 -28.88 0.0006799747    1.289    0.224
       303 -10.9393     36.0392    119.5169   8.1443979225e+01   4.8147590730e+01    0.2228017    0.1451594  25.14 0.0005161687    1.523    0.343
       304 -11.7725    180.0958    123.1511   4.0081972599e+01   2.2216318338e+01    0.1993714    0.1707407  -9.42 0.0005945536    1.235    0.190
       305 -11.9191     51.1726    115.9758   7.4777271298e+01   4.7263050386e+01    0.5828909    0.2675627  45.77  0.001464882    2.198    0.545
       306 -10.5145    196.7056    115.3148   3.5648176590e+01   2.0639725749e+01    0.1249933   0.09338149 -62.31 0.0002951704    1.600    0.375
       307 -12.8071     82.8305    112.8860   6.2299423656e+01   4.3021815751e+01    0.6671339    0.2215549 -58.36  0.002033007    3.276    0.695
       308 -11.5556    104.8350    114.0188   5.5470982914e+01   3.8582411152e+01    0.2411433    0.2068678  81.55 0.0008019814    1.298    0.230
       309 -12.1646     64.7946    113.8117   6.9053565291e+01   4.5841717006e+01    0.3403088    0.2721598 -34.24 0.0009510434    1.433    0.302
       310 -12.2951     61.6933    110.1862   6.9484306966e+01   4.7285557195e+01    0.3980883    0.2877827 -74.76  0.001127476    1.486    0.327
       311 -12.5352    110.3678    111.4202   5.3207288732e+01   3.8081487912e+01    0.4074322    0.2944146  20.62 0.0005515164    1.754    0.430
       312 -11.4664     89.7275    110.9711   5.9506677601e+01   4.2223648591e+01    0.2552856    0.2172421  40.61 0.0002299733    1.148    0.129
       313 -11.1236     92.1270    107.8575   5.7950466360e+01   4.2522847683e+01    0.2354518    0.1905045 -14.48 -0.0006383859    1.588    0.370
       314 -11.4003     52.9255    110.9003   7.3118155488e+01   4.8394668895e+01    0.3615094    0.2012891  37.50 0.0009466186    1.697    0.411
       315 -11.8132    220.8751    109.0582   3.0961275174e+01   1.7633005821e+01    0.2507112     0.171168  39.59  0.001028655    1.811    0.448
       316 -11.1571    160.9968    110.0000   4.0679679940e+01   2.8129098468e+01    0.2271421     0.080335  48.58 0.0008116847    3.007    0.667
       317 -10.9644    209.5097    107.9725   3.2232115719e+01   1.9629228757e+01    0.1978121    0.1051248 -36.52  0.001032146    1.592    0.372
       318 -11.6404    170.4134    108.2212   3.8474809582e+01   2.6618510303e+01    0.2071811     0.118076 -49.66 0.0009582246    1.746    0.427
       319 -12.6889      3.7416    106.8123   9.3833790188e+01   5.4290546620e+01    0.3249406    0.2698273  27.84 0.0003589677    1.232    0.189
       320 -10.5113    139.6739    107.3289   4.4584530910e+01   3.2947131947e+01    0.1509778    0.1156089 -84.29 0.0007050504    1.703    0.413
       321 -12.3679    120.7766    106.6779   4.9120068900e+01   3.7005096656e+01    0.2653179    0.2607309 -40.88 0.0003908001    1.053    0.050
       322 -11.2399    157.6850    106.3068   4.0455182952e+01   2.9471642802e+01    0.1416296    0.1094021 -77.26 0.0003170002    1.626    0.385
       323 -13.3352      4.6472    118.7841   9.4273556288e+01   5.0936102794e+01    0.5956296    0.3372568  80.00  0.002271022    1.726    0.421
       324 -12.0965     79.0388    101.5122   6.0885865317e+01   4.6561048958e+01    0.3106117     0.238083  64.36 0.0005493035    1.438    0.305
       325 -12.7925    165.9219    100.5144   3.7468189409e+01   2.8870690804e+01    0.3270112    0.2047877 -61.37  0.001505172    1.959    0.489
       326 -11.2267     57.7992     97.5905   6.8237565102e+01   5.1220648286e+01    0.2831905    0.2636397  -6.98  0.001166825    1.181    0.154
       327 -11.9488     93.7537     99.2048   5.5182427676e+01   4.4267682246e+01    0.3360805    0.2509984  46.90  0.001271982    1.306    0.235
       328 -11.9877     32.6099     98.2844   7.9556342372e+01   5.4391556835e+01    0.5124509     0.256055 -41.78  0.001970945    2.315    0.568
       329 -11.0045    208.3031     99.6953   3.0634235368e+01   2.1083942612e+01    0.1238427   0.08654901 -60.10 0.0001993576    1.597    0.374
       330 -11.5013     24.5496     97.6412   8.3222731500e+01   5.5374407480e+01    0.3196738    0.2329742 -10.41 0.0005435563    1.597    0.374
       331 -11.5779     16.0032     98.0996   8.7339249486e+01   5.5952376596e+01    0.3195521      0.19705   5.43  0.001358245    1.807    0.447
       332 -10.5699     45.7841     97.4180   7.3396355100e+01   5.3023844969e+01    0.2057416    0.1492938  10.89 0.0009343399    1.577    0.366
       333 -12.7818     14.0388    118.2648   9.0358520012e+01   5.0484372871e+01    0.3599031    0.2216672  29.00  0.001057451    1.571    0.363
       334 -11.7027     98.9476     94.9223   5.2337478691e+01   4.4194101784e+01    0.2486653    0.2191877 -57.06            0    1.149    0.130
       335 -12.1449     67.6832     94.7673   6.3485124529e+01   5.0308223544e+01    0.4054851    0.1540942  42.87  0.001349827    2.557    0.609
       336 -11.5407    117.2106     94.0884   4.6738324641e+01   4.0465685324e+01    0.2195505    0.2033931 -71.68 0.0003379192    1.075    0.070
       337 -11.1542     78.5042     92.5013   5.8698661425e+01   4.8885288140e+01    0.1565693    0.1506235  64.36 -0.0001306383    1.001    0.001
       338 -11.4604    207.3040     91.1687   2.8911283978e+01   2.2534442772e+01     0.199744    0.1439556 -22.70  0.001171667    1.485    0.327
       339 -12.3108    230.1856     89.6830   2.5918820654e+01   1.8893566615e+01    0.2244997    0.1630127 -36.17 0.0003289059    1.118    0.105
       340 -11.3160     28.0429     90.4672   8.0334584531e+01   5.7016492830e+01    0.2304634    0.1449081  22.07 0.0009873151    1.611    0.379
       341 -11.3949      4.3575     88.0491   9.1942438715e+01   5.9440891891e+01    0.3801904    0.2205204 -56.12  0.001778013    1.636    0.389
       342 -12.2089     54.4193     86.0498   6.6817345183e+01   5.4760310553e+01    0.4653336     0.418335   7.02  0.002418136    1.213    0.175
       343 -11.4664    178.3243     86.9046   3.2035143406e+01   2.8693164980e+01    0.1910069    0.1603522 -43.37 0.0004866105    1.079    0.073
       344 -11.1571    162.6956     87.3127   3.4767776350e+01   3.1857972803e+01    0.1434891    0.1036635 -70.13 0.0003159642    1.616    0.381
       345 -12.1578    153.5612     80.1794   3.4575251831e+01   3.5079389520e+01     0.259142    0.2111318  -7.09  0.001342896    1.626    0.385
       346 -12.7209     61.3498     85.5508   6.3637691841e+01   5.3741697703e+01    0.4907834     0.259717 -43.67   0.00190047    2.112    0.527
       347 -11.6044     11.7196     86.9774   8.8038709662e+01   5.9323696929e+01    0.2936355     0.195251  24.46 0.0005867323    1.519    0.342
       348 -11.2199    244.1420     86.0130   2.3778547102e+01   1.7218582108e+01    0.1660056    0.1254846 -39.65 0.0003721148    1.008    0.008
       349 -11.2526    124.8706     85.0394   4.2185745245e+01   4.0626478058e+01    0.2866466    0.2239907 -20.72  0.001368109    1.623    0.384
       350 -10.5960     35.2615     86.3466   7.5949537666e+01   5.7346306402e+01    0.2005744    0.1320432  34.64 0.0004965674    1.482    0.325
       351 -11.5475    111.1898     83.6063   4.5400828766e+01   4.4006748095e+01    0.4679492    0.1741906  47.27  0.001510553    2.654    0.623
       352 -11.5915    190.0893     83.5133   2.9472196186e+01   2.6898995260e+01    0.1780015     0.130288  63.80 0.0007377565    1.541    0.351
       353 -11.7102    171.2995     83.0593   3.2209232920e+01   3.0768316770e+01     0.198515    0.1652437 -44.41 0.0007700991    1.102    0.092
       354 -11.4293     67.5574     83.3747   6.0401701498e+01   5.3178811520e+01     0.328698    0.1129766  48.12 0.0009611291    3.389    0.705
       355 -11.8434    206.4932     80.9738   2.6748784167e+01   2.4180076640e+01    0.1992139    0.1842589  87.04 0.0003269027    1.221    0.181
       356 -11.9938    182.2395     80.9967   2.9996592914e+01   2.8851663140e+01    0.2072844    0.1906059  84.93  0.000365115    1.160    0.138
       357 -10.6371    123.6798     81.1559   4.1354961301e+01   4.1665281591e+01    0.2006987    0.1382215 -35.54            0    1.579    0.367
       358 -11.3350    215.8576     79.8762   2.5417104471e+01   2.2657070809e+01    0.1733428    0.1211311 -55.26  0.000473255    1.343    0.255
       359 -12.0563    215.0028     75.3964   2.4532119782e+01   2.3434826016e+01    0.2448018    0.1534683 -35.70 0.0003178559    1.357    0.263
       360 -12.2716     87.5030     79.0926   5.1475078069e+01   5.0203219717e+01    0.3272886     0.254236  42.78 0.0003779204    1.271    0.213
       361 -11.5889     29.2718     79.0963   7.7432025331e+01   5.9970188832e+01    0.3121217    0.2565047  80.68  0.001172946    1.307    0.235
       362 -12.5197    187.8155     78.2181   2.8525595495e+01   2.8164260746e+01     0.250627    0.2239531 -32.99 0.0003734127    1.157    0.136
       363 -12.0493    112.2136     76.4546   4.2942308366e+01   4.5237352862e+01     0.465672    0.2429789 -53.16  0.001818048    2.091    0.522
       364 -10.6925    115.7825     74.4170   4.1346694757e+01   4.4812810693e+01    0.2880621    0.1478884  47.38 0.0007343235    1.965    0.491
       365 -10.8511     51.6851     79.0330   6.6156253582e+01   5.6989051301e+01    0.2108006    0.1961356 -78.93 0.0005147307    1.099    0.090
       366 -10.7645      8.3197     78.3164   8.8708938178e+01   6.1897572537e+01    0.1534451   0.09429248 -40.79 0.0007040573    1.658    0.397
       367 -11.1329    161.5038     76.5107   3.2158805284e+01   3.3955603959e+01    0.1426547    0.1260461 -63.92 0.0001332768    1.057    0.054
       368 -11.4134     75.1251     75.6576   5.4976910716e+01   5.3557506973e+01    0.2599457    0.2117412 -68.50  0.000552922    1.325    0.245
       369 -11.4169    169.2173     74.2791   3.0295708480e+01   3.2644893055e+01    0.2846752     0.164238 -47.67 0.0008535611    1.598    0.374
       370 -11.0229     85.6636     75.0866   5.0845041693e+01   5.1488174248e+01     0.210124    0.2022157 -60.18 0.0004861709    1.075    0.070
       371 -12.1656    149.4502     87.4934   3.7340419111e+01   3.4676865117e+01    0.2589048    0.1374191 -39.60 0.0007884728    1.831    0.454
       372 -11.8655     51.0175     72.3695   6.4515826089e+01   5.8767213429e+01    0.3586414    0.2643595 -74.95  0.001147705    1.552    0.355
       373 -11.6368     53.3731     68.7366   6.2227900839e+01   5.9264249132e+01    0.2677532    0.2051637  47.23 0.0005676277    1.302    0.232
       374 -11.7371      2.0753     68.8073   9.1074013403e+01   6.4763650223e+01    0.4386116    0.2001429  72.72  0.001717258    2.644    0.622
       375 -10.9584    105.1468     73.1083   4.3892494369e+01   4.7544237686e+01    0.2284196    0.2152819  16.80 0.0009091261    1.224    0.183
       376 -10.7440    182.6113     70.8661   2.7442813184e+01   3.0345867824e+01    0.1911016    0.1045136 -47.24 0.0003658129    1.634    0.388
       377 -10.9165     93.9600     68.4780   4.5817160682e+01   5.1058866453e+01    0.2198418    0.2017604 -58.63  0.000111375    1.112    0.100
       378 -12.4411      7.3424     67.8198   8.7756857464e+01   6.4778837378e+01    0.2446079    0.2398465  67.44 0.0002979978    1.060    0.057
       379 -11.9462      9.1670     63.6104   8.5925124727e+01   6.5791381991e+01     0.308963    0.1544436 -30.71  0.001287919    2.225    0.550
       380 -12.6718    203.0630     66.4892   2.3841021409e+01   2.6893636623e+01    0.2257764    0.2022403 -47.50 0.0003787881    1.104    0.094
       381 -12.2137    199.4522     65.4934   2.4017597205e+01   2.7734640429e+01    0.2352685    0.1995918 -56.08 7.570941e-05    1.037    0.036
       382 -10.8979     60.2535     66.9880   5.8407534835e+01   5.8455440489e+01    0.2059993    0.1947095 -55.68 0.0003213726    1.089    0.081
       383 -11.2416     48.2441     67.3920   6.4332353491e+01   6.0438804498e+01    0.2823306    0.1838363  42.37  0.001125982    1.512    0.339
       384 -11.5667    178.8824     64.3102   2.6296276283e+01   3.2117033752e+01      0.23141    0.1823012 -39.41 0.0005495036    1.195    0.163
       385 -11.3470     44.5043     62.3801   6.4633901434e+01   6.2247265689e+01    0.2805496    0.1841058  -3.97  0.001147273    2.294    0.564
       386 -11.3737    109.0046     60.0951   3.8476175578e+01   4.9139881317e+01    0.2366985    0.2157113 -87.49 0.0006647083    1.060    0.057
       387 -11.1828    192.5219     57.4870   2.2885083172e+01   3.0244537834e+01    0.1306526    0.1086618 -55.40 0.0006752762    1.014    0.014
       388 -11.2604    160.1824     57.4115   2.7148481342e+01   3.7303671085e+01     0.186993    0.1275469  83.83 0.0005038158    1.596    0.373
       389 -11.0306    120.5563     57.0144   3.4540286316e+01   4.6866298520e+01    0.2145047    0.1448712 -39.71 0.0002930828    1.516    0.340
       390 -10.3319     18.4595     57.4699   7.8627184400e+01   6.6698495757e+01    0.1392218    0.1335681 -33.30 0.0001423783    1.004    0.004
       391 -10.9007    149.6937     56.5389   2.8591545366e+01   3.9885554942e+01    0.1841498    0.1319844  82.89 0.0006672457    1.467    0.318
       392 -10.7412     52.6956     56.4124   5.8239509998e+01   6.2262390192e+01    0.2950138    0.1335772  42.90  0.001121262    2.141    0.533
       393 -10.8201    126.4983     54.0065   3.2219156844e+01   4.5908646179e+01    0.2190515    0.1089591 -57.66 0.0008100882    2.503    0.600
       394 -10.9918    115.5223     53.9529   3.4696297126e+01   4.8628259014e+01    0.2125122    0.1453496 -41.63 0.0003752785    1.490    0.329
       395 -13.5625     30.9734     50.1996   6.8285894937e+01   6.7115000182e+01    0.4276415    0.3260067  38.42  0.001082038    1.312    0.238
       396 -11.1529    100.8412     50.8860   3.7438571117e+01   5.2776817580e+01    0.2124166    0.1702598 -74.55 0.0005102011    1.352    0.260
       397 -10.0778      1.2777     51.6324   8.9112681523e+01   6.9300004214e+01    0.1406936   0.09457466  58.00 0.0005604373    1.681    0.405
       398 -10.5831    222.9588     50.0012   1.8199876855e+01   2.5349658500e+01    0.1403011     0.112628 -54.14 0.0003549411    1.049    0.047
       399 -11.8095     19.1976     47.6585   7.5328440222e+01   6.9082382510e+01    0.4515747     0.180579 -58.78  0.001806658    2.299    0.565
       400 -10.9469    143.5333     44.5050   2.5969270997e+01   4.3176788084e+01    0.1422927    0.1276445 -76.39 6.786318e-05    1.013    0.013
       401 -10.7160    227.2724     43.3566   1.6423769500e+01   2.5383225630e+01    0.1041178   0.08662004  -6.89 0.0004523412    1.645    0.392
       402 -13.7697     36.6790     40.2538   6.0657616602e+01   6.8543403041e+01    0.4251512    0.3786714  25.77  0.001181287    1.075    0.069
       403 -11.2218    119.0569     41.0588   2.9365602345e+01   4.9801158042e+01    0.2918741    0.2060309  -8.74 0.0008626307    2.107    0.525
       404 -10.3989    130.9407     40.9842   2.7006628661e+01   4.6810209392e+01    0.1734182    0.1512034  85.09 0.0004335864    1.060    0.056
       405 -10.7484    241.7371     40.0545   1.4743576240e+01   2.3261460815e+01    0.1577889      0.10919 -44.32 0.0003499096    1.081    0.075
       406 -12.6413     24.8545     37.8408   6.7665812230e+01   7.0761109761e+01    0.4248069    0.2658884 -17.35  0.001925905    2.073    0.518
       407 -10.9461    135.8240     38.8719   2.5447009453e+01   4.5886217280e+01     0.196845    0.1859836  71.54 0.0003275446    1.158    0.136
       408 -10.6963     53.3825     38.2153   5.0150995428e+01   6.5939461568e+01    0.1884821    0.1388157 -55.11 0.0004394761    1.524    0.344
       409 -11.7234     77.9377     37.0943   3.9082126313e+01   6.0692606658e+01    0.2189941    0.2012878  59.79 0.0004146375    1.017    0.016
       410 -11.0347    100.4463     36.4637   3.1968876387e+01   5.5220835919e+01    0.1477845    0.1341955  83.45 0.0001634228    1.019    0.019
       411 -12.8386     44.3966     33.2572   5.2617128087e+01   6.8635033442e+01    0.4051783     0.367096 -37.54  0.001458141    1.164    0.141
       412 -12.7785     31.9239     32.2890   6.0075397548e+01   7.0967782481e+01    0.4053279    0.3213837 -52.12  0.001987356    1.344    0.256
       413 -12.1484    106.7802     32.5098   2.8860261898e+01   5.4177083540e+01    0.2590111    0.2431539 -72.88 0.0002605896    1.084    0.078
       414 -12.6059     78.3676     31.2501   3.6269092717e+01   6.1523082915e+01    0.3348829    0.2378234  86.54  0.001575167    1.733    0.423
       415 -11.7082    208.6857     30.6425   1.4946768306e+01   3.0393063460e+01    0.2191755    0.1399588  86.92 0.0008084545    1.628    0.386
       416 -10.3499      8.6667     31.7334   7.8277236827e+01   7.3798875656e+01    0.1398855   0.08946606 -27.25 0.0002157555    1.584    0.369
       417 -11.7453     19.3618     29.7354   6.8349435392e+01   7.3225223161e+01    0.2351324     0.208328 -14.66 0.0003910445    1.077    0.072
       418 -10.9897      3.5345     29.5315   8.2156061691e+01   7.4651492444e+01    0.1321808    0.1170036 -29.53   0.00032968    1.025    0.025
       419 -12.3769    139.2275    247.8787   6.8926843844e+01   6.9115042465e+00    0.2551878    0.2354327  16.09  0.001664722    1.331    0.249
       420 -12.0399     45.7296     25.9907   4.7985635839e+01   6.9708058630e+01    0.3013289    0.1988697  53.92 0.0007852803    1.562    0.360
       421 -10.5389    221.2764     25.3242   1.2897482228e+01   2.8565437179e+01    0.0986077   0.08869138   0.47 0.0002851178    1.584    0.369
       422 -12.6924     67.4484     23.6697   3.6501339098e+01   6.5286722782e+01    0.4517839    0.2534572 -34.47  0.002052012    1.952    0.488
       423 -11.2954    166.1316     22.1415   1.6347603504e+01   4.0609820262e+01    0.1812296    0.1668396 -84.05 0.0002843578    1.165    0.142
       424 -11.1163    132.9499     21.5241   2.0050859654e+01   4.8839572748e+01     0.199892    0.1740938 -62.33 0.0003491263    1.095    0.086
       425 -10.3508    143.5200     18.5375   1.7681884482e+01   4.6508146757e+01    0.1388241    0.1162292 -74.92 9.249794e-05    1.026    0.025
       426 -13.9905    115.7292    241.4466   7.3179706372e+01   1.0481049741e+01    0.7070097    0.3706407 -28.42  0.003623379    2.597    0.615
       427 -10.8650     92.2605     16.6392   2.5520459066e+01   5.9973123901e+01    0.1458512   0.09888598 -63.61 0.0006977214    1.630    0.387
       428 -10.7684     31.3222     16.0249   5.1190606373e+01   7.4141680925e+01    0.1813897    0.1699516  -3.18 0.0004487425    1.083    0.076
       429 -11.8604    162.1773    247.0702   6.4299937265e+01   4.6040857294e+00     0.204817     0.137356   7.02 0.0006664722    1.209    0.173
       430 -10.4447     80.3811    246.1935   8.1518290229e+01   1.3570221900e+01    0.1327002    0.1091984  66.92 0.0002405008    1.471    0.320
       431 -11.0865     53.4207    244.1626   8.7580343762e+01   1.6721127257e+01    0.3061123   0.09365348  47.72  0.001101352    2.945    0.660
       432 -10.6564    167.6058    243.2327   6.2794933308e+01   4.5620407025e+00     0.138776   0.09086065 -24.27 0.0004813313    1.499    0.333
       433 -10.8364    143.0164    242.2448   6.7507176369e+01   7.3281941546e+00    0.1513596   0.07921134  24.29 0.0003100329    1.525    0.344
       434 -11.0237     60.5585    242.1213   8.5788258523e+01   1.6370207363e+01    0.1912993    0.1381156 -48.37   0.00121654    1.770    0.435
       435 -13.9411     52.9130    236.1620   8.7205358413e+01   1.8257518224e+01    0.4654338     0.308018 -56.03  0.001938117    1.890    0.471
