#   1 NUMBER                 Running object number                                     
#   2 MAG_AUTO               Kron-like elliptical aperture magnitude                    [mag]
#   3 X_IMAGE                Object position along x                                    [pixel]
#   4 Y_IMAGE                Object position along y                                    [pixel]
#   5 X_WORLD                Barycenter position along world x axis                     [deg]
#   6 Y_WORLD                Barycenter position along world y axis                     [deg]
#   7 A_WORLD                Profile RMS along major axis (world units)                 [deg]
#   8 B_WORLD                Profile RMS along minor axis (world units)                 [deg]
#   9 THETA_WORLD            Position angle (CCW/world-x)                               [deg]
#  10 FWHM_WORLD             FWHM assuming a gaussian core                              [deg]
#  11 ELONGATION             A_IMAGE/B_IMAGE                                           
#  12 ELLIPTICITY            1 - B_IMAGE/A_IMAGE                                       
         1 -16.4359    233.8869    127.0982   3.2855441636e+01   1.3143652066e+01     12.56401     2.923091 -33.00   0.04305082    4.560    0.781
         2  -9.7385     97.8659    213.6877   7.4267665725e+01   1.7500628176e+01    0.2440549    0.1337877 -43.35  0.001216728    2.147    0.534
         3 -11.4061      3.9762    244.6967   9.8960591556e+01   2.1047694099e+01    0.3364031    0.2118957  -4.69  0.001991003    2.182    0.542
         4  -9.0569    167.5256    227.9730   6.0828356176e+01   6.7081121247e+00    0.1571001    0.1064046 -37.20 0.0006829658    1.578    0.366
         5  -8.6954    162.4742    227.5232   6.1751982145e+01   7.3402528224e+00    0.1169803   0.09287527   8.51 6.393438e-05    1.039    0.038
         6  -8.9716    158.5856    231.2989   6.3017995155e+01   7.2207656600e+00    0.1836963    0.1131509 -50.22  0.001108084    2.087    0.521
         7  -9.8789    185.4798    223.5075   5.6849587414e+01   5.3658520429e+00    0.1429396    0.1036565 -42.39 0.0008804967    1.689    0.408
         8 -10.6635    180.5856    211.2962   5.5982408916e+01   7.6542303504e+00    0.2991966    0.1033048 -42.64  0.001386168    2.911    0.656
         9 -10.4239    160.3878    210.9195   5.9853585793e+01   1.0128673264e+01     0.263299     0.190018 -28.50  0.001374023    1.367    0.269
        10  -9.7448    124.4141    212.2243   6.7799401428e+01   1.4427170016e+01    0.1557606    0.1276055 -71.23 0.0009515862    1.676    0.403
        11 -10.3556    105.5700    211.3265   7.2119605892e+01   1.6988103604e+01    0.2173519     0.134224 -65.51   0.00113578    2.094    0.522
        12  -8.6564     77.6486    211.2874   7.9066751473e+01   2.0442328374e+01    0.1409756   0.08302813  48.66 0.0007023496    1.665    0.399
        13 -10.7693    174.8741    222.0940   5.8614944280e+01   6.7351513801e+00    0.2683603    0.1749935 -56.35  0.001573455    2.477    0.596
        14  -9.1195    140.5710    221.3074   6.5417985964e+01   1.0867442555e+01    0.1988316     0.122592 -54.55  0.001124748    2.077    0.519
        15 -10.4584    183.6370    207.5530   5.4855100969e+01   7.8480329165e+00    0.2070355     0.128729 -38.80  0.000798227    1.629    0.386
        16 -11.3217    175.3296    204.5178   5.5955456405e+01   9.2988468452e+00    0.3747089    0.1918759 -22.30   0.00187054    2.327    0.570
        17 -11.2800     97.8301    204.9108   7.3249768692e+01   1.9228982350e+01    0.3071471    0.2441697  52.08  0.001810819    1.347    0.258
        18 -10.8323    180.5069    198.9946   5.4118095098e+01   9.5104270958e+00    0.3051902    0.1420939 -37.51 0.0008511578    2.066    0.516
        19 -10.4484    181.1822    194.8529   5.3334544331e+01   1.0064257250e+01    0.1959066    0.1391186 -11.58 0.0006227863    1.318    0.241
        20 -11.2001    138.9942    206.4174   6.3728296300e+01   1.3581738069e+01    0.2500754    0.1921512 -12.42  0.001169618    1.307    0.235
        21 -11.6134    149.2214    204.6019   6.1248473111e+01   1.2570776398e+01    0.2440598    0.2325341   9.20  0.001693079    1.249    0.199
        22  -9.7877     89.0091    205.1837   7.5513602553e+01   2.0296903889e+01     0.236009    0.1213649  46.51  0.001088769    1.950    0.487
        23 -10.2344    120.6999    203.9497   6.7558913743e+01   1.6426253821e+01    0.1827994    0.1666147   6.42  0.001177878    1.086    0.079
        24 -10.9235    160.6340    202.4793   5.8551218269e+01   1.1458109885e+01     0.257425     0.154494 -38.69 0.0009516134    1.688    0.407
        25 -11.1791    161.8961    193.8146   5.6948572632e+01   1.2728373998e+01     0.257439    0.1674208 -33.37 0.0009570515    1.518    0.341
        26 -10.9540    134.0255    201.7798   6.4175196807e+01   1.5058240782e+01     0.260133    0.1872173 -60.52  0.001476266    1.804    0.446
        27 -11.4103    129.4200    202.0054   6.5258243971e+01   1.5630187761e+01    0.4133082    0.1701341 -39.79  0.001751747    2.820    0.645
        28  -8.8901    250.0449    202.4910   4.3496290574e+01   1.5142268596e+00     0.130236   0.08649845  18.58 0.0006877906    1.522    0.343
        29 -11.4247    105.6311    200.8154   7.0790637961e+01   1.9028122472e+01     0.337458    0.2155103 -38.51  0.001757454    1.797    0.443
        30 -10.9991    109.2204    204.4934   7.0382548242e+01   1.7832753815e+01    0.2279044    0.1905472 -48.25   0.00102023    1.366    0.268
        31 -10.4668    152.4649    198.4713   5.9639701076e+01   1.3190688482e+01    0.1863539    0.1085724 -34.17 0.0008226067    1.778    0.438
        32 -10.3415    172.4405    198.7306   5.5619052179e+01   1.0559951477e+01    0.2022105    0.1135869 -45.11  0.000829429    1.917    0.478
        33 -10.8205    152.3803    193.8014   5.8934455746e+01   1.4007328453e+01    0.2249507    0.1461503  -4.32 0.0007185676    1.798    0.444
        34 -11.3847    124.2352    198.1951   6.5923970080e+01   1.7038227070e+01    0.2624606    0.2324877  41.46   0.00164635    1.227    0.185
        35 -11.5939    124.5353    192.6952   6.5054107303e+01   1.8049378628e+01    0.3240834    0.2124927   7.53  0.001643157    1.719    0.418
        36 -12.2862    118.1538    164.2139   6.2065214609e+01   2.4820439511e+01    0.7816988    0.4139734   8.16  0.002536819    4.035    0.752
        37 -12.8692    120.3372    169.1008   6.2347416666e+01   2.3437308577e+01    0.9696517    0.5425946   0.61  0.003348497    3.752    0.733
        38 -10.9989    167.3775    196.8340   5.6318767305e+01   1.1511608577e+01    0.3026026    0.1593915 -33.09  0.001225738    1.925    0.480
        39  -9.8288    184.6504    177.1647   4.9742304388e+01   1.2400256930e+01    0.2830281    0.1569566  -8.12  0.001275281    2.783    0.641
        40  -9.7632    178.4467    191.5055   5.3311093080e+01   1.0936222974e+01    0.1231617    0.1006009  -4.90 9.926777e-05    1.034    0.032
        41 -10.2738    155.0038    189.0184   5.7615658818e+01   1.4482495779e+01    0.2596004    0.1503509 -20.42  0.001177149    2.159    0.537
        42 -10.1884    157.2350    185.5925   5.6585643392e+01   1.4771858173e+01    0.2223307    0.1625722  -2.75 0.0007708039    1.408    0.290
        43 -10.8501    137.8940    190.1699   6.1557747558e+01   1.6658580304e+01    0.1991068    0.1737061  37.16 0.0008155885    1.226    0.185
        44  -9.9489     72.4331    189.2455   7.8128507943e+01   2.5823942505e+01    0.2530265    0.1292821 -59.73  0.001143586    2.136    0.532
        45 -10.2971    173.8091    173.1577   5.1096671344e+01   1.4568973917e+01    0.2596965     0.169571 -10.98  0.001049233    1.779    0.438
        46 -10.8618    170.0541    176.7513   5.2464745339e+01   1.4493501463e+01    0.3452308    0.1963865 -19.16  0.001646091    2.236    0.553
        47 -11.0129    166.1758    186.7246   5.4930552665e+01   1.3343459158e+01    0.3565028    0.1848115 -21.66  0.001592266    2.626    0.619
        48 -10.5449    170.9781    190.3150   5.4562253946e+01   1.2102971238e+01    0.2992864     0.183363   1.65 0.0009551093    1.956    0.489
        49 -12.7349     97.1280    183.6342   7.0668948280e+01   2.3766216555e+01    0.6619272     0.411981 -33.78  0.003122104    1.988    0.497
        50 -10.2983    150.9705    186.0515   5.7997488842e+01   1.5569771943e+01    0.2136915    0.1449835  -8.13  0.001131698    1.692    0.409
        51 -12.7209    135.3607    182.2441   6.0880628869e+01   1.8519480985e+01     0.608025    0.3888357  -4.52  0.002887202    2.093    0.522
        52 -11.3759    129.3434    195.0035   6.4261975329e+01   1.6942988690e+01    0.2833823    0.1868656 -25.73  0.001484418    1.737    0.424
        53 -10.2396    172.5045    183.9295   5.3206731036e+01   1.2948405883e+01    0.2736093    0.1513818 -14.98  0.001259581    2.520    0.603
        54 -11.4430    142.4949    184.4351   5.9604141975e+01   1.7071256825e+01    0.3065168     0.237995   8.53  0.001620578    1.248    0.199
        55 -11.5084     90.0393    181.6613   7.2314804278e+01   2.5191688964e+01    0.3539572    0.2342406 -22.44  0.001565315    2.032    0.508
        56 -10.2512    162.0749    183.9835   5.5311242658e+01   1.4375878249e+01    0.2389263     0.163432   4.33 0.0007407844    1.575    0.365
        57 -10.4135     55.6897    181.4965   8.2090926710e+01   2.9672298817e+01    0.2367352    0.1288009 -70.99  0.001076794    2.014    0.504
        58 -10.1876    163.6827    176.6650   5.3735858021e+01   1.5418868842e+01    0.2106427     0.151352   6.96 0.0008212565    1.450    0.310
        59 -10.8148    183.4734    171.4940   4.8965997725e+01   1.3479039012e+01     0.506524    0.1591175  35.13  0.002017524    3.333    0.700
        60  -9.8247    178.5056    176.5004   5.0777934757e+01   1.3350559962e+01      0.37703     0.117216 -46.02  0.001457027    3.376    0.704
        61  -9.7110    181.5027    175.0004   4.9950622912e+01   1.3181252834e+01    0.2329988    0.1567859   3.86 0.0008451876    1.646    0.393
        62 -10.9982    145.0457    178.9606   5.8126196449e+01   1.7721433069e+01    0.2821865    0.1785575  18.13  0.001148569    1.662    0.398
        63  -8.8097    152.3006    178.2905   5.6415049205e+01   1.6780954758e+01    0.1322981   0.09419767  -6.45 0.0003357516    1.564    0.361
        64  -9.9827     47.4994    177.5040   8.4139121509e+01   3.1576806573e+01     0.142553    0.1253152  44.57 -8.233855e-05    1.003    0.003
        65 -12.9757    103.4405    191.2266   7.0067057142e+01   2.1274206098e+01    0.9658784     0.387953 -45.29  0.003868306    2.849    0.649
        66 -11.1399     64.9760    174.1911   7.8539341859e+01   3.0287812306e+01    0.2498208    0.2144783 -78.20  0.001335868    1.264    0.209
        67 -13.4025    128.2482    167.6357   6.0120228953e+01   2.2503435542e+01    0.9691858    0.5060634  22.21  0.004055403    2.248    0.555
        68 -11.1999     77.4770    172.8422   7.4677625976e+01   2.8954847499e+01    0.3460656    0.2138481 -37.35  0.001560275    2.016    0.504
        69  -9.5408    192.6277    171.8185   4.7369495108e+01   1.2167144501e+01    0.3284785    0.1507136 -28.38  0.001233016    2.385    0.581
        70  -9.0959    193.6032    167.1481   4.6367763908e+01   1.2768773872e+01    0.2065449    0.1303927 -23.81  0.001172797    1.529    0.346
        71 -11.0652    190.7816    166.1683   4.6688036262e+01   1.3316465375e+01     0.392376    0.1903094 -19.94  0.001604502    3.256    0.693
        72  -9.4372    153.1327    173.3586   5.5382787309e+01   1.7560568293e+01    0.2634501    0.1175702  26.37  0.001080569    2.545    0.607
        73 -10.6863    177.6264    183.8801   5.2207327106e+01   1.2264952590e+01    0.3233454    0.1998539 -11.75  0.001142162    1.888    0.470
        74 -10.1411    175.1340    179.1140   5.1876685840e+01   1.3385517802e+01    0.2391134    0.1672233 -12.00 0.0007728579    1.471    0.320
        75 -11.3072    101.5630    170.2924   6.7489650442e+01   2.6062579423e+01     0.327133     0.271335 -43.42  0.001602087    1.297    0.229
        76 -10.9168     95.6588    171.3089   6.9273057708e+01   2.6715077200e+01    0.2892865    0.1952211 -18.95  0.001218812    2.012    0.503
        77 -10.8229     83.9263    170.3198   7.2454693191e+01   2.8647501164e+01    0.2789824    0.2143593 -51.27   0.00130988    1.415    0.293
        78 -10.9748     54.6436    170.1075   8.1207878661e+01   3.2568687992e+01    0.2732011    0.1762885  38.38  0.001137565    1.364    0.267
        79 -10.5224    166.1671    181.8369   5.4115437193e+01   1.4173280650e+01    0.3563534    0.1931669   3.30  0.001459679    3.185    0.686
        80  -9.7579    179.4709    166.0772   4.8740921196e+01   1.4945445335e+01    0.2032116    0.1412318 -21.25 0.0007601599    1.422    0.297
        81  -9.2189    180.6640    180.7046   5.1093358412e+01   1.2370077408e+01    0.2272564    0.1590035  -5.40  0.001214317    1.469    0.319
        82 -14.5624    112.6422    180.4681   6.6146908912e+01   2.2211613665e+01     3.557275     1.412118  16.80  0.009255188    6.084    0.836
        83 -10.8975     89.6471    167.3275   7.0365918169e+01   2.8518128878e+01    0.3620583    0.1667756  29.75  0.001446471    2.020    0.505
        84 -11.0832    138.8955    196.8843   6.2358067501e+01   1.5289402134e+01    0.3037732    0.1655705 -36.48  0.001507499    1.993    0.498
        85 -11.1370     59.9177    165.6685   7.9059411355e+01   3.3021958442e+01    0.2526291    0.1999563 -55.06  0.001325946    1.381    0.276
        86 -11.1207    101.5269    163.1228   6.6339867656e+01   2.7685194636e+01    0.3575949    0.2303344   7.24  0.001507377    2.074    0.518
        87  -9.5408    169.5063    218.5184   5.9138203709e+01   7.8718501493e+00    0.1935597    0.1117548 -45.66 0.0009370151    1.983    0.496
        88 -11.0867    170.3154    212.9925   5.8187084204e+01   8.6083650296e+00    0.3120346    0.1969078 -22.55  0.001381323    1.569    0.363
        89  -9.2806    196.3824    162.8626   4.5112724381e+01   1.3058365623e+01    0.2296614    0.1068087 -33.98 0.0006184904    1.990    0.498
        90  -8.7615    187.6097    163.1433   4.6704619403e+01   1.4254398666e+01    0.1826383    0.1012975 -28.37 0.0009280315    1.810    0.447
        91 -11.3288    111.8305    162.4184   6.3413279430e+01   2.6218581076e+01    0.3274036    0.2440275   3.42  0.001472012    1.591    0.371
        92  -8.9455    182.8224    161.9239   4.7353319364e+01   1.5150046568e+01    0.2086656    0.1286049 -14.45   0.00088936    2.001    0.500
        93 -12.9031    114.8075    193.0288   6.7460461881e+01   1.9335987956e+01    0.8286801    0.3048117 -48.49  0.003333549    2.890    0.654
        94 -13.9202    104.0414    175.0008   6.7553682122e+01   2.4650929159e+01     1.437037    0.7200786  13.07  0.005164774    3.129    0.680
        95 -12.2326     78.8499    158.8261   7.2270778565e+01   3.2134742629e+01    0.5601783    0.3460048 -14.75  0.002197034    2.655    0.623
        96 -11.1330     84.9001    148.8499   6.8801428463e+01   3.3670234323e+01    0.3299741    0.2056112 -38.69  0.001422444    1.919    0.479
        97  -8.7991    153.6320    160.7109   5.2983709688e+01   1.9839610516e+01    0.1407844   0.09978295  -2.25 0.0007023602    1.708    0.415
        98 -11.4119     69.7358    159.0824   7.5126563944e+01   3.3365970806e+01      0.26185    0.2536263 -10.60  0.001490329    1.129    0.114
        99 -10.9193    156.4816    196.4958   5.8489660074e+01   1.2995185985e+01    0.2277079    0.1465283 -32.05 0.0009736362    1.566    0.361
       100 -11.7142    131.2977    156.8150   5.7409886718e+01   2.4246317502e+01    0.3381396     0.243527  21.64  0.001715449    1.447    0.309
       101  -9.9622    109.3979    157.7599   6.3251094490e+01   2.7646005310e+01     0.202831    0.1329208 -42.41 0.0007812345    1.640    0.390
       102 -11.4692     91.3096    156.9273   6.8232319839e+01   3.0717067456e+01    0.3890389    0.2309148 -38.31  0.001663108    2.039    0.510
       103 -10.5755    179.6984    217.2016   5.7012544315e+01   6.8962216313e+00    0.1828689    0.1767722   1.52  0.001190433    1.505    0.336
       104 -11.6044    144.8469    195.9328   6.0894054106e+01   1.4653045192e+01    0.3313865    0.2254938  -3.44  0.001440151    1.637    0.389
       105 -10.3699    122.9710    155.4773   5.9246450099e+01   2.5912783479e+01    0.2272232    0.1358519  34.73  0.001035941    1.602    0.376
       106 -11.0827    114.9952    157.5272   6.1704461733e+01   2.6784957852e+01    0.3031508    0.2335838   1.05   0.00110498    1.529    0.346
       107 -10.5908    103.6747    153.4444   6.4065001883e+01   2.9560774480e+01    0.2509636    0.1745057 -32.19  0.001077131    1.703    0.413
       108  -8.5062    192.2743    156.3141   4.4613280348e+01   1.4687435883e+01    0.1247204   0.08669929 -10.89 0.0003244298    1.560    0.359
       109  -9.7094    111.8448    153.1400   6.1747729474e+01   2.8280784413e+01     0.207491    0.1741483  -9.81  0.001082664    1.338    0.253
       110  -9.7777     72.5169    152.5054   7.3281671040e+01   3.4621873621e+01    0.1491524    0.1405421  39.39 0.0008102565    1.029    0.028
       111 -10.6615     78.8570    150.8899   7.1023084167e+01   3.4092596610e+01     0.236091     0.206875 -16.58  0.001110316    1.301    0.231
       112  -8.5079    176.2883    150.3909   4.6388209194e+01   1.8110227697e+01    0.1378406   0.09372138 -11.94 0.0007006635    1.765    0.433
       113 -10.6185    129.1350    150.1182   5.6662393421e+01   2.6013972460e+01    0.2308956    0.1929338  -7.52  0.001234075    1.314    0.239
       114 -12.7088    120.3439    186.7037   6.5170576438e+01   1.9819158726e+01    0.4998643    0.4107773 -61.32  0.002903878    1.445    0.308
       115 -10.1758    176.5122    213.0308   5.7004133765e+01   7.8730184457e+00    0.2232294    0.1118448 -47.88 0.0008267073    2.395    0.582
       116 -10.5312    123.5221    149.0027   5.7868555181e+01   2.7215576275e+01    0.2840322    0.2041223  16.85 0.0009746054    1.585    0.369
       117 -11.1602     91.2636    148.6980   6.6833994332e+01   3.2697907697e+01    0.2950305    0.2447207 -15.28  0.001290813    1.417    0.294
       118  -8.7470    146.8397    223.1918   6.4342660719e+01   9.8140553628e+00    0.1697375    0.1225155  -3.58  0.001066035    1.321    0.243
       119  -9.9552    111.8539    146.8445   6.0554629714e+01   2.9699119179e+01    0.2078446    0.1762392  65.22 0.0007937305    1.327    0.246
       120  -9.9212    134.2039    145.8067   5.4556632935e+01   2.6042790687e+01    0.2030691    0.1681509  -7.89  0.001076168    1.341    0.254
       121  -9.5251    143.2510    216.6223   6.4220938785e+01   1.1311120011e+01     0.198459    0.1571721 -60.46  0.001252468    1.749    0.428
       122 -10.4164     99.2113    145.4298   6.3874164209e+01   3.2174248993e+01    0.2961689    0.1454595  29.39  0.001138702    2.110    0.526
       123 -11.1604     78.6535    144.4802   7.0018506028e+01   3.5727675155e+01    0.3265693      0.25885 -29.37  0.001402473    1.488    0.328
       124 -10.2004    118.6381    143.8855   5.8136826576e+01   2.9185089879e+01    0.2640155    0.2011239  24.03  0.001099485    1.368    0.269
       125 -10.6916    185.8321    215.6082   5.5651098149e+01   6.4320535884e+00    0.1968489    0.1896458 -62.76 0.0009316753    1.729    0.422
       126 -11.2476     92.5587    140.6523   6.4962769312e+01   3.4436565181e+01    0.3623249    0.2583718 -36.90   0.00162223    1.610    0.379
       127  -9.8339    125.5103    141.4751   5.5850441409e+01   2.8497471289e+01    0.2650867    0.1395591  26.64  0.001033464    2.317    0.568
       128 -10.5575    108.8521    139.7101   5.9981236215e+01   3.1852665550e+01    0.2421033     0.190264  13.27  0.000871788    1.454    0.312
       129 -10.2977    111.6874    215.2678   7.1138122126e+01   1.5479975866e+01    0.2479029    0.1901469 -63.76  0.001498884    1.656    0.396
       130  -9.6099     73.4762    139.5058   7.0852879995e+01   3.7785374078e+01     0.152749     0.144003  49.73  9.83374e-05    1.001    0.001
       131 -10.3289    101.5584    137.2893   6.1597962424e+01   3.3701586754e+01    0.2630087    0.1917399   8.87  0.001181845    1.751    0.429
       132  -9.2309    130.6296    214.8173   6.6735460094e+01   1.3184664256e+01    0.1536534    0.1234456 -65.69 0.0009460111    1.706    0.414
       133 -10.3632     88.1700    135.8067   6.5396651356e+01   3.6361760857e+01    0.2139521    0.1848548  -9.70   0.00101319    1.344    0.256
       134 -10.0836    209.5132    136.9953   3.8111897827e+01   1.5190487014e+01    0.2993234    0.1860402 -10.42  0.001567976    2.148    0.534
       135  -8.8885    127.3363    135.3042   5.4090451129e+01   2.9501017625e+01    0.1499505    0.1151056  -4.94 0.0004400388    1.668    0.401
       136  -9.4051    111.3279    135.3051   5.8378011354e+01   3.2423700047e+01    0.1524429    0.1183233  -8.62 0.0006639826    1.651    0.394
       137 -10.5454     97.2691    132.8779   6.1984163877e+01   3.5510196791e+01    0.2968608    0.2064307   1.97  0.001239521    2.110    0.526
       138 -10.1346    104.7875    130.1958   5.9171632328e+01   3.4798948518e+01    0.2162927    0.1848888  -8.46  0.001083052    1.371    0.271
       139  -9.1788     81.6474    130.6773   6.6504545576e+01   3.8735338417e+01    0.1604165    0.1205401 -17.27 0.0007047555    1.755    0.430
       140  -9.2560     91.6340    214.8237   7.5923032295e+01   1.8047126327e+01    0.1611492    0.1256588 -87.08 0.0009456943    1.677    0.404
       141  -9.7620    117.0404    129.2280   5.5489936578e+01   3.2751328780e+01    0.2058169    0.1223053  38.44 0.0008238584    1.660    0.398
       142  -9.2020    154.3154    214.0062   6.1536197469e+01   1.0379944067e+01    0.1691908    0.1415384 -10.71 0.0006216367    1.127    0.113
       143  -9.1485     97.4894    123.4961   5.9910476872e+01   3.7732435161e+01    0.1526269    0.1491631  37.63 -1.029261e-05    1.034    0.033
