#   1 NUMBER                 Running object number                                     
#   2 MAG_AUTO               Kron-like elliptical aperture magnitude                    [mag]
#   3 X_IMAGE                Object position along x                                    [pixel]
#   4 Y_IMAGE                Object position along y                                    [pixel]
#   5 X_WORLD                Barycenter position along world x axis                     [deg]
#   6 Y_WORLD                Barycenter position along world y axis                     [deg]
#   7 A_WORLD                Profile RMS along major axis (world units)                 [deg]
#   8 B_WORLD                Profile RMS along minor axis (world units)                 [deg]
#   9 THETA_WORLD            Position angle (CCW/world-x)                               [deg]
#  10 FWHM_WORLD             FWHM assuming a gaussian core                              [deg]
#  11 ELONGATION             A_IMAGE/B_IMAGE                                           
#  12 ELLIPTICITY            1 - B_IMAGE/A_IMAGE                                       
         1 -13.0915    184.4381     50.9474   4.8956599574e+01   3.2637559481e+01     1.008663      1.00607 -48.04 0.0008210953    1.141    0.123
         2 -13.2576    196.0117     41.7154   4.4825231168e+01   3.1104066353e+01     1.084032    0.9672062 -67.15  0.003149714    1.059    0.056
         3 -13.9659    204.4948     33.0911   4.1577942859e+01   3.0200127816e+01     1.854261     1.299476   1.92  0.001346152    2.369    0.578
         4 -12.1667    231.2222      8.6391   3.3406279463e+01   2.6978669709e+01    0.6185877    0.4220753  33.25  0.002888579    2.503    0.600
         5 -12.8677    228.0271      4.4013   3.2747605916e+01   2.8128537246e+01    0.8290154     0.640495  67.71  0.005072192    1.384    0.277
         6 -10.4914     41.6562      2.3228   6.8606400125e+01   6.9905688212e+01    0.1884347    0.1085955  40.63   0.00110522    1.684    0.406
         7 -11.1548     59.8039      2.6070   6.1260297437e+01   6.6869744515e+01    0.4741665    0.2558634 -38.89  0.002495539    2.429    0.588
         8 -11.5074     49.1527      3.4019   6.5878056342e+01   6.8613795615e+01    0.4088545    0.2013785  19.65  0.001975202    2.409    0.585
         9 -12.6419    111.8860    196.8799   1.0013620185e+02   1.8281900078e+01    0.9691248    0.6266059   6.56  0.004007975    2.808    0.644
        10 -18.2929     19.3721    207.7121   1.2210734214e+02   2.8290362574e+01     13.14578     5.057264 -81.21   0.06348277    2.389    0.581
        11 -10.6482     99.4452    180.8579   1.0068267258e+02   2.3951474751e+01    0.2829711    0.2513928  44.65 0.0005581498    1.104    0.095
        12 -10.8559    107.6744    203.9285   1.0214900131e+02   1.7455865497e+01    0.3091176    0.2571871 -80.70 0.0006186109    1.286    0.222
        13 -11.1796    120.2458    194.5078   9.7793929855e+01   1.7377445468e+01    0.4622472    0.2830511 -89.33   0.00173748    2.834    0.647
        14  -9.9065    187.9996    176.2712   7.8988725534e+01   8.6220147078e+00    0.3591953     0.318492 -53.02   0.00200019    1.297    0.229
        15  -9.9020    147.0469    172.9122   8.7548636538e+01   1.7170679469e+01    0.5375531    0.3182054 -73.69  0.001918304    3.187    0.686
        16 -11.3118     48.8956    171.2101   1.1210339891e+02   3.3445907327e+01    0.5415704    0.3212257 -42.97  0.001879388    2.154    0.536
        17 -11.2447     45.4037    168.5244   1.1267049716e+02   3.4499507005e+01    0.5404127    0.2401929 -52.03  0.002266279    2.380    0.580
        18  -9.2891     81.7898    195.3123   1.0704496643e+02   2.3383292804e+01    0.2858345    0.2407996  -7.99  0.001608932    1.662    0.398
        19  -9.3810    185.5028    169.4707   7.8122201359e+01   1.0407844359e+01    0.2842485    0.1422589 -43.25 0.0009558995    2.019    0.505
        20 -10.4583    240.6181    169.2985   6.7455057318e+01   5.1274769388e-01    0.2145592    0.1630056  48.30  0.000727497    1.624    0.384
        21  -8.9200    137.4038    167.3535   8.8790683380e+01   2.0248442395e+01    0.3759173    0.1292361  44.43  0.001220974    2.861    0.650
        22  -8.4134    223.9957    206.7163   7.7703763187e+01  -2.7849418964e+00    0.1774818    0.1456058  10.35 0.0003607474    1.060    0.056
        23  -8.1342    134.3384    163.3070   8.8744076913e+01   2.1749768664e+01    0.1547363    0.1211166  -4.13 0.0007042095    1.680    0.405
        24  -8.7605    194.0446    171.4811   7.6740299951e+01   8.3913160606e+00    0.2158001    0.1381012  39.14  0.000946142    1.547    0.354
        25 -11.5446     91.7414    151.9332   9.7755190054e+01   3.2147737861e+01    0.7357972     0.571438 -11.18  0.003543333    1.775    0.437
        26 -10.6763    134.2866    147.6263   8.5461590138e+01   2.5344767514e+01    0.9747092    0.2909957 -53.72  0.002696528    4.022    0.751
        27 -10.4419    133.0000    140.9870   8.4311709067e+01   2.7133839166e+01    0.4808368    0.2179713 -51.33  0.001731494    2.275    0.560
        28  -8.6483    112.5028    150.5582   9.1822632550e+01   2.8859502771e+01    0.1521835    0.1454457  73.36 0.0002487997    1.035    0.034
        29  -9.1157    174.8708    149.1662   7.6047888248e+01   1.6625675163e+01    0.2274135    0.2130743  82.95 0.0005742263    1.217    0.179
        30 -10.2910    104.4415    138.1104   9.1431994588e+01   3.3333793254e+01    0.5590695    0.3505494 -24.37  0.002152724    2.505    0.601
        31 -11.6555     91.9907    137.8406   9.4928473480e+01   3.5572114144e+01    0.2969476     0.265842 -39.90 0.0004036913    1.166    0.143
        32 -10.1724    105.9044    130.8448   8.9407338734e+01   3.4821414682e+01    0.3711509    0.3288327 -73.15  0.001361517    1.173    0.148
        33 -10.2891    135.8898    128.5906   8.0639332120e+01   2.9374665559e+01    0.4184131    0.2125356 -49.57   0.00152524    2.002    0.500
        34 -10.0700    113.0125    129.0290   8.6968235291e+01   3.3911645661e+01    0.4239264    0.3196456  19.72 0.0009633431    1.589    0.371
        35 -11.3695    119.1853    123.1724   8.3828723793e+01   3.4072952997e+01    0.6716594    0.4762178 -22.46  0.002880767    1.841    0.457
        36  -9.1741    160.9280    127.8222   7.4225037500e+01   2.4116370902e+01    0.3125339    0.2117612 -70.14  0.001251532    2.132    0.531
        37 -10.4166    100.1404    125.0515   8.9748767019e+01   3.7271460865e+01    0.3107191    0.2588977 -17.08 0.0007926942    1.413    0.292
        38 -10.1950    135.1264    118.3279   7.8276276914e+01   3.1850065230e+01    0.5416183    0.1467413 -43.88  0.001486921    3.744    0.733
        39  -9.3350    108.6938    118.2360   8.5602512017e+01   3.7296400053e+01     0.233688    0.2052939  51.66 0.0003997856    1.178    0.151
        40 -10.0008    231.3837    113.7169   5.7043166269e+01   1.1656669846e+01    0.2834588    0.2471504 -33.20 0.0007514545    1.062    0.059
        41 -11.5931    117.2841    108.2936   8.0554333307e+01   3.7873796799e+01    0.8520111      0.68475 -51.25  0.004139845    1.252    0.201
        42  -8.6443    168.1594    112.7942   6.8777116949e+01   2.5628875617e+01    0.2754246    0.1787385 -83.72 0.0009601215    2.984    0.665
        43  -9.4695    134.8266    104.4995   7.4694511409e+01   3.4947173989e+01    0.5254975    0.1992892 -36.25  0.001590222    3.248    0.692
        44  -9.4522    205.3757    110.2535   6.0624419104e+01   1.7724088730e+01    0.2953593    0.2060307  46.58 0.0008851092    1.523    0.344
        45  -9.9322     58.7124     96.8204   9.6323594286e+01   5.0533752353e+01    0.2605649    0.2253207  62.82 0.0009828086    1.368    0.269
        46 -11.7383    111.9314    204.9155   1.0130781896e+02   1.6550019303e+01    0.4370367     0.340315 -82.56  0.001094236    1.455    0.313
        47  -8.1321    120.6136     88.2783   7.3965700656e+01   4.1491267459e+01    0.1574505    0.1233273  82.42 0.0007001533    1.728    0.421
        48  -9.2729     93.3888    205.7403   1.0568383434e+02   1.9326446240e+01    0.2303018    0.1848741  38.83 0.0008593132    1.213    0.176
        49  -8.4650    234.3197     86.6528   5.0458548858e+01   1.5597498915e+01    0.1461966   0.09579846 -64.32 0.0007049017    1.733    0.423
        50  -8.7303    157.4893     82.5132   6.2954485040e+01   3.4067494068e+01    0.1519417    0.1497349  56.33 6.380109e-05    1.021    0.021
        51  -8.7553    184.8443     76.8881   5.5874190717e+01   2.8438325775e+01     0.222481      0.20318  25.23 0.0006287165    1.252    0.201
        52  -9.5384     61.1909     68.5493   8.7561795928e+01   5.6470356822e+01    0.2363642    0.2126078  81.37   0.00137216    1.499    0.333
        53 -10.2806    149.3766    188.1298   8.9876190985e+01   1.3511599517e+01    0.4991828    0.3220192 -83.71  0.001927113    3.075    0.675
        54 -15.1087     71.5170    150.8972   1.0319314417e+02   3.5501437110e+01     4.370994     2.549826  76.24  0.009991169    2.513    0.602
        55  -9.7711     89.8792    212.5435   1.0732573507e+02   1.8404130318e+01    0.2602167    0.1896203  73.64 0.0005509956    1.412    0.292
        56  -9.0694     81.1957    185.0073   1.0581920646e+02   2.5837873782e+01    0.3362773    0.1667748  65.83  0.001255054    2.983    0.665
        57  -9.6351     91.7217    183.1840   1.0295967237e+02   2.4652547434e+01     0.356699    0.2768503 -13.31  0.001584913    1.890    0.471
        58 -11.0553    192.9287    194.9457   8.1613356680e+01   4.2881657468e+00     1.083766    0.6094321 -65.96  0.003403151    5.490    0.818
        59  -9.8787    198.3305     23.4449   3.9900215271e+01   3.2843908399e+01    0.2511857    0.2185604  31.89 0.0007108338    1.482    0.325
        60  -8.9995    189.5101     14.9887   3.8760506437e+01   3.5914513047e+01    0.1829217    0.1264308 -35.01 0.0005278381    1.550    0.355
        61 -11.0865    157.1943    220.5467   9.3606624602e+01   5.8664975218e+00    0.2839054    0.2083276 -61.96  0.001550236    1.765    0.434
        62 -11.7622    162.7351    213.6136   9.1308476489e+01   6.1780876495e+00    0.6264595    0.2250101  37.26  0.002405475    2.508    0.601
        63 -10.7493    184.2262    212.3164   8.6556379871e+01   2.7523735411e+00    0.2904403    0.1908003 -33.24  0.001529718    1.632    0.387
        64 -11.8330    104.5677    211.4431   1.0388605349e+02   1.6367312278e+01     0.674387    0.3824743 -41.09  0.003100335    2.399    0.583
