#   1 NUMBER                 Running object number                                     
#   2 MAG_AUTO               Kron-like elliptical aperture magnitude                    [mag]
#   3 X_IMAGE                Object position along x                                    [pixel]
#   4 Y_IMAGE                Object position along y                                    [pixel]
#   5 X_WORLD                Barycenter position along world x axis                     [deg]
#   6 Y_WORLD                Barycenter position along world y axis                     [deg]
#   7 A_WORLD                Profile RMS along major axis (world units)                 [deg]
#   8 B_WORLD                Profile RMS along minor axis (world units)                 [deg]
#   9 THETA_WORLD            Position angle (CCW/world-x)                               [deg]
#  10 FWHM_WORLD             FWHM assuming a gaussian core                              [deg]
#  11 ELONGATION             A_IMAGE/B_IMAGE                                           
#  12 ELLIPTICITY            1 - B_IMAGE/A_IMAGE                                       
         1 -12.2063     43.3847     45.2661   5.9779579250e+01   6.4383357609e+01    0.7920187    0.6736396 -87.22  0.001061552    1.595    0.373
         2 -10.6452     63.2534     35.1483   4.5999936167e+01   6.3143435724e+01     1.025005    0.5380886  24.32  0.004065808    2.572    0.611
         3 -11.8553     57.4987     31.2536   4.6884708030e+01   6.4879311540e+01    0.7744539    0.4084844 -34.22 0.0009788715    1.975    0.494
         4 -12.3351    104.7997     13.3878   2.2048907057e+01   5.6820174656e+01    0.5338176    0.4830511 -58.47  0.001738308    1.242    0.195
         5 -13.0846    105.3954     20.4179   2.4875662089e+01   5.5874045213e+01    0.3313489    0.3208878  50.84 0.0004820834    1.067    0.063
         6 -11.3885      6.5001     10.5477   6.8987166490e+01   7.5255945012e+01    0.5759625    0.4146196  21.79  0.003320294    1.487    0.328
         7 -11.7047     26.3350     28.4883   6.2803874430e+01   6.9920618004e+01    0.5371484    0.3629532 -41.15  0.002811135    1.341    0.254
         8 -11.8704     20.3572     22.0307   6.3912629719e+01   7.1827996602e+01    0.7945855    0.3558513 -41.01  0.002106957    2.018    0.504
         9 -10.4720     12.8562      8.7808   6.2996116439e+01   7.5078603156e+01    0.3932536    0.2213517 -60.74  0.001471749    2.243    0.554
        10 -12.0415     15.9377     14.2994   6.3445178085e+01   7.3755405722e+01    0.7919124    0.3302108 -32.29  0.003449806    2.612    0.617
        11 -12.0280     22.5963     10.9602   5.6839198709e+01   7.3661190074e+01    0.4854598    0.3366762  -0.29  0.001864366    1.427    0.299
        12 -11.1157    136.3761     22.0984   1.8894591568e+01   4.7698104977e+01    0.7509972    0.5242091 -72.78  0.003646708    1.679    0.405
        13 -11.0094    127.4359     16.7070   1.8577477791e+01   5.0628029212e+01    0.4026082    0.3491773  -1.44 0.0009463347    1.316    0.240
        14 -11.3841    135.1171     14.7439   1.6492640254e+01   4.8823649373e+01    0.9805285    0.4385152  75.20  0.003827959    2.361    0.576
        15 -11.9970     47.9709     12.8300   4.2251614544e+01   6.9555700586e+01    0.9146133    0.3508613  46.74  0.003705133    2.672    0.626
        16 -11.7455     35.5289     18.2664   5.2263477770e+01   7.0691561133e+01    0.6911634    0.2457573 -37.95  0.002233757    2.874    0.652
        17 -11.1653     67.8593     19.0205   3.6377713754e+01   6.4797107944e+01    0.4301101    0.3469772 -50.06  0.001291333    1.540    0.350
        18 -12.0339    238.2997     17.2172   6.2172241811e+00   2.3886317960e+01    0.3771695    0.2923036  41.11   0.00245754    1.715    0.417
        19 -10.2951    147.6604     16.3526   1.5062205936e+01   4.5375013530e+01    0.5742894    0.2182419  42.10  0.001946595    3.490    0.714
        20 -11.7211    228.6887     15.9556   6.5937426018e+00   2.5991011835e+01    0.3129986    0.2446837  77.75 0.0003668506    1.325    0.245
        21 -11.1526    225.6987     13.6940   6.2835905215e+00   2.6851569998e+01    0.2813428    0.2147028 -37.11 0.0004488945    1.227    0.185
        22 -11.1609     85.9349     14.6681   2.7778884842e+01   6.1310624948e+01    0.4377165     0.387197   0.46  0.002077259    1.181    0.153
        23 -10.3029    218.8435     12.7131   6.5450015952e+00   2.8426013673e+01    0.2682784    0.2068272 -33.95  0.001703831    1.270    0.213
        24 -10.2208    190.6181     12.8216   8.9078653177e+00   3.4893415953e+01    0.3591793    0.1823646 -27.35   0.00160378    1.999    0.500
        25  -9.9878    192.5347      8.5217   7.5828127416e+00   3.4855992813e+01    0.2797921    0.1925306 -42.81  0.001350512    1.363    0.266
        26 -10.7979    193.6894      5.6536   6.7248920710e+00   3.4853043787e+01    0.2856502    0.1985607  79.54  0.001450018    1.346    0.257
        27 -11.1257    223.7741      2.5812   3.8441977629e+00   2.8340087369e+01    0.2642485    0.2011857 -82.30 0.0004934694    1.207    0.172
        28 -11.8832    212.0869      9.4462   6.2549848875e+00   3.0242436779e+01    0.5487657     0.380378   2.27  0.002560757    2.075    0.518
        29 -10.8786    218.5680      3.8359   4.4615314573e+00   2.9347356803e+01     0.306107    0.2320234  63.47 0.0008792882    1.450    0.310
        30  -9.9482    121.5136     11.6781   1.7781930078e+01   5.2693800394e+01    0.3345124    0.1696092  73.12  0.001411744    1.976    0.494
        31 -10.3849    168.8184      9.5633   1.0190617350e+01   4.0600050112e+01    0.5109778    0.1664422  59.63  0.001965035    2.672    0.626
        32  -9.6568    163.4951      9.5143   1.0776582468e+01   4.1959878325e+01    0.2644429     0.134189 -24.32 0.0009094194    2.129    0.530
        33 -10.1387    163.3245      6.3315   9.8172591849e+00   4.2301557081e+01    0.5112479    0.2401419  28.95  0.001824596    3.952    0.747
        34  -9.7490    145.2703      9.6660   1.3154914243e+01   4.6665966707e+01    0.2339379    0.1846421   9.14 0.0005695439    1.558    0.358
        35  -9.8753      1.1225      7.8402   7.2248071105e+01   7.6126228887e+01    0.3774258   0.07089566 -59.12  0.001359845    4.042    0.753
        36 -10.8497      2.1786      2.1216   6.8547928288e+01   7.7165836721e+01    0.3381112    0.2008292 -13.59   0.00198234    1.609    0.379
        37  -9.7180    245.7712      1.3790   2.3679832864e+00   2.3951973775e+01    0.1820579    0.1356825  65.57 0.0002578503    1.560    0.359
        38 -11.4079    247.1959      6.3966   3.3494108543e+00   2.3199893671e+01    0.2869546    0.2422334  13.86   0.00182037    1.670    0.401
        39 -11.7045    243.0203      4.0319   3.0718415083e+00   2.4243257397e+01    0.5090207    0.2039196 -46.88  0.002670185    1.959    0.489
        40 -10.9010    232.0696      7.0348   4.3514394983e+00   2.6171878326e+01    0.2678728    0.1571859 -58.66   0.00120354    1.497    0.332
        41 -11.7908    233.7467      2.9499   3.3451713643e+00   2.6214596325e+01    0.4835477     0.242025 -57.19  0.002670791    1.755    0.430
        42 -10.1048    187.1971      2.5216   6.4222102577e+00   3.6697753948e+01    0.3129129     0.172733 -76.10  0.001535902    1.854    0.460
        43 -10.9311    122.5029      5.3349   1.5140266071e+01   5.3035984110e+01    0.2977147    0.2432988 -32.51 -4.85426e-05    1.348    0.258
        44 -10.1491    153.5759      6.1964   1.0912049974e+01   4.4825059229e+01    0.2613394    0.1910655  34.19  0.001390092    1.608    0.378
        45  -9.7060     77.9207      7.3385   2.6723361533e+01   6.4015344026e+01    0.2633987    0.1931423  78.17 0.0007712817    1.695    0.410
        46 -10.8367     73.7415      3.1794   2.5928571355e+01   6.5413477155e+01     0.681188    0.2806436  48.04  0.002905546    2.049    0.512
        47 -10.1372    177.1371      5.9392   8.2738535311e+00   3.8853263229e+01    0.2560747    0.1712491 -89.84 0.0004990696    1.414    0.293
        48 -10.5837     41.3225      4.1637   4.0700334274e+01   7.1953293499e+01    0.3502887    0.2252064   9.28  0.001039687    1.769    0.435
        49 -10.9689    185.0243      6.4721   7.6900390030e+00   3.6862214455e+01    0.3935066    0.2288818 -55.51  0.001235574    1.659    0.397
        50 -10.4727    141.8163      3.5150   1.1524420145e+01   4.8129776906e+01     0.463228    0.2272729  76.00  0.002033181    1.901    0.474
        51 -11.5849    133.8876      2.7215   1.2352032751e+01   5.0277705324e+01    0.5153396    0.2986243  71.51  0.002487567    1.533    0.348
        52  -9.4727    128.9397      1.0000   1.2452010574e+01   5.1721239274e+01    0.2289499   0.07083748  70.61 0.0007888935    2.849    0.649
        53 -11.0462    206.1936      2.7417   5.0291377077e+00   3.2210895536e+01    0.4270041    0.2357204 -88.33  0.001971619    1.779    0.438
        54  -9.5658    157.0273      3.5140   9.6449247115e+00   4.4172207891e+01    0.2563198    0.1565301 -64.87  0.001252746    1.731    0.422
        55 -10.0612    152.7694      1.4199   9.4607183178e+00   4.5454205273e+01    0.3217408     0.145658  75.67 0.0008499479    2.016    0.504
        56 -10.7682    113.4207      2.7704   1.5755317336e+01   5.5628566415e+01    0.3145765    0.2677575  36.87   0.00182592    1.195    0.163
        57 -10.9833    105.8311      2.3082   1.7054815930e+01   5.7627221848e+01    0.4681248    0.2959362  89.85  0.002217654    1.876    0.467
        58  -9.7007     29.4835      2.0005   4.6588277603e+01   7.4185336675e+01    0.1970933    0.1452432 -32.86 0.0003432487    1.392    0.281
        59  -9.9012     25.8748      3.8165   5.0249296879e+01   7.4429989807e+01    0.1774374    0.1486529   1.25            0    1.030    0.029
        60 -10.4545     22.3595      3.0207   5.2283654988e+01   7.5023960610e+01    0.2253006    0.1888251 -10.87 0.0004780768    1.064    0.060
        61 -10.2301     12.8700      2.0962   5.9176602486e+01   7.6273060705e+01    0.2486748    0.1721374   4.14 0.0008242434    1.349    0.259
        62  -9.0127     33.5597      1.5279   4.3623894458e+01   7.3618862863e+01     0.127207    0.1065186   6.97 0.0001699894    1.010    0.010
        63 -10.2821     61.7793      6.9071   3.2436629120e+01   6.7644746853e+01    0.2951781    0.1807944  47.35 0.0009024261    1.469    0.319
        64 -10.2134     30.5814    151.8780   8.5511894888e+01   3.9960428031e+01    0.2700625    0.1946113 -26.30  0.001481354    1.840    0.456
        65  -8.7879     89.3368    250.3431   7.9820739781e+01   1.3454988233e+01    0.1091754    0.0811728   1.99 0.0007049813    1.767    0.434
        66 -11.0772     49.7446    247.6710   8.7650258363e+01   1.8447631415e+01    0.3812352    0.2015797  77.53  0.002292236    2.240    0.554
        67  -8.6629     93.3230    129.6708   6.3097295834e+01   3.7054361501e+01    0.1551631    0.1133702  68.53 0.0007049452    1.696    0.410
        68  -9.4605     12.9942    122.5275   8.8342415867e+01   4.8508561896e+01     0.228326    0.1660035 -77.46 0.0006685515    1.246    0.197
        69  -9.0760     26.5413    127.4867   8.4347456192e+01   4.6246342524e+01    0.1306954    0.1196377  86.49 4.584893e-05    1.010    0.010
        70  -9.8068     22.9047    127.0088   8.5493922624e+01   4.6667784690e+01    0.1910937    0.1706603  81.47 0.0003625405    1.024    0.023
        71  -9.8623     33.1266    125.9405   8.1984592032e+01   4.6036562179e+01    0.2393093    0.1339034  69.53  0.001081367    2.084    0.520
        72  -9.9970      2.1542    126.0013   9.2131535027e+01   4.8325248660e+01    0.2388774    0.1749079  68.38 0.0009357507    1.259    0.206
        73 -11.4551    104.3254    122.2963   5.8213363023e+01   3.6798448033e+01    0.3721058    0.3133015  41.99 0.0005890634    1.141    0.123
        74 -10.0318     49.6474    123.0806   7.6019614319e+01   4.5000881703e+01    0.2751485    0.1890163  -2.31  0.001317026    1.931    0.482
        75  -9.1286     19.1304    123.2015   8.6361004246e+01   4.7904124864e+01    0.1795829    0.1354778  65.93 0.0005431212    1.289    0.225
        76  -9.4457     56.2032    122.2189   7.3659908742e+01   4.4414614855e+01    0.2038505    0.1548502  57.54 0.0007205058    1.367    0.268
        77 -10.6023     44.1364    117.9798   7.7124472606e+01   4.6899606200e+01    0.5305279    0.2725988 -87.31  0.002136686    2.547    0.607
        78  -9.7275     37.2939    116.5750   7.9313456503e+01   4.7969767257e+01    0.2504558    0.1454016 -48.74  0.001189288    1.766    0.434
        79 -10.4877      7.7133    114.9767   8.9470631915e+01   5.0701598328e+01    0.3400405    0.2096591 -64.12  0.000812822    1.477    0.323
        80 -12.2465      2.5658    112.0951   9.1010394200e+01   5.1692661370e+01    0.4160173    0.2874081 -81.42 0.0006982983    1.274    0.215
        81 -11.3902      5.1812    105.2100   8.9510756641e+01   5.3253670010e+01    0.4642134    0.3685358  -0.34  0.002878782    1.471    0.320
        82  -9.6716     79.2468    114.5756   6.4425030194e+01   4.2968487373e+01    0.2854058    0.2051111 -54.98  0.001382052    1.409    0.290
        83  -9.1796     67.5049    114.9820   6.8480270077e+01   4.4666604991e+01     0.205493    0.1261698  85.84 0.0008095945    2.496    0.599
        84 -11.7603     42.3283     92.5586   7.3325072376e+01   5.3456686049e+01     1.170393    0.8177627 -41.63 0.0008255391    1.458    0.314
        85 -11.0677     16.3562    108.8640   8.5821231945e+01   5.1669295608e+01    0.5510654    0.2815101 -58.60  0.001897108    1.776    0.437
        86 -10.9360     26.9762     86.0415   7.8412755222e+01   5.6574953238e+01    0.8977738    0.5010303  19.18  0.004339205    1.936    0.484
        87 -10.2370     35.4271     92.8911   7.6166029835e+01   5.4095162597e+01    0.5574374    0.2701645 -78.02  0.001126782    2.408    0.585
        88 -11.9626     42.4000     85.1424   7.1735765791e+01   5.5281944713e+01     1.034142    0.4310766  15.44  0.003095227    3.274    0.695
        89 -12.3244     17.7798    100.6096   8.4314547470e+01   5.3634681484e+01    0.3672592    0.3249617  33.23 0.0005436692    1.214    0.176
        90 -12.2283      9.4080     97.0841   8.7116907544e+01   5.5040601083e+01    0.5154245    0.4330338 -13.49  0.003233937    1.350    0.259
        91 -11.6540      7.0570     88.8375   8.7115431980e+01   5.7214340891e+01    0.6249749    0.4331402   4.37  0.003427547    1.658    0.397
        92 -11.1870     22.6493     94.6874   8.1599380412e+01   5.4762605985e+01    0.3951428    0.2669338 -37.67  0.001477214    1.566    0.361
        93 -10.9282     18.0336     91.1149   8.2939190350e+01   5.5991853450e+01    0.4213662    0.3079904  74.18  0.001645486    1.468    0.319
        94 -11.9942     25.4128    107.3612   8.2321438667e+01   5.1363810781e+01     1.222763    0.6340913 -13.14  0.005056271    2.981    0.665
        95 -11.7157     21.3429    114.6341   8.4688583669e+01   4.9865434705e+01    0.6873344    0.2944933   9.44  0.002796633    3.055    0.673
        96 -11.3322     28.5032    112.6187   8.1893373163e+01   4.9783712728e+01    0.4251896    0.3136198 -42.82  0.002351082    1.437    0.304
        97  -8.9256     57.6413    114.3063   7.1772855048e+01   4.6191843528e+01    0.1534656    0.1031103  61.54 0.0007040387    1.728    0.421
        98  -9.6205    105.0601    112.7695   5.5779562887e+01   3.8817005194e+01    0.3609391    0.2107608  29.91 0.0009855482    1.862    0.463
        99  -8.8869     86.3283    113.6813   6.1893880915e+01   4.2007160660e+01    0.1557249    0.1153579  69.19 0.0007046934    1.683    0.406
       100 -10.0136     48.3810    112.0214   7.4650480784e+01   4.7908070502e+01    0.3061401    0.1999609  31.31  0.001302644    1.537    0.349
       101 -11.3079     79.9766    108.3070   6.2792516311e+01   4.4351962340e+01    0.5322282    0.3201544  30.58  0.001008809    1.698    0.411
       102  -9.1977    120.2796    109.3483   5.0473956980e+01   3.6536875910e+01    0.1557145    0.1207251  -6.58 0.0006683611    1.641    0.391
       103  -9.9287    102.1906    109.5697   5.5879836684e+01   4.0088985679e+01    0.2229772    0.1447436  26.94 0.0007548129    1.706    0.414
       104  -9.5437    181.5588    105.0575   3.4894024369e+01   2.4162441096e+01    0.3390435    0.2168588  17.50  0.001440646    2.271    0.560
       105  -8.9107    142.6796    105.3679   4.3507581866e+01   3.2578017689e+01    0.1567349    0.1228798 -84.60 0.0007037114    1.791    0.442
       106 -10.9040     87.7341    104.4154   5.9260149182e+01   4.3943250132e+01    0.5420368    0.2556877  48.90 0.0008690728    2.390    0.582
       107  -9.6198     45.8909    104.7401   7.4273708621e+01   5.0017207458e+01    0.3898956    0.1152012 -49.28  0.001282343    3.368    0.703
       108 -10.0422     64.6657     98.6969   6.6023432975e+01   4.9063241251e+01    0.4296197    0.1326503 -55.04  0.001424558    3.008    0.668
       109 -11.4464     68.7702     95.5807   6.3770298729e+01   4.9198527427e+01    0.5174594    0.4118403  13.35 0.0005812016    1.390    0.281
       110 -10.5444     52.0759     99.1280   7.0851195374e+01   5.0672994925e+01    0.6643341    0.2350544 -48.58  0.001577427    2.808    0.644
       111  -8.6208    120.2865    101.3570   4.8393688568e+01   3.8234801320e+01    0.1578729     0.121663  -4.30   0.00037094    1.676    0.403
       112  -9.8995     31.5402     96.5509   7.8360632703e+01   5.3548215915e+01    0.4503887    0.2653839  59.75   0.00209019    2.047    0.511
       113 -10.4211     79.8082     84.1012   5.6670339781e+01   5.0050968896e+01    0.5138087    0.3372096 -43.17  0.002186637    1.551    0.355
       114 -11.1474     74.7872     78.6034   5.6951128217e+01   5.2182218257e+01    0.7849503    0.5488364  54.12  0.003664674    1.652    0.395
       115 -10.7460     77.9683     96.7035   6.0710894159e+01   4.7445269721e+01    0.4515569    0.2733103  55.21  0.001567575    2.026    0.506
       116 -11.2027     80.5509     92.9878   5.8836104723e+01   4.7874341909e+01    0.8395638    0.6045563  52.73  0.003976609    1.520    0.342
       117 -12.1484    125.8193     94.8358   4.5071924814e+01   3.8391908531e+01    0.3039766    0.2887052 -23.93 0.0003069785    1.080    0.074
       118 -10.2387    121.7637     93.9494   4.5951868132e+01   3.9461641822e+01    0.7408202    0.2764526 -52.23  0.002243878    3.560    0.719
       119 -10.9323     98.6681     91.0952   5.2146845168e+01   4.4912209701e+01    0.3835865     0.226934  45.99  0.001619533    1.684    0.406
       120 -11.1414     89.1515     89.6028   5.4909443774e+01   4.7090502190e+01     0.692243    0.4343144 -27.97  0.002622387    2.086    0.521
       121  -9.5604     89.5203     84.5423   5.3340395075e+01   4.8151146494e+01    0.2417153    0.1901988  32.93  0.000780009    1.263    0.208
       122  -9.8105     66.5043     88.6051   6.2882977647e+01   5.1216901559e+01     0.354742     0.236534  -6.38  0.001235732    2.196    0.545
       123 -10.0075    104.0253     87.2191   4.9321402074e+01   4.4662300686e+01    0.2740409    0.1976779 -29.53  0.001246076    1.570    0.363
       124 -10.3604    143.3232     84.5545   3.7652376615e+01   3.6408518993e+01    0.2646177    0.2560325  24.51 0.0004414142    1.025    0.024
       125  -9.1471    133.4426     84.9147   4.0213847748e+01   3.8633515102e+01    0.2092255    0.1316366 -63.78  0.000732123    2.341    0.573
       126  -9.7154    119.9314     85.3093   4.3989147160e+01   4.1624124380e+01    0.3971479    0.1765505  40.39  0.001415563    2.310    0.567
       127 -10.5025    113.3099     83.3386   4.5327715850e+01   4.3488127021e+01    0.3378362    0.2795326  66.75   0.00123474    1.369    0.270
       128 -10.1670     67.1665     81.6250   6.0764086659e+01   5.2757528259e+01    0.3446677    0.2667627 -23.72  0.001719372    1.454    0.312
       129  -9.4665     46.8481     75.1218   6.7433382552e+01   5.7184701845e+01    0.2749326    0.2444558 -57.84  0.001140729    1.109    0.098
       130 -11.3137     53.4290     75.7005   6.4749726753e+01   5.6185862113e+01     0.676621    0.3679042 -59.36  0.002972299    1.860    0.462
       131 -10.9510     58.1214     77.6105   6.3301810429e+01   5.5073895943e+01    0.4964029    0.3109882 -72.67 0.0004911843    2.069    0.517
       132  -9.5735    103.2610     79.2603   4.7181654234e+01   4.6499066633e+01    0.2657376    0.1817187 -41.34 0.0004820125    1.508    0.337
       133  -9.3446      1.4284     79.9023   8.8439788014e+01   5.9673964300e+01    0.2368203    0.1117168 -81.32 0.0009742891    1.955    0.489
       134  -8.6422     88.7026     73.2942   5.0196110535e+01   5.0749113805e+01    0.2074011    0.1771309   2.28 0.0003427709    1.293    0.226
       135  -9.8188     92.7114     72.1865   4.8442341099e+01   5.0172003944e+01    0.3578473    0.2723006  66.16  0.001125076    1.635    0.389
       136 -10.5084     88.4450     77.3195   5.1550552978e+01   4.9939448691e+01    0.5416871    0.3406864  49.07  0.002379747    1.665    0.399
       137 -10.0515     94.1980     76.6106   4.9340298697e+01   4.8941692528e+01    0.5150669    0.2936074  41.01  0.002127405    1.712    0.416
       138 -11.6547     13.9455     74.6521   8.2168084654e+01   6.0338268037e+01    0.4706737    0.3412184  80.37  0.002218035    1.524    0.344
       139  -9.6904     14.9688     67.1847   8.0368565080e+01   6.2098676739e+01    0.4663557    0.2255681   0.28  0.002084134    2.560    0.609
       140  -9.1211    158.9079     76.4714   3.1846998555e+01   3.4152179411e+01    0.2111486    0.1443287  52.99 0.0003420436    1.442    0.307
       141  -9.1702    112.4819     75.4977   4.3167416748e+01   4.5245223956e+01    0.1530378    0.1482944  47.65 -8.271138e-07    1.038    0.037
       142  -9.8568    103.4732     74.9623   4.5770882543e+01   4.7335468941e+01    0.3133958    0.2129756  59.18   0.00137433    1.698    0.411
       143 -11.8463     40.8569     69.8827   6.8742279349e+01   5.9149580008e+01    0.5041599    0.3385477 -56.05  0.001437354    1.402    0.287
       144 -10.9674     36.2199     71.1942   7.1202176135e+01   5.9345811980e+01    0.3749305    0.3071934  -7.98  0.001210004    1.297    0.229
       145  -9.8000     24.6665     74.2945   7.7202399128e+01   5.9666364359e+01    0.2508078     0.226609 -73.44 0.0007236767    1.100    0.091
       146 -10.7548      2.0705     71.6289   8.7148791322e+01   6.1672265493e+01    0.3832817     0.185489 -67.43  0.001530956    1.715    0.417
       147  -9.6953     81.0257     73.7179   5.3113148012e+01   5.2139955324e+01    0.2606796    0.2053023 -27.83 0.0005293511    1.368    0.269
       148 -10.2750     78.5775     67.8622   5.2150692579e+01   5.3858207167e+01    0.5656497    0.3717714  65.06  0.002357534    2.290    0.563
       149  -9.7583     65.9937     74.5325   5.9198157044e+01   5.4580976290e+01    0.2200946    0.1411874  35.57 0.0003970398    1.555    0.357
       150  -9.9422    187.0082     72.2974   2.5504328365e+01   2.8226051546e+01    0.3412134    0.2055807 -33.43  0.001601206    1.612    0.380
       151  -9.9615    153.3086     72.8743   3.1986091382e+01   3.6099462562e+01    0.3681318    0.1804902  39.86  0.001374788    2.368    0.578
       152  -9.1134     19.1280     72.1585   7.9339687041e+01   6.0609209776e+01    0.2021842    0.1483366 -38.89 0.0004749423    1.316    0.240
       153 -11.1490    123.1240     68.8523   3.8024636347e+01   4.4055944632e+01    0.5595972    0.2776793  47.67  0.002185924    1.929    0.482
       154 -11.0971     32.8771     74.2071   7.3440158660e+01   5.8955646785e+01    0.4384128    0.2846105  64.43 0.0008545059    2.055    0.513
       155  -9.7643    217.9139     66.6082   1.9636519771e+01   2.2252379602e+01    0.2744734    0.1266991  61.62  0.001068142    2.361    0.576
       156 -10.5940     88.1992     56.3908   4.4597779704e+01   5.4263971334e+01    0.5693924    0.2938221 -42.27  0.002026281    2.003    0.501
       157  -9.3080     91.5085     57.4606   4.3822910757e+01   5.3358006092e+01     0.221904    0.1874976  87.15 0.0008013888    1.529    0.346
       158  -9.9114     96.4502     65.2934   4.4885568262e+01   5.0782283168e+01    0.2546657    0.2295203 -23.60   0.00117972    1.145    0.127
       159 -10.9625     92.4293     62.7810   4.5388254509e+01   5.2133175659e+01    0.4843654    0.3161542  57.91  0.001138653    1.788    0.441
       160 -12.5173      6.2943     62.0057   8.3695614740e+01   6.3824388774e+01    0.7565009     0.426082 -17.50  0.003096528    1.992    0.498
       161  -9.9313      7.8127     55.2706   8.1688311937e+01   6.5361487519e+01     0.261057    0.2012605  42.08 0.0009898673    1.504    0.335
       162 -11.0566    201.7178     64.8662   2.1345249111e+01   2.5982351759e+01    0.2679683    0.2116692  61.61 0.0002378693    1.326    0.246
       163  -9.2360     52.1642     65.6601   6.2416376809e+01   5.8692387791e+01    0.1953592    0.1310457  17.19 0.0005096337    1.645    0.392
       164 -10.6099    157.7021     63.5332   2.8315192071e+01   3.6554920859e+01    0.4611853    0.2202011  43.37 0.0009753247    2.300    0.565
       165  -9.6391    105.6143     63.4604   4.1307834263e+01   4.9114134255e+01    0.3012681    0.1468677  52.25  0.001141602    2.095    0.523
       166  -9.5499     58.1917     62.3146   5.8685210644e+01   5.8556120785e+01    0.3535948    0.2633219 -77.52  0.001714638    1.839    0.456
       167  -8.9931     65.3747     61.6970   5.5385055889e+01   5.7530474380e+01    0.2927298    0.2135744 -78.82 0.0009329122    2.049    0.512
       168 -10.0135     62.6631     61.6649   5.6527607828e+01   5.7987703777e+01    0.4014974    0.2460374 -23.93  0.001703984    2.162    0.537
       169  -7.9013     51.0185     56.6994   6.0077884707e+01   6.0860460315e+01    0.3585719    0.3182379  -2.73  0.001274429    1.105    0.095
       170  -9.5153    113.4903    249.0698   7.4798209010e+01   1.0623182930e+01    0.1375094    0.1179369 -54.10 0.0007184465    1.556    0.357
       171 -11.2646     43.0578     62.0551   6.5529642692e+01   6.0718061988e+01    0.3536637    0.2449183 -48.19 0.0008833652    1.353    0.261
       172 -10.1321     50.8012     61.5704   6.1766923757e+01   5.9809370448e+01    0.3021014    0.2381791  34.47  0.001435459    1.305    0.234
       173 -10.8791     46.2024     59.1974   6.3162611663e+01   6.0967697932e+01    0.3486675      0.30891  75.64  0.001180297    1.390    0.281
       174 -10.4192    234.3363     62.2214   1.6705467324e+01   1.9498511123e+01    0.1632302    0.1579968 -34.28 0.0007441217    1.116    0.104
       175  -9.1578    228.7419     62.2321   1.7321631901e+01   2.0608577001e+01    0.2046252    0.1045859 -18.20 0.0008970903    2.490    0.598
       176  -9.5943    113.8852     60.9521   3.7982384932e+01   4.7666668926e+01    0.2787088    0.2131798 -46.44  0.001346428    1.395    0.283
       177 -10.1793     81.7545     59.6576   4.8135766892e+01   5.4941907947e+01    0.5417403    0.3498783  70.87  0.002099857    2.778    0.640
       178 -10.1126    124.7949     56.4992   3.3500154103e+01   4.5817385188e+01    0.3148078    0.2547691 -22.42 0.0006634035    1.352    0.260
       179 -11.3940    118.1361     55.7613   3.5006568645e+01   4.7560430604e+01     1.396394    0.8114548 -77.03  0.003946519    5.143    0.806
       180 -10.1654    122.9408     44.4922   2.9783775312e+01   4.8189359939e+01    0.3074932    0.2631858  55.69 0.0008090019    1.104    0.094
       181 -10.9358    110.6888     40.2571   3.1406300717e+01   5.1867296550e+01    0.6533674    0.4936136 -44.03  0.001428212    1.435    0.303
       182 -12.1478    119.7581     38.3050   2.8317939846e+01   4.9900519595e+01    0.7360839    0.4523535 -44.62  0.002625961    1.782    0.439
       183 -10.5722    116.1458     48.8757   3.3113011859e+01   4.9184511912e+01    0.3846196    0.2842642  34.59 0.0006767319    1.418    0.295
       184 -11.3689    117.6684     44.4652   3.1110945540e+01   4.9505722630e+01    0.5514963    0.3963637 -64.97  0.002540215    1.803    0.445
       185  -9.6733     25.3782     59.9407   7.3629489468e+01   6.3063422243e+01    0.6980184    0.3423194  25.23  0.002628363    2.105    0.525
       186 -11.0972     25.1892     56.0657   7.2726363278e+01   6.3989414507e+01    0.5807226    0.3129534  21.35   0.00210871    1.944    0.486
       187 -10.1487     30.5479     53.5291   6.9222927674e+01   6.4073575554e+01    0.2932497    0.2462653  29.97 0.0005699162    1.282    0.220
       188 -10.3114     33.6844     51.6669   6.7018295330e+01   6.4168541946e+01    0.2612951     0.199091 -32.27 0.0007808405    1.246    0.197
       189 -10.4386    106.1096     58.1442   3.9311052721e+01   4.9982151461e+01    0.3684605    0.2347505  68.13  0.001360502    2.118    0.528
       190 -11.1021     75.4947     54.5292   4.8690967913e+01   5.7185802204e+01    0.3353394    0.2842601  23.89 0.0009134825    1.160    0.138
       191 -12.1288     73.1135     48.4495   4.7333635567e+01   5.8826353184e+01    0.9908494    0.5135165 -56.55   0.00211101    2.805    0.643
       192 -10.7043    157.3942     54.4918   2.5648638995e+01   3.8016209519e+01    0.4648811    0.3781472 -70.71  0.001854781    1.360    0.265
       193  -9.0541    135.4259     59.5366   3.1891087774e+01   4.2698473094e+01    0.1512062    0.1422404  32.31  8.79034e-05    1.076    0.071
       194  -9.8770    246.8275     54.3888   1.3713377345e+01   1.8065883538e+01    0.1518261    0.1093538  53.04  0.000534593    1.633    0.388
       195  -9.6059    201.1098     53.3799   1.8480026516e+01   2.7681284000e+01    0.2172989    0.1780624 -19.02 0.0004071512    1.314    0.239
       196  -9.7176     55.6908     50.4656   5.5695296067e+01   6.1488833084e+01    0.1979897    0.1361483  31.28 0.0003246039    1.446    0.308
       197 -10.2448     60.5112     51.9949   5.4064831563e+01   6.0390061187e+01    0.3816924    0.2406048 -49.09  0.001721313    1.625    0.385
       198 -10.9120     61.1978     46.6800   5.1732538638e+01   6.1347993475e+01     0.640524    0.4207776  -6.07  0.002835159    2.159    0.537
       199  -9.0738     97.3825     53.1884   4.0282282457e+01   5.2860138919e+01    0.2190441    0.1383145 -49.63 0.0009531978    1.806    0.446
       200 -10.1253    145.9404     48.7010   2.6071387500e+01   4.1752394989e+01    0.5527059    0.2408833 -17.47  0.001658719    4.280    0.766
       201  -8.9607     93.5203     52.5358   4.1325321704e+01   5.3836448539e+01    0.1499873    0.1406196  25.51  0.000291308    1.015    0.015
       202  -9.8903    239.9150     50.8015   1.3566954603e+01   1.9817354223e+01    0.1735847    0.1613613  -5.46 0.0006092258    1.243    0.196
       203 -10.2295    133.4824     49.8446   2.9135163167e+01   4.4727241479e+01    0.3337919    0.2338384 -85.49  0.001461567    1.961    0.490
       204 -11.0682     83.1344     47.1808   4.2949866928e+01   5.7041902397e+01    0.3784539    0.2937073  -7.22  0.001888071    1.499    0.333
       205  -9.9590     25.9548     49.5622   7.0493778108e+01   6.5419092353e+01    0.2603543    0.1792059 -54.71 0.0005143259    1.334    0.250
       206  -9.5858      1.8947     49.1335   8.3712654317e+01   6.7067752777e+01    0.1774181    0.1613616  82.95  0.000611359    1.233    0.189
       207 -10.8141     20.4738     46.2282   7.2552462766e+01   6.6648947887e+01    0.4132599    0.2505878 -39.83  0.001688228    1.504    0.335
       208  -9.5109    161.7484     44.7420   2.1890324683e+01   3.8314346112e+01    0.3185865    0.2829644 -29.89  0.001775574    1.182    0.154
       209 -10.3137    138.7187     44.5809   2.6207983817e+01   4.4186487232e+01    0.5373741    0.2441765  39.95   0.00191353    2.736    0.634
       210 -10.4770     26.0636     43.0062   6.8382033049e+01   6.6877129053e+01     0.279692    0.2674054  22.23  0.001082691    1.187    0.157
       211 -10.0996    200.6117     45.1337   1.6406205910e+01   2.8861522146e+01    0.3528893    0.1982678  79.85   0.00163682    2.086    0.521
       212 -10.2994     23.0843     37.3703   6.8209308762e+01   6.8387857111e+01    0.4886145    0.2057403  37.13   0.00211525    2.691    0.628
       213 -10.4136    155.9041     42.4752   2.2201025804e+01   4.0101323548e+01     0.326236    0.2724056   6.15  0.001150271    1.437    0.304
       214  -9.1742      5.1549     42.4703   8.0453276489e+01   6.8477965134e+01    0.3974393    0.1755851 -60.55  0.001937838    1.840    0.456
       215 -11.1098      4.6703     35.8580   7.9132828619e+01   7.0002935368e+01    0.4448046    0.3279231 -23.94  0.002733822    1.280    0.219
       216 -10.0113     11.7715     30.3767   7.2924458940e+01   7.0806466948e+01    0.4557463    0.1855102 -36.19  0.002018687    2.378    0.580
       217  -9.6904      7.1842     30.6755   7.6051850515e+01   7.1024637223e+01    0.4930332    0.2009792 -16.73  0.001838953    3.170    0.685
       218  -9.4335     91.2247     41.6315   3.7875736214e+01   5.6242078995e+01    0.2739866    0.1836682  66.16  0.001188649    1.871    0.465
       219  -9.6423     57.0867     41.9739   5.1734997287e+01   6.2969602246e+01    0.2547317    0.1890755  34.57   0.00134395    1.325    0.245
       220 -10.5040    231.5215     38.5065   1.1550857860e+01   2.2944410399e+01    0.3579061     0.107659 -36.32  0.001493116    2.583    0.613
       221 -10.4661     80.3297     39.3253   4.0808711089e+01   5.9011321624e+01    0.4260717    0.2912065  68.73   0.00189252    2.097    0.523
       222 -11.3564     78.9208     34.1608   3.9131457386e+01   6.0166894623e+01    0.6585784    0.3971849  32.74  0.002986264    1.748    0.428
       223 -10.4495     51.7321     48.1872   5.6718329032e+01   6.2574886470e+01    0.2816299    0.2410623  29.54 0.0005873798    1.182    0.154
       224  -9.4606    213.5872    248.2108   5.5640042467e+01  -1.9682244722e+00    0.1412962   0.08436527 -13.42 0.0009431283    1.643    0.391
       225 -10.0818     42.8858     28.1431   5.2895408089e+01   6.7844959476e+01    0.2019199     0.174021  -1.50            0    1.050    0.047
       226  -9.8937    174.6505    246.5552   6.2452865565e+01   3.0167576711e+00    0.2269327    0.1336163  17.34  0.001403017    1.465    0.317
       227 -11.4671     48.7162     30.7150   5.0979875298e+01   6.6467357884e+01    0.8123572    0.3126383  32.52  0.003126425    2.749    0.636
       228 -11.6296     40.2684     56.9783   6.5337444600e+01   6.2216262212e+01    0.3277785    0.2477414  20.41 0.0005001099    1.357    0.263
       229  -9.3970    206.1768     37.4871   1.3800128816e+01   2.8532813896e+01    0.1789163     0.125659  72.94  0.000469075    1.454    0.312
       230 -11.0933    175.9331     34.2016   1.6582972612e+01   3.6123660073e+01    0.6443378    0.3185543 -42.74  0.002086815    1.965    0.491
       231 -10.0503    170.2813     30.3829   1.6237673765e+01   3.7995089905e+01    0.3463294    0.2138437 -45.13 0.0005167091    1.607    0.378
       232 -11.5658    152.9846     35.9720   2.0645526967e+01   4.1707001335e+01    0.2590127    0.2461043 -85.20            0    1.033    0.032
       233  -9.3173    132.6796     37.0125   2.4890452221e+01   4.6793366974e+01     0.310457     0.183696 -85.57  0.001163583    2.760    0.638
       234  -8.8192     94.5770     36.2795   3.4596415670e+01   5.6330244564e+01     0.149604    0.1150401 -89.32 0.0005365573    1.828    0.453
       235  -8.6635    214.2926     34.7283   1.2270847926e+01   2.7044666842e+01    0.1303072   0.08548769 -61.12 0.0002196984    1.516    0.340
       236 -11.9699    126.1526    242.2104   7.1510787541e+01   9.9954954661e+00     0.356028    0.2878465 -66.69  0.002502147    1.749    0.428
       237 -10.5539    167.1031    237.8865   6.2778305683e+01   5.1255098914e+00    0.1833356    0.1557484   0.85 0.0008439262    1.222    0.182
       238 -11.4650    106.4226     32.4384   2.9525356186e+01   5.4055440991e+01    0.6397743    0.3798304  17.02   0.00248505    2.700    0.630
       239 -12.3862    113.5130     25.1507   2.4799662168e+01   5.3246454524e+01    0.7480132    0.3694907  55.57  0.002019412    1.795    0.443
       240 -10.0038    168.4181     23.7736   1.4509432179e+01   3.9227235777e+01     0.329794    0.1928684  56.69  0.001269375    1.649    0.393
       241 -11.7441    160.0128     29.7621   1.7538189476e+01   4.0675857090e+01    0.4006157    0.3780858  45.25  0.000486523    1.135    0.119
       242 -11.8763    164.2925     27.6392   1.6250194904e+01   3.9833929361e+01    0.3598446    0.2980674 -64.38 0.0004571974    1.205    0.170
       243 -10.1884    240.8700     32.1022   9.3226922717e+00   2.1787407322e+01    0.2006229    0.1778018  56.86  0.001306551    1.349    0.259
       244 -10.7540    189.0762     28.2602   1.3266645916e+01   3.3610878295e+01    0.4943691    0.3061978   0.98  0.002238363    2.524    0.604
       245 -10.8708     32.4432     30.6815   6.0009895294e+01   6.8778637749e+01    0.3648267     0.230505 -60.01 0.0005299207    1.902    0.474
       246  -9.3611     50.9279    129.7198   7.6598329353e+01   4.3204463059e+01    0.1853856    0.1720907  67.54 0.0003842576    1.031    0.030
       247 -11.3633     67.7037    240.9240   8.3553150754e+01   1.7570441946e+01    0.2739693    0.1967185  18.12 0.0009406056    1.531    0.347
       248  -9.0959     15.4191    233.7877   9.3910116481e+01   2.4248762314e+01    0.1303259   0.09270684 -72.38  0.000940981    1.678    0.404
       249 -10.1716    197.4702    232.4788   5.6288976353e+01   1.8224109978e+00    0.1173401   0.08669513  14.15 0.0002653552    1.006    0.006
       250  -9.4189    246.6973    231.3145   4.7728697124e+01  -3.9640062583e+00   0.08854739   0.07659238   8.86 0.0003144299    1.616    0.381
       251 -11.2190    147.1912    237.9147   6.6731968390e+01   7.8014459201e+00    0.4409117    0.2703088  37.34  0.002686284    1.357    0.263
       252 -11.8272    126.1079     28.3366   2.3168540895e+01   4.9621164456e+01    0.5546777    0.4199314  75.48  0.002820599    1.346    0.257
       253  -8.7320    171.3038     39.6947   1.8850693234e+01   3.6587464213e+01    0.1467548    0.1017579 -65.57 0.0004585201    1.600    0.375
       254  -9.6149    198.4269     28.8484   1.2396924996e+01   3.1325204134e+01    0.3846179    0.1867678  56.42  0.001780671    2.102    0.524
       255 -10.1261    148.2073     28.3323   1.8968482418e+01   4.3889837296e+01     0.334621    0.2145153  60.57 0.0009504092    1.439    0.305
       256  -8.9135    189.7159    229.6982   5.7324908423e+01   3.1840486555e+00    0.1174123   0.07396046   5.29 0.0003277202    1.554    0.357
       257 -10.6269    143.4056     24.8408   1.8612409320e+01   4.5549787795e+01    0.3905855    0.2834306  67.80  0.001698968    1.279    0.218
       258 -10.2543    148.7042     22.5868   1.6980853145e+01   4.4428322064e+01    0.3614122    0.1827767  59.67 0.0009405566    1.778    0.438
       259  -9.1173    197.3105    227.6945   5.5622948000e+01   2.4362849515e+00    0.1026666   0.08498584  39.13  0.000429547    1.614    0.380
       260  -9.5588     69.3377    225.3145   8.2022609806e+01   2.0105146525e+01    0.1116059   0.08908105  -4.51 0.0007047221    1.696    0.410
       261  -9.6026    230.9679     26.9979   8.9539340279e+00   2.4350398219e+01    0.2074767    0.1189924 -60.08 0.0008643584    1.702    0.413
       262  -8.7323    206.3040     25.6821   1.0787302221e+01   2.9861197791e+01    0.1383583   0.08418141 -59.58 0.0005843143    1.626    0.385
       263 -10.3494    155.0291     23.5861   1.6332471692e+01   4.2676083905e+01    0.4613621    0.2967658 -44.35  0.001531819    1.587    0.370
       264  -9.7942    212.6502     23.9614   9.7720888927e+00   2.8618939657e+01    0.1837475    0.1534942 -46.94  0.001160563    1.096    0.088
       265  -9.8106     90.6073     23.0002   3.0157507255e+01   5.9163248848e+01    0.2984403    0.1892691  45.41  0.001349922    1.438    0.304
       266  -9.1986     75.5047    224.4741   8.0592369798e+01   1.9504924020e+01    0.1227229   0.09649585  42.22 0.0001176796    1.004    0.003
       267 -10.7948     38.7278     22.1012   5.2325526619e+01   6.9554262608e+01    0.2458951    0.2059694 -16.72 0.0004791716    1.089    0.082
       268  -9.2288    233.5810    223.4994   4.8652760215e+01  -1.6221581434e+00    0.1123135   0.08035117   4.65 0.0001173246    1.016    0.016
       269  -9.4392    223.6768     22.3943   8.4658916423e+00   2.6380214703e+01    0.2107279    0.1141745  81.82  0.000566454    1.959    0.489
       270 -10.8932    178.9576     20.6397   1.2292555522e+01   3.6929462454e+01    0.5000066    0.2553133  43.48  0.002168188    2.419    0.587
       271  -9.1679      5.0662     22.0506   7.4717878934e+01   7.2998953711e+01    0.1727055    0.1382622  49.49 0.0006635631    1.641    0.391
       272 -11.0906    183.4659     25.9684   1.3279949446e+01   3.5232252019e+01    0.3624571    0.2799793 -56.17  0.001698352    1.243    0.196
       273  -9.6686     49.6604    222.6768   8.6155503671e+01   2.2858156408e+01    0.1073158   0.08839504 -13.62 0.0007050895    1.722    0.419
       274 -11.1251    246.7691     19.6856   6.1974246222e+00   2.1959010010e+01    0.2501779     0.124392 -39.63  0.001149664    1.608    0.378
       275  -8.9899    153.3061    219.3354   6.3054478837e+01   9.6916240718e+00    0.1263091   0.08535923   3.07 0.0007040356    1.670    0.401
       276 -11.4418    163.4504     19.4619   1.3848802721e+01   4.0963576046e+01    0.2938203    0.2362258  70.94 8.587504e-05    1.158    0.137
       277 -11.6379    165.6850     16.6842   1.2710346634e+01   4.0685924100e+01    0.4075756    0.2257901  64.34  0.001129989    1.653    0.395
       278  -9.8831     75.3167     19.1846   3.3563119715e+01   6.3171639044e+01     0.475705    0.2445782  28.00  0.001884923    2.585    0.613
       279  -9.6485     46.5038     20.0104   4.6915896541e+01   6.8690285578e+01    0.2406479    0.1849765  49.08   0.00120091    1.543    0.352
       280  -9.0501      1.4776     20.5507   7.6839929643e+01   7.3498766975e+01    0.1233021   0.09891958 -36.69 0.0002042184    1.021    0.020
       281  -9.0287     45.2781    215.3510   8.6645267843e+01   2.4721669491e+01    0.1054542   0.08911537 -29.51 0.0007009255    1.644    0.392
       282  -9.3604    164.5225    211.9043   5.9662867983e+01   9.1868818428e+00    0.1940451    0.1381361  28.29 0.0004723332    1.150    0.130
       283  -9.1826    152.5273    207.4920   6.1520523355e+01   1.1659387591e+01    0.1981696    0.1287737 -60.76  0.001039183    2.378    0.579
       284  -9.9591     17.4245    206.2377   9.2391055671e+01   2.9257692569e+01    0.3067522    0.1245838  62.77   0.00154749    2.274    0.560
       285  -9.2534    187.4675     22.9986   1.2001927723e+01   3.4588097490e+01    0.2106564    0.1782453  48.25 0.0005715622    1.317    0.241
       286  -9.6566    187.0056     15.0768   9.8704158447e+00   3.5538039395e+01    0.2020765    0.1830176 -82.47 0.0006694046    1.034    0.033
       287  -9.3151     61.2792    206.5805   8.2307214999e+01   2.4617804169e+01    0.1644613    0.1085365  23.51 0.0009365684    1.535    0.348
       288  -9.4168    216.4252     20.2894   8.5517085583e+00   2.8176245122e+01    0.1816278   0.09876143 -41.13 0.0009503371    1.601    0.375
       289 -11.0549      4.4592    204.2438   9.5186774211e+01   3.0748430755e+01    0.3435804    0.1254974 -69.61  0.001738053    2.833    0.647
       290  -9.7184     78.4697    203.9273   7.7989722716e+01   2.2995436537e+01      0.24543    0.1402816  44.84 0.0005594395    1.482    0.325
       291  -9.3805    233.6409    196.7913   4.4315500607e+01   1.4943534207e+00    0.1509494   0.09645151 -33.87 0.0006373081    1.681    0.405
       292  -9.2107    171.7015    190.6232   5.4789685668e+01   1.1401658119e+01     0.137435   0.09135666  -0.86 0.0007025628    1.755    0.430
       293 -12.4601      4.5847    184.0769   9.4417027276e+01   3.4879651029e+01     0.581386     0.388922  75.91  0.003137711    1.300    0.231
       294  -8.7308     85.6776    185.6684   7.4164334755e+01   2.5714905961e+01    0.1310602    0.1020555 -13.20  0.000704984    1.700    0.412
       295  -9.7940     27.9541    176.2506   8.8169439641e+01   3.4605060400e+01    0.2317795    0.1707552 -73.94 0.0009719764    1.389    0.280
       296 -10.1185     16.0017    174.2644   9.1120852985e+01   3.6102635895e+01     0.278654    0.1489488  83.99  0.001493153    1.810    0.448
       297  -9.8603     51.6352    173.0004   8.1641571393e+01   3.2854241409e+01    0.3931751    0.1751702 -89.61  0.001549859    3.188    0.686
       298  -9.8088     39.2073    173.4313   8.5001047567e+01   3.4121368663e+01    0.1884485   0.09787194  40.75 0.0009487816    1.655    0.396
       299  -8.7971    170.6440    171.6823   5.1649988524e+01   1.4693987968e+01    0.1446484   0.09755788   4.80 0.0007045472    1.751    0.429
       300  -9.2715     65.9515     10.4875   3.2707699368e+01   6.6326720530e+01    0.2075546    0.1229113  49.74 0.0006381921    1.549    0.354
       301 -12.7403     22.6434    149.4518   8.7618277683e+01   4.1244987487e+01    0.6705012    0.3862066 -44.91  0.003401756    2.095    0.523
       302 -11.3138     15.9877    147.8684   8.9435946803e+01   4.2159597412e+01    0.3750259     0.242488  29.12  0.001838187    1.549    0.355
       303 -12.5893      9.8757    165.3876   9.2222039456e+01   3.8572559659e+01    0.6259103     0.498041 -65.35  0.002677903    1.359    0.264
       304 -10.6001     14.0910    159.0119   9.0720202777e+01   3.9702688395e+01    0.2717771    0.2599034 -37.52  0.001205477    1.274    0.215
       305 -10.5860     18.9728    165.2191   8.9792349329e+01   3.7885419439e+01    0.3471899    0.2910905 -41.64  0.002259366    1.468    0.319
       306  -9.8985    204.9464    163.2904   4.3230262975e+01   1.0280387008e+01    0.2355517    0.1700858 -18.72 0.0005930726    1.309    0.236
       307 -10.8256     27.9620    161.6500   8.7083817859e+01   3.7913462423e+01    0.3553503    0.2744219 -61.64  0.001995868    1.385    0.278
       308 -10.9954      9.2983    155.2234   9.1811147170e+01   4.0937386288e+01    0.2900853    0.2124203  84.53  0.001308901    1.220    0.180
       309  -9.6578    104.1799    155.1196   6.4750769828e+01   2.9452312538e+01    0.2178884    0.1974877  -0.12  0.001124253    1.199    0.166
       310 -10.5135      3.9944    153.5277   9.3181827536e+01   4.1697621865e+01    0.3078056    0.1089356  40.07  0.001294947    2.363    0.577
       311  -9.9273     61.8726    151.8065   7.6302124975e+01   3.6501836398e+01    0.2703402    0.1927398  13.10  0.000869324    1.654    0.395
       312 -11.0495     47.1872    147.0146   8.0072858602e+01   3.9414808355e+01      0.61176    0.3865919 -40.46  0.003015937    1.941    0.485
       313 -10.4993      3.0466    147.6814   9.3139872531e+01   4.3115671234e+01    0.2505187    0.1874699 -77.05 0.0009638902    1.259    0.206
       314 -10.8631      8.4740    148.0401   9.1615478506e+01   4.2669991312e+01    0.3560784    0.1573955 -66.78  0.001732988    2.105    0.525
       315 -11.0877      5.9279    142.6622   9.2025629393e+01   4.4109045452e+01    0.3702951    0.2301448  60.63  0.001077056    1.479    0.324
       316 -11.0529      2.2358    141.7771   9.3052432673e+01   4.4551156431e+01    0.4727703    0.1715163 -84.31  0.002064674    2.530    0.605
       317  -9.9338    104.0789    147.0409   6.3327299142e+01   3.1255881276e+01    0.2126038    0.1976739  36.26  0.001192779    1.006    0.006
       318 -10.9498     33.2495    144.3735   8.3999098019e+01   4.1504117633e+01    0.3725188     0.251329  42.16   0.00120122    1.394    0.283
       319 -10.5945     40.3690    138.1666   8.1115592386e+01   4.2300452918e+01    0.3458714     0.215728 -70.95  0.001534495    1.555    0.357
       320 -11.9228     12.9160    136.7114   8.9527710601e+01   4.5055519360e+01    0.6550737    0.4560785  89.24  0.003835801    1.313    0.238
       321 -11.0026     10.3142    127.5444   8.9636019802e+01   4.7457245507e+01    0.5143622    0.2993679 -66.92  0.001932367    1.575    0.365
       322 -10.3693     80.2150    138.3001   6.8714896327e+01   3.7136882365e+01    0.3390571    0.2321746  38.52  0.000952044    1.375    0.273
       323  -9.8342     32.4117    137.7422   8.3566301714e+01   4.3194679505e+01    0.2755732    0.2203178  43.70 0.0006236312    1.208    0.172
       324 -11.5688     24.1505    136.5315   8.6031482297e+01   4.4227823933e+01     0.686392    0.3550207  32.92  0.002217507    1.845    0.458
       325 -10.6474     30.2852    132.8950   8.3717729355e+01   4.4580511828e+01    0.3831034    0.2750579  25.52  0.001433285    1.453    0.312
       326  -9.3532     47.3173    134.5537   7.8450562878e+01   4.2431273887e+01    0.2392374    0.1217274 -69.26  0.001052264    1.939    0.484
       327  -9.8726     73.6332    132.6247   6.9757947262e+01   3.9478094523e+01    0.3322932    0.1957545 -24.43  0.001275958    2.859    0.650
       328  -9.5680     39.3450    133.4509   8.0868919394e+01   4.3564083709e+01    0.2247641    0.1344363  19.02  0.000538882    1.852    0.460
