#   1 NUMBER                 Running object number                                     
#   2 MAG_AUTO               Kron-like elliptical aperture magnitude                    [mag]
#   3 X_IMAGE                Object position along x                                    [pixel]
#   4 Y_IMAGE                Object position along y                                    [pixel]
#   5 X_WORLD                Barycenter position along world x axis                     [deg]
#   6 Y_WORLD                Barycenter position along world y axis                     [deg]
#   7 A_WORLD                Profile RMS along major axis (world units)                 [deg]
#   8 B_WORLD                Profile RMS along minor axis (world units)                 [deg]
#   9 THETA_WORLD            Position angle (CCW/world-x)                               [deg]
#  10 FWHM_WORLD             FWHM assuming a gaussian core                              [deg]
#  11 ELONGATION             A_IMAGE/B_IMAGE                                           
#  12 ELLIPTICITY            1 - B_IMAGE/A_IMAGE                                       
         1 -12.8379    205.1469     73.9307   6.9105331926e+01   2.3742903774e+01     3.792989     1.459282 -42.03   0.01315089    2.637    0.621
         2 -13.3026    208.5949     53.4166   6.2627528108e+01   2.5867908647e+01     1.500794    0.9569464 -31.08  0.004438612    1.474    0.322
         3 -14.4805    218.7263     71.0809   6.6152142573e+01   2.0867462638e+01     3.484444    0.7266842 -38.82  0.009610021    4.209    0.762
         4 -15.4171    221.5554     11.9415   4.8899486344e+01   2.7577175779e+01     3.521415     2.044189  38.96   0.01584682    2.096    0.523
         5 -15.8626    244.7455     73.5152   6.3125944882e+01   1.4493879505e+01     7.251996     2.441462 -21.10  0.008034074    3.646    0.726
         6 -15.4369    227.2279     35.4249   5.4980616523e+01   2.3525398985e+01     1.883197    0.9399247  48.18  0.006846636    2.191    0.544
         7 -14.3350    225.4868     26.7735   5.2726596743e+01   2.4975743881e+01    0.9344689    0.5965005  28.64  0.004265046    2.018    0.504
         8 -15.1078    247.9935     10.3719   4.6181936276e+01   2.1284414758e+01     1.066735    0.6294154 -29.18  0.005432656    1.520    0.342
         9 -16.6203    245.4676     34.4331   5.2735276392e+01   1.9248536847e+01     3.405542     2.158711  20.20   0.01566902    2.188    0.543
        10 -14.7204    247.8297     19.9751   4.8697380793e+01   2.0317765885e+01    0.8971511    0.5709915 -88.81  0.003322665    1.795    0.443
        11 -14.5853    237.7589      9.4090   4.6752181281e+01   2.3819939582e+01     1.111941    0.6028504 -23.16  0.003729796    1.773    0.436
        12  -7.8018    165.6712     18.4895   5.7921979994e+01   4.1599625495e+01     1.132138    0.4588052 -21.92  0.004112619    2.530    0.605
        13 -10.1113    165.7788      5.4953   5.3267539429e+01   4.2917206936e+01    0.5352178    0.2694113 -15.23  0.001606355    2.140    0.533
        14 -10.9215    159.8810      3.5244   5.3384608521e+01   4.4672380446e+01    0.3972469    0.3017125 -22.23 0.0005736869    1.341    0.254
        15 -12.6283    145.3089     52.8997   7.4065595715e+01   4.2058729757e+01     3.311907     1.036005 -44.44  0.009680937    3.650    0.726
        16 -13.0177    118.7274     32.6677   7.2912322350e+01   5.1593933074e+01     2.445055     1.757277 -67.48  0.009620073    1.976    0.494
        17 -14.4175    136.2684     14.2372   6.1499177637e+01   4.9743881802e+01     8.131578     3.975975 -18.47   0.02023138    2.148    0.534
        18  -9.3181    176.0041     12.6971   5.4373725863e+01   3.9467172976e+01    0.2150366    0.1962446 -53.51 0.0004549563    1.116    0.104
        19  -7.4846    171.0003     10.0132   5.4138185443e+01   4.1080708818e+01    0.2153824    0.1597583  23.60  0.000511335    1.499    0.333
        20  -8.6593    179.1006      8.2214   5.2440818878e+01   3.9089880100e+01    0.1903749    0.1420806 -36.66 0.0006772098    1.335    0.251
        21  -8.7594    198.3428      7.2511   4.9861971796e+01   3.4060293933e+01     0.189286    0.1162282 -38.40 0.0002021633    1.566    0.361
        22  -8.8548    175.2302      4.7308   5.1745289989e+01   4.0460603887e+01    0.3889537    0.1827046 -11.68  0.001505775    2.463    0.594
        23  -8.2428    184.5872      5.3983   5.0823649297e+01   3.7894175985e+01    0.1432331    0.1315607 -66.18 0.0007935913    1.090    0.083
        24  -7.4548    202.7683      4.8387   4.8652789088e+01   3.3127983817e+01    0.1212231   0.09378768  52.64 0.0003176746    1.326    0.246
        25  -9.5503    194.8607      3.9596   4.9203811847e+01   3.5295389450e+01    0.1910558    0.1857726 -43.92 0.0003121342    1.040    0.039
        26  -7.8954     14.4350      2.7745   9.8953536965e+01   7.3414602057e+01    0.1681849   0.07936525 -39.32 0.0005009872    1.628    0.386
        27  -8.6232    180.6954      1.6551   5.0037748611e+01   3.9279729117e+01    0.1603098    0.1298019 -20.45 0.0003581648    1.269    0.212
        28  -8.1364    187.9775      1.1490   4.9048807490e+01   3.7381516963e+01     0.177499   0.09746737  73.14 0.0005657811    1.782    0.439
        29  -9.9362    206.5439    132.6755   8.3903881579e+01   1.4222720855e+01    0.3770436    0.2827538 -47.72  0.001886091    1.548    0.354
        30 -10.8817    233.5037    249.4975   9.9823766044e+01  -4.3519405036e+00     0.323274    0.1899321  37.70 0.0007281934    1.285    0.222
        31  -9.8321    196.3237    140.7673   8.7578429866e+01   1.5072579511e+01    0.3108622    0.2392139  26.79  0.001415735    1.297    0.229
        32  -9.6663    198.4700    136.6857   8.6283179353e+01   1.5275717194e+01    0.2964861    0.2608186  33.43 0.0007556552    1.075    0.070
        33  -7.2014     56.3112    142.3117   1.1838405488e+02   3.9400436722e+01    0.1130815   0.08998637 -45.60 0.0007028685    1.628    0.386
        34  -8.2282    187.6637    139.6347   8.8974085017e+01   1.7037196208e+01    0.2260932    0.1654656  12.01  0.001125338    1.662    0.398
        35  -7.9802    100.9636    138.0655   1.0732932810e+02   3.3970148856e+01    0.2023292    0.1792037  74.98 0.0005623706    1.041    0.040
        36  -8.7954    180.4870    134.1246   8.9163385374e+01   1.9454306307e+01    0.2454237    0.2069824  71.10  0.001325227    1.398    0.285
        37  -9.5887    191.0259    130.2229   8.6232901319e+01   1.7883715487e+01    0.2534283    0.2019662 -31.06 0.0006892402    1.278    0.218
        38  -8.5439    199.0567    129.0000   8.4437567722e+01   1.6376033832e+01    0.3044723     0.174649  44.88  0.001026377    1.683    0.406
        39  -9.4276    195.4840    127.5038   8.4760619903e+01   1.7379074422e+01    0.2572668    0.2225532 -21.56 0.0007370505    1.157    0.136
        40  -8.8964    184.0338    129.0126   8.7310826393e+01   1.9575439314e+01    0.2268471     0.181561 -88.86  0.001133479    1.742    0.426
        41  -8.5159    173.3778    128.3867   8.9297451010e+01   2.1954660843e+01     0.387864    0.1367781  53.12  0.001283361    3.178    0.685
        42  -8.4100    168.3170    113.7987   8.6879720915e+01   2.5681283641e+01    0.2554094    0.2126176  41.78 0.0009007021    1.189    0.159
        43  -7.6845    166.2821    107.1123   8.5626448268e+01   2.7361977927e+01    0.2056518    0.1822597 -40.34 0.0005444617    1.133    0.117
        44  -8.0080    183.9518    102.9732   8.0941901458e+01   2.4073067204e+01    0.2281744    0.2162006 -27.25 0.0005391974    1.050    0.048
        45  -9.1407    188.4630     98.7521   7.8953174449e+01   2.3747970633e+01    0.3962972    0.3738125  50.45  0.001008739    1.099    0.090
        46 -10.2604    189.3008     92.9341   7.7228521348e+01   2.4530245452e+01    0.2615337    0.2550622  48.20 0.0002592244    1.073    0.068
        47  -7.8159    103.8775    101.0942   9.9009769923e+01   4.1444297381e+01    0.2056922    0.1808574 -77.13 0.0002810256    1.131    0.116
        48  -9.0515    168.4395     96.9618   8.2495265010e+01   2.8727147068e+01    0.4361459    0.2753887 -19.26  0.001172034    2.023    0.506
        49  -7.9790    180.2182     97.9156   8.0341626114e+01   2.5816069611e+01    0.2124706    0.1956973 -45.02 0.0002534654    1.116    0.104
        50  -7.9827    162.6920     94.2268   8.2972316920e+01   3.0558249129e+01    0.2596413    0.1843675 -39.01 0.0005708074    1.390    0.280
        51  -7.6486     44.0495     95.4887   1.1465513397e+02   5.1248347311e+01    0.1581173    0.1262283  36.20 0.0004728793    1.493    0.330
        52  -7.9659    175.6244     94.3736   8.0306120090e+01   2.7513097640e+01    0.2220575    0.1767098 -71.46 0.0006374529    1.581    0.368
        53  -7.6535    184.1028     93.0687   7.8263722266e+01   2.5738554788e+01    0.2181952    0.1913814  11.85  0.001124739    1.205    0.170
        54  -8.9906    179.4164     90.0706   7.8357615741e+01   2.7366715402e+01    0.4150413    0.3012477 -62.63  0.001492324    1.741    0.426
        55 -15.2111    240.6160     57.7445   5.9505176797e+01   1.7506858330e+01     1.511987    0.8927877  71.57  0.006934909    2.039    0.510
        56  -9.4553     43.8089    165.5503   1.2355163289e+02   3.6004898451e+01    0.2755384    0.2052927  42.39  0.001371375    1.475    0.322
        57  -9.9193    171.9633     51.8711   6.8248973787e+01   3.5498656296e+01    0.6207286    0.5260448  77.57  0.001746906    1.300    0.231
        58 -10.2951    163.2437     51.8270   6.9914314200e+01   3.7740211088e+01    0.5796571    0.4218715  88.64 0.0003809483    1.801    0.445
        59  -7.6388    208.8138    161.0860   8.9512621679e+01   9.5586055003e+00    0.1807605    0.1407728  12.02 0.0004754466    1.291    0.225
        60  -9.4866     50.6215    159.7213   1.2158114489e+02   3.6416867345e+01    0.2786775    0.1478844  86.53  0.001512706    1.921    0.479
        61 -15.5296    246.1286     46.9508   5.5985249679e+01   1.7593833706e+01     1.111944    0.9027178 -31.43  0.006264214    1.105    0.095
        62 -10.7260    154.4898     35.6928   6.6065973096e+01   4.2368326292e+01    0.8054624    0.4173011  53.08  0.001183329    1.878    0.467
        63  -8.3958    223.1388    158.8498   8.6581616390e+01   7.1666831161e+00    0.1807443    0.1701774   7.99 0.0004209256    1.174    0.148
        64  -9.3204    106.8876     87.6536   9.4758691592e+01   4.3785290618e+01    0.3328147    0.2114601 -43.17 0.0009346142    1.521    0.343
        65  -7.8864    166.8127     87.1700   8.0117500199e+01   3.0876794971e+01    0.2230252    0.2059725 -65.73 0.0003331999    1.166    0.142
        66  -9.4796    156.3364     86.4809   8.2184034461e+01   3.3467769002e+01    0.3057951     0.263159  15.90  0.001546346    1.298    0.229
        67  -6.9279    194.2454     74.2924   7.1077038640e+01   2.6369363558e+01     0.235689    0.1330992  46.23 0.0004628395    1.822    0.451
        68  -8.3444    188.1905     74.3464   7.2183068786e+01   2.7859153037e+01    0.2291567     0.195561 -13.84 0.0003114651    1.195    0.163
        69  -8.2595    193.5818     84.1103   7.3993502591e+01   2.4960649058e+01    0.2581282    0.2122668  86.13 0.0004483837    1.499    0.333
        70  -7.3831    190.8835     78.6852   7.2947723638e+01   2.6496016697e+01    0.8618406    0.1906161 -36.07  0.002370702    3.942    0.746
        71  -8.5008    185.0599     84.0313   7.5561344604e+01   2.7036948699e+01    0.2228112    0.2184268  -4.54 0.0004103602    1.020    0.020
        72  -7.7470    173.0824     84.2709   7.7990003873e+01   2.9891080212e+01    0.2011884    0.1941067  56.08 0.0003271026    1.073    0.068
        73 -14.8500    242.5587     93.2075   6.8451358614e+01   1.2307816668e+01      2.35057     1.612988 -20.53   0.01205245    1.360    0.265
        74  -8.5134    171.0037     89.5113   7.9905186340e+01   2.9464825792e+01    0.3228042    0.2273306 -30.95  0.001488923    1.428    0.300
        75  -7.4067    185.3208     77.8300   7.3731586666e+01   2.8001160030e+01    0.3100228     0.220486 -75.65  0.001323922    2.019    0.505
        76  -8.5665     62.0570     78.7095   1.0562711466e+02   5.2936643148e+01    0.2888846    0.2140619  -5.06  0.001542994    1.993    0.498
        77  -9.8855    159.7025     73.5026   7.7593030089e+01   3.5016955978e+01    0.4293232    0.3087893 -55.81 0.0009859995    1.580    0.367
        78 -10.3134    103.9402     72.3818   9.1165298897e+01   4.7543426862e+01    0.4737383    0.2977495 -43.78  0.002218268    1.484    0.326
        79 -10.0865    170.7639     69.6880   7.4125398764e+01   3.2955082561e+01    0.5176932    0.3068924 -60.09            0    2.406    0.584
        80  -7.8037    194.4814     70.3972   6.9901549454e+01   2.6920336781e+01      0.22486    0.1498251  75.37 0.0005640138    1.905    0.475
        81  -9.2149    187.7100     65.6824   6.9696579148e+01   2.9351818735e+01     0.389116      0.25762  21.34  0.001622238    1.998    0.499
        82  -8.5157    188.7868     62.3796   6.8507218597e+01   2.9589304503e+01    0.2622377    0.1933916 -42.28 0.0003037806    1.347    0.258
        83  -9.6533    157.1539     65.6053   7.5672524736e+01   3.7011978463e+01    0.3856679    0.2791657 -44.94  0.000387957    1.396    0.283
        84  -8.1053    175.0383     62.2078   7.0969604527e+01   3.3104955395e+01    0.4287215    0.3243623  13.15  0.001969509    1.600    0.375
        85  -7.5593    178.1875     60.0282   6.9694304586e+01   3.2648929492e+01    0.1968916      0.11693 -29.67 0.0003629891    1.650    0.394
        86  -9.1916    165.3580     62.2716   7.2894776897e+01   3.5535242312e+01    0.4342174    0.2681193 -29.18  0.001450126    1.616    0.381
        87  -9.5825    160.3052     59.4256   7.3014232050e+01   3.7268392413e+01    0.4755774    0.3384612 -45.17  0.001330966    1.433    0.302
        88  -7.9518    169.7840     59.9227   7.1263336086e+01   3.4800755258e+01    0.4898638    0.1658845 -32.58  0.001570703    2.817    0.645
        89  -7.5529    192.7628     60.5870   6.7278787741e+01   2.8851122202e+01    0.1625049    0.1493979  84.24  0.000162408    1.180    0.152
        90 -11.5236    181.6182     54.8565   6.7445393552e+01   3.2562494628e+01    0.5499259    0.2694035 -43.82  0.001881347    2.112    0.526
        91  -9.9774    187.0639     57.2194   6.7227105746e+01   3.0809891600e+01     0.248831    0.2227014 -42.12 0.0003761114    1.109    0.098
        92  99.0000    190.8851     54.8381   6.5841824893e+01   3.0182223905e+01    0.3646807    0.2708783 -61.33  0.001697158    1.563    0.360
        93  -7.3052     76.9520     53.0599   9.3191684541e+01   5.6261885810e+01    0.1645283    0.1416528 -41.17 0.0003310122    1.030    0.029
        94  -9.9288    189.8910     50.6619   6.4713404904e+01   3.1042728450e+01    0.4292552     0.304268  89.99  0.001196929    1.799    0.444
        95 -10.0114    193.6654     43.7406   6.1951555553e+01   3.1027960032e+01    0.2844551    0.2185559  40.58 0.0002585934    1.375    0.273
        96  -9.2037    198.8714     48.3894   6.2585403200e+01   2.9043539276e+01    0.2202179    0.1888427 -14.59 0.0001035869    1.178    0.151
        97 -10.9007    190.5032     45.5626   6.3018396472e+01   3.1601573277e+01    0.3210486    0.2598668  60.23 0.0005097272    1.262    0.208
        98  -8.9928    198.3843     43.6029   6.1192690820e+01   2.9820552096e+01    0.2575035    0.1637408  62.87 0.0008950868    1.615    0.381
        99  -7.8982    184.2282     43.7222   6.3451152614e+01   3.3493823341e+01    0.1463277     0.110321 -54.05 0.0002268145    1.429    0.300
       100  -9.1659    189.2062     37.7764   6.0753862797e+01   3.2990311604e+01     0.240366     0.183349 -47.26 0.0007477334    1.332    0.249
       101  -8.6906    169.9185     31.0372   6.1620338805e+01   3.8958372856e+01     0.371499    0.2054178 -25.84  0.001545509    1.790    0.441
       102  -9.4729    184.9427     27.6290   5.8107718744e+01   3.5398038020e+01    0.3096496    0.2064319 -13.52  0.001402797    1.624    0.384
       103  -8.4184    189.2582     26.0419   5.6972169676e+01   3.4442690853e+01    0.1833274    0.1270044  -5.61 0.0004809783    1.646    0.393
       104  -2.8620    176.8002     26.3555   5.8909471651e+01   3.7717161545e+01    0.2670922    0.2097132  56.78  0.001157891    1.261    0.207
       105  -8.7117    175.0981     22.9242   5.8004267140e+01   3.8579094454e+01    0.2317863    0.1918187 -30.07 0.0004732987    1.197    0.165
       106  -9.6030    180.2577     20.9255   5.6564216270e+01   3.7433566232e+01    0.2480726    0.1965428  16.99  0.000463755    1.410    0.291
       107  -8.3014    174.2498     18.6653   5.6671879055e+01   3.9292834168e+01    0.1864088    0.1559754  29.71 0.0003551419    1.258    0.205
       108 -14.4345    234.4989     73.8131   6.4595880816e+01   1.6772035486e+01     1.254609    0.8640209 -53.21  0.006094587    1.658    0.397
       109  -9.7830    229.3302    153.1688   8.4379857286e+01   6.7635160091e+00     0.380552    0.2123323 -32.20  0.001075593    1.814    0.449
       110  -9.6614    179.4499    151.4232   9.3027898474e+01   1.6760047868e+01    0.5401409    0.4272982  84.89  0.002573904    1.779    0.438
       111  -8.9443    223.4618    153.0090   8.5335044882e+01   7.8942132035e+00    0.3144393    0.1760546 -11.56  0.001401497    2.335    0.572
       112  -9.6316     56.4683    156.4784   1.1999105524e+02   3.6393339476e+01    0.2839818    0.1994705  86.44   0.00141878    1.241    0.194
       113  -8.9741     69.4917    147.0134   1.1596664666e+02   3.6728708566e+01    0.3002296    0.1565673  69.23  0.001026888    2.344    0.573
       114  -9.0549    198.5908    148.7424   8.8854193976e+01   1.3370571860e+01    0.6050549    0.2842399 -19.37  0.002095316    3.884    0.743
       115 -10.1624    207.2106    143.7931   8.6235464888e+01   1.2394564770e+01    0.3198707    0.2904054 -52.72 0.0006543994    1.338    0.253
       116 -10.2675    215.5997    139.1122   8.3728952723e+01   1.1398208963e+01    0.4590224    0.2267758 -37.17  0.001902406    2.070    0.517
       117  -9.9657    211.1638    136.1281   8.3850923046e+01   1.2742412949e+01    0.4763951    0.2694207  31.68  0.002154646    1.929    0.482
