#   1 NUMBER                 Running object number                                     
#   2 MAG_AUTO               Kron-like elliptical aperture magnitude                    [mag]
#   3 X_IMAGE                Object position along x                                    [pixel]
#   4 Y_IMAGE                Object position along y                                    [pixel]
#   5 X_WORLD                Barycenter position along world x axis                     [deg]
#   6 Y_WORLD                Barycenter position along world y axis                     [deg]
#   7 A_WORLD                Profile RMS along major axis (world units)                 [deg]
#   8 B_WORLD                Profile RMS along minor axis (world units)                 [deg]
#   9 THETA_WORLD            Position angle (CCW/world-x)                               [deg]
#  10 FWHM_WORLD             FWHM assuming a gaussian core                              [deg]
#  11 ELONGATION             A_IMAGE/B_IMAGE                                           
#  12 ELLIPTICITY            1 - B_IMAGE/A_IMAGE                                       
         1 -13.9532    215.2729      9.0954   3.8869604866e+01   3.0027155029e+01     1.960412     1.229233  38.62  0.009083891    2.117    0.528
         2 -13.4459    190.3176     40.0935   5.0314997303e+01   3.2493883373e+01     1.116691    0.9291915 -27.94  0.003602349    1.141    0.124
         3 -12.7973    195.1971     34.3865   4.8002989670e+01   3.2024400861e+01    0.6777739    0.5732894 -27.08  0.001253907    1.134    0.118
         4 -10.5687    189.7399     14.7110   4.2564372952e+01   3.5591877271e+01     0.269171    0.2115335 -40.10 0.0007836601    1.149    0.129
         5 -10.9550     44.7028      8.0089   7.2003286341e+01   7.1572799695e+01    0.1953053    0.1619171 -20.56  0.001184577    1.080    0.074
         6 -13.2360    175.1825     54.0627   5.6798913654e+01   3.4276107146e+01     1.924641     1.209059  25.92  0.005425099    2.288    0.563
         7  -9.5017     64.8545    223.6825   1.1498338103e+02   2.1552316904e+01    0.1278104   0.09092259  72.30 0.0005340358    1.338    0.252
         8 -12.3943    248.1734    246.4115   8.5644046906e+01  -4.3839802860e+00    0.6899211    0.4274786  18.20  0.005541009    1.162    0.140
         9  -9.6608    160.6137    205.2054   9.4245802325e+01   1.1569891479e+01     0.151838    0.1074713 -27.25 0.0007813697    1.630    0.386
        10  -9.8932     67.0918    204.1845   1.1302484095e+02   2.4772056401e+01    0.2850413    0.1829136 -42.98   0.00095892    2.310    0.567
        11  -8.7775     71.2255    200.6177   1.1184309585e+02   2.4931733210e+01    0.1740182    0.1338434  65.86 0.0007003756    1.159    0.137
        12 -11.0817    192.9702    194.8891   8.6748327015e+01   8.2212924434e+00    0.6991248     0.369868 -56.67  0.002872403    4.685    0.787
        13 -11.6623     59.3616    195.2314   1.1392101868e+02   2.7417429002e+01    0.3296529    0.2641786 -51.87  0.001399346    1.598    0.374
        14 -11.3811     50.4335    224.7535   1.1784106172e+02   2.3001085224e+01    0.1955976    0.1207625  64.31 0.0007170639    1.395    0.283
        15 -10.5380     57.2006    201.3423   1.1487562031e+02   2.6490375060e+01    0.2645653    0.1948832 -34.14  0.001407095    2.154    0.536
        16 -11.9191    149.4698    188.3587   9.3907326733e+01   1.5880538682e+01      0.41536    0.3260167 -74.40  0.001519489    1.800    0.445
        17 -10.7010     95.5285    188.8702   1.0536218965e+02   2.3932155572e+01    0.4035859    0.2753916  73.18  0.001468684    1.682    0.406
        18 -11.3702     99.0658    182.1422   1.0374505884e+02   2.4723526936e+01    0.5940669    0.3151213 -58.72  0.001963781    2.048    0.512
        19  -9.8313     82.0749    194.9753   1.0897272977e+02   2.4607083934e+01    0.1935097    0.1530881  45.46 0.0004294194    1.106    0.096
        20  -8.2843     91.2878    185.2823   1.0587166804e+02   2.5223287284e+01    0.1117422   0.09742626  -7.76 0.0002944527    1.525    0.344
        21 -10.8189    149.7045    177.8121   9.2177304282e+01   1.7611545747e+01     0.288047    0.2274568 -70.41 0.0008705186    1.694    0.410
        22 -10.3747    188.4792    176.7072   8.4454986507e+01   1.1477788802e+01     0.322758    0.3009534  -9.59  0.001780532    1.183    0.155
        23  -8.9357    194.4930    171.9093   8.2495466093e+01   1.1213775984e+01    0.1778016    0.1170478 -32.36  0.000623089    1.522    0.343
        24 -10.0372     55.3664    222.9553   1.1677655725e+02   2.2764278974e+01    0.1378551    0.1069923  62.53 0.0004250508    1.083    0.077
        25  -9.7572     61.4386    219.8665   1.1538140824e+02   2.2609096260e+01    0.1262447   0.09685553 -54.33  0.000635954    1.722    0.419
        26 -10.7237    233.9954    174.7349   7.6420821192e+01   4.7736805458e+00    0.2213728    0.1316428 -13.41  0.001288846    1.623    0.384
        27 -10.3002     56.2571    217.6781   1.1625334137e+02   2.3589291669e+01    0.2799156    0.1239268  72.01  0.001388593    2.810    0.644
        28  -9.9869    240.0006    169.2509   7.4489993329e+01   4.5727785300e+00    0.1406488   0.09148305  33.37 0.0003518206    1.527    0.345
        29  -9.2453    187.6689    163.0555   8.2077701324e+01   1.3673532355e+01    0.2684593    0.1495539 -47.49  0.001117468    2.160    0.537
        30 -10.9329     90.6052    157.6925   1.0235379815e+02   3.1022690175e+01    0.2535244    0.2328949 -63.04  0.000680329    1.169    0.144
        31 -11.6833     96.5487    151.1993   9.9859293086e+01   3.1521131985e+01    0.5758877    0.4843343  -8.39  0.003230621    1.585    0.369
        32 -10.1445    187.8942    152.1054   7.9873373200e+01   1.5354480599e+01    0.2316781    0.2216473  48.42   0.00117664    1.260    0.207
        33 -10.9160    133.9146    145.5130   8.9784695941e+01   2.6342126484e+01     1.178242    0.3005742 -54.41  0.002975923    6.326    0.842
        34  -9.5406    174.8547    149.1458   8.1766523904e+01   1.8177337679e+01    0.1964263    0.1910815  82.48 0.0006184911    1.246    0.198
        35  -9.9000    113.4401    151.2562   9.5705794164e+01   2.8748734405e+01    0.3054198    0.2101757  78.65  0.001307891    2.003    0.501
        36  -9.2792     74.9464    250.7007   1.1494468756e+02   1.6087742672e+01   0.09459106   0.07177122  44.61 0.0002052943    1.079    0.074
        37 -11.1639    108.1205    137.7405   9.4531029984e+01   3.2565279157e+01    0.5369722    0.4042199 -47.38  0.002816251    1.381    0.276
        38  -8.8701    102.5380    133.5243   9.5159015190e+01   3.4464613143e+01    0.1984776    0.1295208  50.66 0.0004907631    1.550    0.355
        39 -10.7981    105.9881    130.8300   9.3716374496e+01   3.4471516919e+01    0.3925697     0.328804 -74.91  0.001212507    1.236    0.191
        40 -11.7028     96.1812    137.1933   9.7529987326e+01   3.4702320324e+01    0.3175983    0.2691742  88.96 0.0003925816    1.208    0.172
        41  -9.9390    135.7616    129.6152   8.6021096512e+01   2.9220643687e+01    0.3611883    0.1550809 -52.68  0.001334465    2.597    0.615
        42 -10.2432    115.0259    128.8521   9.0961289598e+01   3.3289784889e+01    0.3252556    0.2728844  -9.70 0.0007477453    1.504    0.335
        43  -9.6018    161.1166    128.1090   8.0001314309e+01   2.4537934555e+01    0.2671452    0.1971526 -46.50  0.001358824    1.385    0.278
        44 -10.4898    102.6376    124.4868   9.3296412042e+01   3.6494864294e+01    0.2869436    0.2475134  -0.12 0.0007981767    1.462    0.316
        45 -10.0507    120.0108    123.2534   8.8461280807e+01   3.3582868139e+01    0.3507163    0.2213168 -25.23  0.001437705    2.379    0.580
        46  -9.3259    135.0000    120.4127   8.4092625212e+01   3.1266224992e+01     0.325255   0.08253226 -45.77 0.0009303272    3.899    0.744
        47  -9.4284    110.1096    118.0662   8.9870165539e+01   3.6593083257e+01    0.2130207    0.2042624 -82.46 0.0003272484    1.012    0.012
        48  -9.9508    231.2675    113.7704   6.4251677787e+01   1.3287894893e+01    0.2448919    0.2155947  14.23   0.00070477    1.175    0.149
        49  -9.5202    167.4041    112.3405   7.4895886767e+01   2.6169848041e+01    0.2984807    0.2392143 -73.17 0.0009527152    1.627    0.385
        50  -9.3047    135.0000    111.8756   8.2010601239e+01   3.3036536444e+01    0.4198621   0.08339178 -44.67  0.001050758    4.929    0.797
        51  -8.3304    146.3496    112.7363   7.9553455196e+01   3.0509953356e+01    0.1463665    0.1178955  86.66 0.0004117247    1.612    0.380
        52 -11.2392    118.5171    110.6235   8.5861118331e+01   3.6632254888e+01    0.6091928     0.386602  63.36  0.002416666    2.033    0.508
        53  -9.6113    205.5742    110.1607   6.7341570560e+01   1.8694177575e+01    0.2482982    0.1977499  35.71 0.0006684727    1.335    0.251
        54  -9.4160    134.4401    105.7160   8.0566457992e+01   3.4430188633e+01    0.2968476    0.1425555 -47.85  0.001132861    2.073    0.518
        55  -9.8706    184.6269    212.5110   9.0936916581e+01   7.1010117458e+00    0.2011721    0.1394397 -38.88  0.001330754    1.695    0.410
        56  -8.4443    154.2897     82.3221   6.9419435995e+01   3.4611466334e+01    0.1527341    0.1200006   5.50 0.0005786828    1.606    0.377
        57  -8.5346    184.3298     77.3203   6.2252066664e+01   2.8489131956e+01    0.1513555    0.1132276  13.67 0.0007048362    1.690    0.408
        58 -10.3822     37.5471    211.8351   1.1961941350e+02   2.6690524759e+01    0.1507406    0.1011167  79.01 0.0001613935    1.351    0.260
        59 -10.2634     71.8905    245.0862   1.1512504475e+02   1.7279143193e+01    0.1701178    0.1367566 -62.60  0.001142835    1.631    0.387
        60  -8.9450    168.3212    210.6705   9.3594778900e+01   9.6683386202e+00     0.109374   0.08712501  59.69 0.0007048728    1.692    0.409
        61 -19.5175     22.3774    146.4519   1.1880429994e+02   4.1962645776e+01     18.82599     4.987526 -80.61   0.06746043    3.725    0.732
        62  99.0000     43.4020    209.7265   1.1831598092e+02   2.6459668525e+01    0.3860516    0.1327964  63.99   0.00165692    3.441    0.709
        63 -10.4315     43.9024    205.2695   1.1793355407e+02   2.7241588681e+01    0.1600752    0.1330303  85.08 0.0001834246    1.213    0.175
        64  -9.9482     58.7042    229.1694   1.1653466336e+02   2.1328753514e+01    0.1409931    0.1076544  62.30 0.0003636978    1.109    0.098
