#   1 NUMBER                 Running object number                                     
#   2 MAG_AUTO               Kron-like elliptical aperture magnitude                    [mag]
#   3 X_IMAGE                Object position along x                                    [pixel]
#   4 Y_IMAGE                Object position along y                                    [pixel]
#   5 X_WORLD                Barycenter position along world x axis                     [deg]
#   6 Y_WORLD                Barycenter position along world y axis                     [deg]
#   7 A_WORLD                Profile RMS along major axis (world units)                 [deg]
#   8 B_WORLD                Profile RMS along minor axis (world units)                 [deg]
#   9 THETA_WORLD            Position angle (CCW/world-x)                               [deg]
#  10 FWHM_WORLD             FWHM assuming a gaussian core                              [deg]
#  11 ELONGATION             A_IMAGE/B_IMAGE                                           
#  12 ELLIPTICITY            1 - B_IMAGE/A_IMAGE                                       
         1 -14.4012    200.1298     40.6408   4.3135776298e+01   3.0545493633e+01     1.440118     1.271536   4.12  0.003489687    1.475    0.322
         2 -14.5563    210.8940     30.0478   3.9277674256e+01   2.9410957646e+01     1.322232     1.019068  -2.41  0.002163259    1.907    0.476
         3 -12.5694      2.8616      5.9544   8.9403278905e+01   7.3739498128e+01     0.888577    0.2879115 -39.35  0.004517153    2.410    0.585
         4 -13.4998    236.0745      4.9741   3.1527631220e+01   2.6762141042e+01    0.8223462    0.5186211  84.23   0.00514565    1.436    0.303
         5 -10.3842     43.5207      6.5162   6.8044690453e+01   6.8941428569e+01    0.1211867   0.09433643   9.10 4.282069e-05    1.005    0.005
         6 -12.6044      2.7648     21.3280   9.6219248668e+01   7.1266034005e+01    0.6446933    0.1936953 -51.10  0.003027683    2.674    0.626
         7 -10.4759     59.4114    220.4959   1.1399820863e+02   2.0642912610e+01    0.3261787    0.2479756 -53.66  0.001028126    1.588    0.370
         8 -11.9554    139.3510    249.2609   1.0064724997e+02   3.6395849697e+00    0.4482498    0.2597632  29.29  0.002422026    1.610    0.379
         9 -13.8484     70.5983    171.1126   1.0561381516e+02   3.0464699767e+01     2.285947     1.129633 -29.90  0.006542481    5.956    0.832
        10 -13.3016     84.4728    219.1071   1.0848770723e+02   1.7546652550e+01    0.8362519    0.5510592  60.23   0.00114795    1.466    0.318
        11 -14.0416     54.1110    187.7467   1.1183141427e+02   2.8623946426e+01     1.650159    0.9505033  74.01  0.007969447    1.950    0.487
        12 -15.2081     46.0467    200.4072   1.1499735108e+02   2.6673862345e+01     4.876772     1.700257  62.26   0.01580547    4.738    0.789
        13 -13.8395     69.8396    155.0250   1.0333836743e+02   3.4545411488e+01    0.6518728    0.5995072 -12.22   0.00179565    1.297    0.229
        14 -15.0143     68.7082    144.3207   1.0183760597e+02   3.7385459239e+01     4.335747     2.431815  77.75  0.007879985    3.067    0.674
        15 -16.6046      7.3238    201.4085   1.2334213171e+02   3.0410643823e+01     9.210029     1.072504 -74.59   0.01034034    5.957    0.832
        16  -9.8683     66.0978    193.4053   1.0965447490e+02   2.5769309782e+01    0.3141236     0.194862  82.24  0.001550789    1.807    0.447
        17 -10.7007    149.4991    187.4035   8.8887192979e+01   1.3635139406e+01    0.3115074    0.2651283 -82.36 0.0009320041    1.458    0.314
        18  -9.4989     72.2339    188.2367   1.0755119845e+02   2.6139533404e+01    0.1861448    0.1407104  74.03 0.0004068759    1.313    0.238
        19  -9.1381     77.3129    185.7021   1.0598127829e+02   2.6020494175e+01    0.2087434    0.1355569 -71.77 0.0006914119    1.538    0.350
        20  -9.6043     80.2673    183.8857   1.0500462104e+02   2.6022737929e+01    0.2487243    0.1740906  61.57 0.0008200475    1.464    0.317
        21  -9.7679     69.3378    183.2973   1.0761250539e+02   2.7702603706e+01    0.2482127    0.1656774  87.15  0.001244892    1.624    0.384
        22 -10.4035     92.3070    250.0327   1.1013317261e+02   1.0400308290e+01    0.3186403    0.1841201  22.07  0.001612474    2.369    0.578
        23 -11.3738    111.1285    197.5312   9.9577642562e+01   1.8105571836e+01    0.5053961    0.3176152   3.35    0.0019634    3.205    0.688
        24 -10.5859     99.3910    180.6911   9.9780193355e+01   2.3838770835e+01    0.2497215    0.2431084   3.45 0.0006249917    1.155    0.135
        25  -9.3047     90.2217    181.2352   1.0214922059e+02   2.5157077937e+01    0.1913777    0.1520966  69.86 0.0003516241    1.290    0.225
        26 -10.8345    189.3911    177.5719   7.8158356052e+01   8.2935574483e+00      0.48877    0.3309033 -54.68  0.002329543    1.799    0.444
        27 -10.8634    147.0641    172.9168   8.6679897772e+01   1.7181221528e+01    0.5733182    0.3418449 -72.67  0.002086078    3.044    0.672
        28 -11.0150    112.0869    205.5143   1.0054402379e+02   1.6223382292e+01    0.2560311    0.2286012  40.90 0.0006067688    1.074    0.069
        29  -9.0303    194.3166    172.6463   7.6122741324e+01   8.3301803648e+00    0.1398563    0.1174625 -82.68 0.0005586591    1.742    0.426
        30 -10.1002     34.6713    171.5691   1.1476006649e+02   3.4685972215e+01    0.2425741    0.1821349  72.91 0.0008332197    1.240    0.193
        31 -17.6401     19.0903    242.7890   1.2345197648e+02   2.0766324067e+01      7.54145     2.430679  27.46   0.02751636    4.513    0.778
        32 -10.7417    230.4715    166.8065   6.7967726197e+01   2.9904497904e+00    0.3560606    0.1113736 -45.80  0.001177789    3.677    0.728
        33  -9.4749    110.9667    167.9590   9.4656268267e+01   2.4902566585e+01    0.2357589     0.175915  75.95   0.00040618    1.649    0.393
        34  -9.8770    135.6680    165.4530   8.7943544473e+01   2.0993816708e+01    0.3497015     0.201337  51.48   0.00143622    1.930    0.482
        35  -9.4761    132.4348    162.1689   8.8080539329e+01   2.2354236871e+01    0.2506191    0.2155316  59.67   0.00090785    1.237    0.192
        36  -9.9899     89.8440    212.7025   1.0654774161e+02   1.8121377831e+01    0.3071005    0.1749444  63.25  0.001391986    2.026    0.506
        37 -12.3663     88.5950    153.1883   9.7863800843e+01   3.2219091932e+01    0.6953923    0.4840338 -25.31  0.003133702    1.984    0.496
        38 -11.5366    133.8418    144.8518   8.4005990978e+01   2.6082168952e+01     1.213916    0.3484909 -55.12  0.002991359    5.046    0.802
        39 -10.6920    174.4975    149.0339   7.5226682222e+01   1.6898833315e+01    0.2942809    0.2841906 -19.17 0.0007573949    1.025    0.024
        40  -9.4918    164.6610    149.3301   7.7515872969e+01   1.8841961525e+01    0.1561005    0.1245838  89.22 0.0007051833    1.738    0.425
        41  -9.5051    110.7504    149.1499   9.1028674433e+01   2.9448704635e+01    0.2615646    0.1641245  76.85  0.000946887    2.802    0.643
        42 -10.6378    144.0570    146.1767   8.1727501871e+01   2.3732717298e+01     0.415379    0.2535487 -76.75  0.001380963    3.343    0.701
        43 -10.4469     38.8968    146.3915   1.1061052016e+02   4.0447217117e+01    0.2797436    0.2368098  54.15 0.0009029277    1.251    0.201
        44 -10.2768    198.4735    140.3719   6.8203908623e+01   1.3771874784e+01    0.2939778    0.2400647 -63.77  0.000869172    1.464    0.317
        45 -10.9741    102.2872    139.0820   9.1223492293e+01   3.3407300709e+01    0.5424311    0.3630095 -20.82  0.002228448    2.210    0.548
        46 -12.4914     89.7059    138.6542   9.4711744413e+01   3.5647184871e+01    0.2941107    0.2596958 -41.70 0.0005010433    1.151    0.131
        47 -10.7247    105.9415    130.8192   8.8342794879e+01   3.4761109405e+01    0.3688137    0.3189694 -69.11  0.001440947    1.203    0.169
        48 -11.7370     44.0147    129.7096   1.0660268506e+02   4.4093324914e+01    0.3526103    0.2522868 -67.97  0.001114606    1.235    0.190
        49 -11.0236     40.4723    127.9496   1.0738766707e+02   4.4905475147e+01    0.2745005    0.2086337 -67.56 0.0007640009    1.146    0.127
        50 -10.8432     39.6274    124.3139   1.0704374027e+02   4.5900503198e+01    0.2263232    0.1818078  70.37 0.0006077226    1.375    0.273
        51 -11.3024    135.7468    126.9690   7.9280384997e+01   2.9806075139e+01    0.7208073    0.1930483 -49.50  0.001930174    3.970    0.748
        52 -10.3746    111.5864    129.6583   8.6475852638e+01   3.3991750226e+01     0.323962     0.258205   5.31 0.0006557699    1.568    0.362
        53 -10.1843    160.6366    127.9566   7.3385178986e+01   2.4283426223e+01    0.3514175    0.2422396 -61.58     0.001505    1.758    0.431
        54 -10.9707     98.9218    125.5870   8.9152481003e+01   3.7291160736e+01    0.3203748    0.2594196   3.57  0.001240229    1.512    0.339
        55 -11.3003    118.8332    123.0741   8.2854674225e+01   3.4147359383e+01    0.6027604     0.390646  -2.85  0.002141083    2.949    0.661
        56 -10.0846     89.4384    122.6863   9.1296691375e+01   3.9628396030e+01    0.5050443    0.2798445  65.78  0.001663764    3.583    0.721
        57 -12.4596     33.9943    118.2973   1.0779547649e+02   4.7944343750e+01    0.4341821    0.2803934 -38.19  0.001893261    1.643    0.391
        58 -10.0189    107.9016    118.8587   8.4901987058e+01   3.7256480115e+01    0.2207854    0.2139414 -34.26 0.0003735345    1.016    0.016
        59  -9.6740     22.8882    194.8106   1.1961166469e+02   3.0432014532e+01    0.3154093    0.1820179 -46.64   0.00167266    2.321    0.569
        60 -10.1717    120.3205    194.4625   9.6932064044e+01   1.7249430234e+01    0.2314944    0.1696887 -86.51 0.0008307407    1.747    0.427
        61  -9.2980    167.8428    113.0008   6.7952775717e+01   2.5829631958e+01     0.267148    0.1786906 -66.77  0.001082217    2.060    0.515
        62 -10.3467    134.7678    112.0545   7.5700855748e+01   3.3353901093e+01    0.4100771    0.1294462 -44.91  0.001225331    3.107    0.678
        63 -11.5508    118.8008    110.1972   7.9541035622e+01   3.7116661478e+01    0.5739506    0.3716479 -80.06  0.002052675    2.911    0.656
        64 -10.2142    205.4766    110.1658   5.9724359085e+01   1.8063025557e+01    0.3001955    0.2134511  40.89 0.0009616032    1.566    0.362
        65  -9.7639    134.6001    105.5437   7.3985251548e+01   3.4807597162e+01    0.4510796    0.1498193 -43.85  0.001391033    2.957    0.662
        66  -9.4264    139.6172    106.2227   7.2874075429e+01   3.3561878695e+01    0.2354644    0.1881877 -59.82 0.0007265672    1.367    0.268
        67 -12.3493     42.1511    103.9870   1.0241357957e+02   5.0658854108e+01    0.4869297    0.2985417  45.00  0.001678675    1.941    0.485
        68 -10.9150    241.7848    101.6119   5.1986418937e+01   1.2141656782e+01    0.1755111    0.1305525  74.58  0.000755713    1.675    0.403
        69  -9.5030     65.5079    103.9800   9.4476132535e+01   4.7831283210e+01    0.3034494    0.1653338  50.59  0.001253101    2.404    0.584
        70  -9.9887    127.5322     94.8412   7.2854112029e+01   3.8619504382e+01    0.3066241     0.203918  63.53 0.0009311425    1.927    0.481
        71 -11.2419    241.4941     93.1563   5.0146606271e+01   1.3585636836e+01    0.2457251    0.1599223 -86.04  0.001169949    2.279    0.561
        72 -10.0977     53.0022     90.9913   9.5600434440e+01   5.2527455178e+01    0.2301686    0.1492098 -30.57 0.0004548662    1.637    0.389
        73  -9.8391    155.9715     88.0633   6.3859139665e+01   3.3501435472e+01    0.4043281    0.2477252 -70.51  0.001454768    2.823    0.646
        74  -9.6328     15.2092     89.5288   1.0905945598e+02   5.6385962260e+01    0.2060284    0.1203711  24.82  0.001120744    2.012    0.503
        75  -9.6580    115.4200     84.5541   7.3173578845e+01   4.3338360375e+01    0.2866768     0.211015  80.19  0.001176164    2.069    0.517
        76 -10.0852    158.9202     82.3237   6.1574440085e+01   3.3878013672e+01    0.2174215    0.1973303  53.10 0.0008235025    1.108    0.097
        77  -9.0333    184.6805     76.7178   5.4930008306e+01   2.8748112613e+01     0.143902    0.1155423  21.62 0.0002857421    1.586    0.369
        78  -9.3102     55.9436     66.2555   8.7400145739e+01   5.7572914519e+01    0.1826646    0.1615822  -6.06 0.0003102723    1.086    0.079
        79  -8.9699     82.9542     61.4248   7.5816158140e+01   5.4229103026e+01    0.1845421    0.1249405  64.55 0.0008033005    2.404    0.584
        80 -10.8583     13.4294     59.8953   1.0323525623e+02   6.3143525073e+01    0.2423789    0.1915237 -55.49 0.0004206509    1.177    0.150
        81 -13.7712    190.0485     48.0905   4.6430582508e+01   3.1914275573e+01     1.146414    0.7910458  44.54 0.0009076861    1.659    0.397
        82 -12.1573    108.0981    203.6142   1.0118578327e+02   1.7270985524e+01    0.4785327    0.3276243  43.83  0.001197243    1.345    0.257
        83 -11.4087    141.0327     46.4868   5.4600213355e+01   4.4049030268e+01    0.3390779    0.2656455 -76.38 0.0006873135    1.551    0.355
        84 -11.1299     14.2740     31.9628   9.4102119441e+01   6.8582939663e+01    0.2536619    0.1470891  29.29 0.0006931974    2.011    0.503
        85 -10.9529    107.8811    210.7384   1.0224058415e+02   1.5787140309e+01    0.3003527     0.156946  33.22  0.001250938    1.890    0.471
        86 -10.0121    169.0489    236.0206   9.2791095075e+01   1.2621218864e+00     0.187794    0.1638649  17.24 0.0004111056    1.045    0.043
        87 -10.5484    198.0589     23.8698   3.9180760981e+01   3.3116251067e+01    0.2745903     0.192779 -19.84 0.0009607107    1.777    0.437
        88  -9.5633    189.5139     15.0028   3.7896737869e+01   3.6111199979e+01    0.1809147    0.1242553 -33.66 0.0006729781    1.553    0.356
        89 -12.4249    196.1002    197.6807   8.0720577721e+01   3.4166740981e+00     1.233735    0.9485978  76.35   0.00609043    2.372    0.578
        90  -9.2152     96.3024    202.3268   1.0373336574e+02   1.9401178131e+01    0.1312881    0.1074435 -21.18 0.0003334832    1.643    0.391
