#   1 NUMBER                 Running object number                                     
#   2 MAG_AUTO               Kron-like elliptical aperture magnitude                    [mag]
#   3 X_IMAGE                Object position along x                                    [pixel]
#   4 Y_IMAGE                Object position along y                                    [pixel]
#   5 X_WORLD                Barycenter position along world x axis                     [deg]
#   6 Y_WORLD                Barycenter position along world y axis                     [deg]
#   7 A_WORLD                Profile RMS along major axis (world units)                 [deg]
#   8 B_WORLD                Profile RMS along minor axis (world units)                 [deg]
#   9 THETA_WORLD            Position angle (CCW/world-x)                               [deg]
#  10 FWHM_WORLD             FWHM assuming a gaussian core                              [deg]
#  11 ELONGATION             A_IMAGE/B_IMAGE                                           
#  12 ELLIPTICITY            1 - B_IMAGE/A_IMAGE                                       
         1 -11.2733    237.1222     31.8361   4.4194780893e+01   2.2246664842e+01    0.5282342    0.4267981 -68.44  0.003144877    1.124    0.111
         2 -10.6496    164.0516     22.3075   5.0885190646e+01   4.1645212760e+01    0.3831259      0.29514  41.12  0.001321359    1.342    0.255
         3 -10.2178     87.7913     18.6584   6.6803063461e+01   6.0095235129e+01    0.4426489    0.2637936 -49.81  0.001746735    2.498    0.600
         4  -9.7982    155.1631     16.5890   5.0481821574e+01   4.4554432463e+01    0.3206427    0.2036415  -9.67  0.001070779    1.924    0.480
         5 -10.2887    102.1391     15.0941   6.1132392567e+01   5.7492150031e+01     0.448771    0.2844706 -13.41  0.001676069    1.676    0.403
         6 -10.8212     21.1577     15.6659   9.2991370822e+01   7.0424595997e+01    0.6079721    0.3285525 -20.73 0.0008101138    1.827    0.453
         7 -10.2651     16.8208      4.2620   8.9840323087e+01   7.2593833001e+01    0.7562849    0.2614394  39.58  0.003195151    4.907    0.796
         8 -10.3827      6.9687      3.3864   9.4996323348e+01   7.3549821286e+01    0.2783766    0.2300761  19.39  0.001021437    1.562    0.360
         9 -10.4228     10.4840     15.4255   9.8489836761e+01   7.1333183037e+01     0.336569    0.2154838 -31.20  0.001400675    1.191    0.160
        10  -9.3947      8.0000     12.0375   9.8394789563e+01   7.2080123585e+01    0.3262231    0.1080003 -46.73  0.001644014    2.256    0.557
        11 -11.4865     17.9924     10.1177   9.2089432410e+01   7.1596672956e+01    0.4904479    0.2811638  33.13  0.001726791    2.154    0.536
        12 -10.7563     12.2801      6.7675   9.3608545874e+01   7.2609518131e+01    0.3718657    0.2205159 -45.49  0.001322983    1.604    0.377
        13 -10.6374    181.4282     13.5089   4.5676237380e+01   3.8130670563e+01    0.8426599     0.369693  46.61  0.003389371    2.500    0.600
        14  -9.8967    185.0000     11.9529   4.4773466175e+01   3.7378509457e+01    0.4044272    0.1910114 -24.59  0.001751021    2.322    0.569
        15 -10.3834     57.4621     14.0279   7.5437865220e+01   6.6124255317e+01    0.3760614    0.2333957  36.45  0.001904597    1.588    0.370
        16  -9.5259     34.3069     14.5593   8.5930242820e+01   6.9231609626e+01    0.2487801    0.1566741 -18.51 0.0007371897    1.419    0.295
        17 -10.4607    121.5372     12.3552   5.5351160826e+01   5.3332754528e+01    0.5077633    0.2580452  40.64  0.002278687    1.907    0.476
        18  -9.7332    210.1196     10.0004   4.1461572822e+01   3.1269461718e+01    0.3473897    0.2039674 -57.99  0.001429878    1.692    0.409
        19  -9.3898     93.3421     10.6903   6.1660962627e+01   5.9852282178e+01    0.2121902    0.1882346 -38.91  0.001314103    1.361    0.265
        20  -9.7237     41.4907      9.4351   8.0030128161e+01   6.9063148028e+01    0.2509807    0.2181597 -63.61 0.0008471601    2.101    0.524
        21  -8.7665    227.1698      8.1019   3.9417318222e+01   2.7361064070e+01    0.1877369    0.1284917 -61.46 0.0004986956    1.329    0.248
        22  -8.7318    215.5179      8.5415   4.0569222902e+01   3.0104225970e+01    0.1315373    0.1163732 -83.25 0.0002808247    1.038    0.037
        23  -9.3743     78.9112      6.8337   6.4241758506e+01   6.3175247516e+01    0.2926142    0.1665673  -6.49  0.001472664    1.929    0.482
        24  -8.5168     73.4781      8.4938   6.6819014955e+01   6.4031865689e+01    0.1288003    0.1071861  13.12 0.0008102521    1.003    0.003
        25  -9.0647     37.5982      4.7162   7.9402578521e+01   7.0201053491e+01    0.1626552     0.139807  42.37            0    1.721    0.419
        26  -8.9081     89.6253      3.7321   5.9606722793e+01   6.1315989393e+01    0.1710519    0.1130977 -28.80 0.0009416646    1.626    0.385
        27  -8.9500     49.2553      3.8336   7.3702535673e+01   6.8658562628e+01    0.2744227    0.1443607  48.14  0.001440536    2.331    0.571
        28  -9.1100     22.0954      3.4968   8.6576222001e+01   7.2186619091e+01    0.1639599    0.1183897 -22.10 0.0003597422    1.103    0.093
        29  -9.9353    190.4696      2.5703   4.1494001411e+01   3.6916995930e+01     0.344569    0.1930095 -67.96  0.001606501    1.990    0.497
        30  -8.7821     30.5797      3.5032   8.2179523478e+01   7.1239313379e+01    0.1180552   0.08799259  -9.53 8.292627e-05    1.031    0.030
        31  -8.6990     42.1990      2.0316   7.5838384186e+01   6.9907177136e+01    0.1471504   0.08015861 -26.21 0.0003812378    1.648    0.393
        32  -9.0084    241.9711      1.4735   3.6722735136e+01   2.4653172416e+01    0.1797439    0.1106063  81.25 0.0005779294    1.522    0.343
        33  -8.3382    137.4817      1.4084   4.8227444834e+01   5.0442983523e+01    0.1337455    0.1197787  68.93 0.0001772473    1.077    0.072
        34 -10.6575     26.2011    116.5913   1.1699452651e+02   4.8616938140e+01    0.3112374    0.2659685  -2.41   0.00167082    1.543    0.352
        35 -10.0987     69.5874    117.9997   1.0465088851e+02   4.3512414555e+01    0.3417882    0.2332941 -79.67 0.0009227894    1.611    0.379
        36  -8.6171     45.6540    119.6928   1.1190062024e+02   4.6027753577e+01    0.1341406   0.09110586 -38.82 0.0007043252    1.698    0.411
        37  -9.7834     98.3117    117.6479   9.6309490129e+01   3.9106928747e+01    0.2471558    0.2378789 -17.16 0.0005858991    1.136    0.120
        38  -9.3842     58.0348    117.4677   1.0792030233e+02   4.5142419467e+01    0.2309426    0.1276327 -31.96 0.0009578665    2.746    0.636
        39 -10.1430     11.6924    115.1166   1.2088761645e+02   5.0056886356e+01    0.2454874    0.1811193 -35.93 0.0009228837    1.629    0.386
        40  -9.4818     40.1310    114.7027   1.1268077005e+02   4.7792322975e+01    0.2694749    0.1255649  23.13  0.001223989    2.766    0.638
        41  -9.5271      1.9734    113.3967   1.2337688673e+02   5.1060911555e+01    0.3408673    0.2072839  88.84  0.002071768    1.464    0.317
        42  -9.3562     49.9739    111.9941   1.0929176484e+02   4.7400125175e+01    0.2048147    0.1761293 -70.50 0.0005182055    1.025    0.024
        43  -8.8135     90.7787    111.6590   9.7073975928e+01   4.1801627577e+01    0.1882723    0.1338374  48.79            0    1.516    0.340
        44 -10.1929     16.3739    104.7512   1.1818917911e+02   5.2150553917e+01    0.2117702    0.1757087 -88.88 0.0006710724    1.160    0.138
        45 -10.1343     14.4635    109.8901   1.1944874872e+02   5.1084678175e+01    0.2382472    0.1730496  76.17 0.0009805543    1.420    0.296
        46 -10.5350     17.6614    108.3439   1.1831090253e+02   5.1220404014e+01    0.4249481    0.1374427  44.49   0.00175621    3.717    0.731
        47  -8.7227    128.1316    109.8165   8.6163859371e+01   3.5142738469e+01    0.2090714    0.1826218   2.39   0.00041165    1.331    0.249
        48  -9.4418     27.3420    108.4313   1.1546117705e+02   5.0449652807e+01    0.2596953    0.1289756 -70.81  0.001296233    1.696    0.411
        49 -10.1673     71.7323    107.5951   1.0181744705e+02   4.5699444691e+01    0.2895352    0.2125504 -76.06  0.000175861    1.465    0.317
        50  -8.7681     34.8092    107.4212   1.1305390428e+02   5.0035048048e+01    0.2290448    0.1241728 -48.02  0.001162643    1.744    0.426
        51  -9.8933      7.1018    107.8770   1.2131259257e+02   5.2028550185e+01    0.1985982    0.1694864 -79.19 0.0004092525    1.110    0.099
        52  -8.7827     41.4865    106.4955   1.1085826314e+02   4.9612556423e+01    0.1325178    0.1111858 -65.01 -4.339922e-06    1.008    0.008
        53 -10.3280     80.2296    103.6800   9.8324083578e+01   4.5368505804e+01    0.3349633    0.2771513 -16.40  0.001514972    1.439    0.305
        54  -9.7567      8.8221    103.7965   1.2030074973e+02   5.2866201481e+01    0.1767652    0.1294032 -61.66 0.0003821013    1.146    0.128
        55  -8.9635      7.9194    100.0166   1.2007268064e+02   5.3792521898e+01    0.2142242    0.1246786  81.00 0.0003798032    1.899    0.473
        56  -9.4796    108.9033    103.0624   8.9672370628e+01   4.0533981207e+01    0.3275617    0.2145425  36.70 0.0008931431    1.637    0.389
        57  -9.7080     53.0259     99.6470   1.0590650567e+02   4.9990012180e+01    0.3746962    0.1779162 -62.99  0.001662913    1.914    0.477
        58  -9.9136     68.8846     96.2582   1.0007399033e+02   4.8765778160e+01    0.2675985    0.2246998 -83.58 0.0007182885    1.324    0.245
        59  -8.7373    147.5346     96.0070   7.7402007248e+01   3.3790150668e+01    0.2451233    0.1532935 -42.99  0.001022885    1.581    0.368
        60  -8.4616     97.3081     96.3063   9.1255939906e+01   4.4217767242e+01    0.1494084    0.1153178 -15.39 0.0002441331    1.610    0.379
        61  -9.6203     79.5135     95.1341   9.6422241810e+01   4.7464157095e+01    0.3173932    0.2331221 -68.21  0.001594673    1.480    0.324
        62  -8.5515     63.3620     96.7003   1.0194571809e+02   4.9407944328e+01    0.1391238    0.1044286  75.65  0.000703507    1.720    0.418
        63  -9.1657     15.9413     95.6172   1.1696784040e+02   5.4302436803e+01    0.1585988    0.1426032 -60.24 0.0006499972    1.153    0.133
        64  -9.0169    132.4523     93.9975   8.0665710371e+01   3.7629035639e+01    0.2318549    0.1514702 -40.98 0.0003675134    1.509    0.337
        65  -8.4226     37.7548     93.9823   1.0966563771e+02   5.2927040055e+01    0.1640624   0.09373995 -61.85            0    1.451    0.311
        66  -8.8582    153.2269     93.1556   7.5210965029e+01   3.3033115630e+01    0.2087063    0.1831813 -79.75 0.0003562937    1.299    0.230
        67  -8.3841      9.4576     93.4853   1.1868601698e+02   5.5203255302e+01    0.1215444   0.09490286 -71.50 0.0001666273    1.041    0.040
        68  -9.1226     88.6024     92.2592   9.2815880209e+01   4.6648095571e+01    0.2717382    0.1760918  49.52  0.001257837    1.759    0.431
        69  -9.1553     82.7157     92.0172   9.4594921637e+01   4.7671663126e+01    0.2298882    0.2064423  32.66 0.0006491617    1.208    0.172
        70 -10.1271     52.0461     91.1115   1.0434027858e+02   5.2100798100e+01    0.3954698    0.1687574 -53.06  0.001101717    1.944    0.486
        71  -9.5432     56.9257     89.9572   1.0244940295e+02   5.1789414277e+01    0.2078405    0.1943399  -7.02 0.0004693298    1.190    0.160
        72  -9.6279     43.7793     91.4099   1.0714953861e+02   5.2931836452e+01    0.2107138    0.1705549   3.27  0.001263985    1.507    0.336
        73  -8.4898    120.6259     90.7039   8.2912876599e+01   4.0881929345e+01    0.1598725    0.1218412   4.52 0.0007026264    1.741    0.426
        74  -9.7536     47.8431     89.2299   1.0531227132e+02   5.3007059445e+01    0.2509788    0.1598601 -53.43 0.0002830427    1.322    0.244
        75 -10.2332     46.3155     84.4795   1.0473214284e+02   5.4264565489e+01    0.2915481    0.2770918 -76.43 0.0001898047    1.158    0.137
        76  -9.0826     15.4682     90.5033   1.1630379300e+02   5.5513583126e+01     0.124126   0.09723113 -64.54 0.0008098175    1.005    0.005
        77  -8.7618     62.6366     89.6974   1.0049290282e+02   5.1126676660e+01    0.1436173   0.09904391 -25.77 0.0001120945    1.731    0.422
        78  -8.3619     21.6915     89.3201   1.1406467715e+02   5.5354793986e+01    0.1213266   0.08696394  78.15  0.000369453    1.641    0.391
        79  -9.9283    131.8001     87.1473   7.8831348079e+01   3.9193081242e+01    0.2834552    0.2556238 -11.94 0.0006181671    1.173    0.147
        80 -11.1233    135.2599     83.1611   7.6726670560e+01   3.9214507350e+01    0.3576631    0.3028988  58.92            0    1.253    0.202
        81 -10.2657    119.5944     86.1920   8.1867352722e+01   4.2049531326e+01    0.3535189    0.2870669  62.79  0.001731083    1.406    0.289
        82  -8.9219     66.2632     84.9252   9.8059340259e+01   5.1728101523e+01    0.2004422     0.161756 -53.76  0.000717053    1.128    0.113
        83  -9.7472     26.9585     85.0053   1.1148627298e+02   5.5945372849e+01    0.1930592    0.1535304 -65.06 0.0006101817    1.077    0.072
        84 -10.1544     80.9966     82.0045   9.2364531437e+01   5.0183276756e+01    0.4581685      0.20586 -53.61  0.001807758    2.214    0.548
        85 -10.3837     75.9344     83.1272   9.4347889247e+01   5.0728799671e+01    0.3199361    0.2650292 -74.84  0.001234431    1.409    0.290
        86 -11.9305    105.3475     79.1645   8.3857222654e+01   4.6425842280e+01    0.5379465    0.5089619  83.72  0.001948098    1.201    0.167
        87  -9.4303     39.6100     81.2804   1.0631037555e+02   5.5679181830e+01    0.3560672    0.2114281  86.92  0.001546765    2.950    0.661
        88  -8.9406    158.4517     82.5020   7.0885893257e+01   3.3847444605e+01    0.1553036    0.1529464 -54.63 4.321835e-05    1.022    0.021
        89  -9.7657     51.1385     81.2534   1.0227763054e+02   5.4463444586e+01    0.2157495    0.1869044 -44.64 0.0007091607    1.034    0.033
        90  -9.4962    143.2677     80.9569   7.4027964464e+01   3.7787085050e+01    0.2038153    0.1351806 -39.85  0.000464918    1.494    0.331
        91  -9.3804     21.9573     80.5118   1.1232089561e+02   5.7350637070e+01    0.2263547    0.1443823 -62.25 0.0005940727    1.255    0.203
        92 -10.5442     20.8635     75.2974   1.1165135299e+02   5.8605097280e+01    0.2894004    0.1946291 -69.66 0.0006587038    1.336    0.252
        93 -10.9540      6.3514     80.0456   1.1761667906e+02   5.8431974489e+01    0.3497329    0.2227507  82.17  0.002056422    1.843    0.458
        94  -8.6755     55.6859     80.7082   1.0055790479e+02   5.4048612693e+01    0.1373104   0.09425719 -28.68 0.0002239171    1.593    0.372
        95 -10.3508    124.6748     85.5864   8.0279565703e+01   4.1085203959e+01     0.383498    0.2957748  18.50  0.001251436    1.561    0.359
        96  -9.7381     28.2209     78.1831   1.0963432746e+02   5.7396876410e+01    0.2032753    0.1623504 -50.63 0.0003457487    1.054    0.052
        97  -8.7683     15.0576     78.9651   1.1442839566e+02   5.8169651599e+01    0.1474521    0.1169167 -59.99 0.0006926923    1.012    0.012
        98  -8.7893     43.9207     78.4968   1.0412579659e+02   5.5874550722e+01    0.1631684    0.1312739  16.81 0.0004044441    1.449    0.310
        99 -11.1173     76.7219     75.5101   9.1869854379e+01   5.2269392855e+01    0.5442602     0.282425  26.71  0.001622137    2.417    0.586
       100  -9.7306     64.2191     70.8246   9.4789871044e+01   5.5112039158e+01    0.3757389    0.1766983  42.00  0.001288341    2.478    0.597
       101  -9.3990     53.9928     75.0072   9.9632021421e+01   5.5522949745e+01     0.316429    0.1790558 -23.38   0.00138677    2.485    0.598
       102  -9.9309     57.9518     71.3065   9.7171969835e+01   5.5840333076e+01    0.3495072    0.2370655 -15.07  0.001775986    1.838    0.456
       103 -10.7606    157.8875     73.1060   6.8186902871e+01   3.5715097532e+01    0.5544075    0.2308847 -35.66  0.001936269    2.414    0.586
       104 -10.2579    152.1145     73.8335   6.9723456024e+01   3.7001358872e+01    0.2859335    0.2425272 -14.10  0.001363375    1.288    0.224
       105  -9.6014     49.0512     77.0429   1.0193509327e+02   5.5645692984e+01    0.2039836    0.1707639 -48.05  0.000438014    1.018    0.018
       106  -9.2929    110.0607     71.9649   8.0172778838e+01   4.6932912523e+01    0.2394249    0.1811809   1.90 0.0005940863    1.660    0.397
       107 -10.6716     97.1968     69.6364   8.3327211197e+01   4.9942126652e+01    0.3447138    0.2274901 -42.85 0.0005027465    1.451    0.311
       108  -8.8161     38.9235     71.5219   1.0417996604e+02   5.7931861700e+01     0.164779    0.1282072  16.88 0.0003812501    1.497    0.332
       109 -10.8218    142.4903     68.8274   7.0439071887e+01   4.0240135800e+01    0.3988109    0.2857483  -5.18  0.001729035    1.860    0.462
       110  -9.3004     27.5648     69.4062   1.0787949279e+02   5.9408490249e+01    0.2986511    0.1386003 -33.19  0.001243486    2.479    0.597
       111  -8.7910    197.4966     68.5136   5.9092494021e+01   2.6575446655e+01    0.2763505    0.1233701 -44.36 0.0009523659    2.227    0.551
       112 -10.3180    161.5179     67.9914   6.5825778227e+01   3.5712695037e+01    0.3584917    0.2483149 -36.74  0.001627015    1.442    0.307
       113 -10.0965    164.6709     66.6850   6.4757396710e+01   3.5145811754e+01    0.2454403    0.2003726  53.88  0.000887799    1.214    0.176
       114 -10.7361     88.8844     66.8022   8.5061473815e+01   5.2038431929e+01    0.3898815    0.3050591 -70.31  0.001961845    1.718    0.418
       115  -9.1362     70.5596     67.6883   9.1583295378e+01   5.4863585604e+01    0.2153208    0.1756047  11.40 0.0009580629    1.335    0.251
       116 -10.7405    151.8692     66.0644   6.7356887563e+01   3.8444601412e+01    0.4889542    0.2717498 -55.02    0.0018431    2.345    0.573
       117 -10.6993     45.1080     63.8012   9.9746733183e+01   5.8967422691e+01    0.3215312     0.287433 -18.97  0.001210666    1.133    0.117
       118  -9.9362    172.3412     62.7561   6.2011799509e+01   3.3862327968e+01    0.3751538    0.2710264  -6.60  0.001240255    1.799    0.444
       119 -10.4037    108.8709     62.7910   7.7470210358e+01   4.8936612444e+01    0.4680162    0.4528164 -30.56  0.002657141    1.082    0.076
       120  -9.5424    111.9194     56.0671   7.4246648131e+01   4.9503012742e+01    0.2566026    0.2080322 -11.35 0.0004510352    1.299    0.230
       121  -9.9285     32.6919     63.5037   1.0443626498e+02   6.0259469981e+01     0.295477    0.2424922  83.95  0.001320746    1.620    0.383
       122 -10.9564      2.2025     62.7070   1.1601864108e+02   6.2464961885e+01    0.2379234     0.157022 -62.15 0.0003949549    1.154    0.133
       123 -10.4217      5.5239     58.9979   1.1398465141e+02   6.3105455601e+01    0.2359475    0.1786575 -41.24 0.0007197308    1.182    0.154
       124  -8.6427     75.1673     62.6519   8.8330410305e+01   5.5182728795e+01    0.1848335      0.12725  22.06  0.000367235    1.642    0.391
       125  -9.0784    120.8069     61.1519   7.3509975375e+01   4.6655790876e+01    0.2177793    0.1774156   6.52  0.001081113    1.377    0.274
       126  -8.3713     54.2991     61.2805   9.5493433025e+01   5.8422456111e+01    0.1331412    0.0915312 -22.98 0.0002061196    1.543    0.352
       127  -9.1900    162.5316     60.5094   6.3298695217e+01   3.6716051838e+01    0.1513678    0.1486213  38.67 8.381211e-05    1.024    0.024
       128  -9.7169    105.0130     67.0390   8.0058211383e+01   4.8923066982e+01    0.2155177    0.2041923 -17.21            0    1.016    0.016
       129  -9.0723     88.4954     60.4655   8.3045448232e+01   5.3347667089e+01    0.1428953    0.1311327 -17.18 6.270853e-05    1.008    0.008
       130  -9.7624     50.1064     59.9628   9.6676870003e+01   5.9204718443e+01    0.1934399     0.163361 -35.29  0.000344655    1.003    0.003
       131 -10.5290    159.3532     57.4421   6.2998501850e+01   3.8016636012e+01    0.4829045    0.3290824  -5.43  0.001552616    2.011    0.503
       132  -9.5951    162.4116     52.3518   6.0765102603e+01   3.8041494659e+01      0.54529    0.1562107 -35.12  0.001685368    3.314    0.698
       133  -8.9160     81.4721     59.5320   8.5085638687e+01   5.4759698373e+01     0.249595    0.1304446  27.17   0.00102775    2.405    0.584
       134  -9.8169    150.8804     57.9651   6.4992753038e+01   4.0056357155e+01    0.2483287    0.2139554  49.94 0.0002923967    1.138    0.121
       135 -10.7254     95.8434     56.3680   7.9222593236e+01   5.2738184303e+01    0.4886423    0.3170395  -0.58  0.002081795    2.290    0.563
       136  -9.9386     60.6992     57.3174   9.1793972522e+01   5.8390124197e+01    0.2888731    0.1981192   3.99   0.00112159    1.786    0.440
       137 -10.1182    200.7841     56.1611   5.5123535242e+01   2.7686431131e+01    0.3217303      0.23443  31.38 0.0008938547    1.715    0.417
       138  -9.4482    206.4543     54.4970   5.3805791495e+01   2.6519938030e+01    0.2343002    0.2186885 -71.59 0.0006691948    1.019    0.019
       139 -10.9045    204.6272     51.0729   5.3139353055e+01   2.7477524238e+01    0.5816239    0.3332308  39.14  0.002431721    2.244    0.554
       140  -9.9027     69.6807     55.9518   8.8005405983e+01   5.7357190146e+01    0.3720254    0.1941016 -32.82  0.001594107    1.965    0.491
       141  -8.8912     34.2455     57.2719   1.0208666930e+02   6.1439801578e+01    0.1968338   0.09861913 -65.88  0.000890774    2.393    0.582
       142  -9.3505    105.2646     56.1522   7.6233822197e+01   5.0891529986e+01    0.2452903     0.183434  33.97  0.000703724    1.357    0.263
       143  -9.7342     86.6448     54.9108   8.1703420314e+01   5.4725523962e+01    0.2409268    0.1978124  42.90 0.0001404102    1.325    0.245
       144 -10.1383    145.4527     53.2555   6.4670130560e+01   4.2162596225e+01     0.374052    0.2645538  84.19  0.001049401    1.917    0.478
       145  -9.9879    134.8590     53.3791   6.7207704611e+01   4.4722198383e+01    0.4417764    0.1979208 -39.85  0.001671982    2.257    0.557
       146 -10.8057    179.2557     52.2216   5.7557950822e+01   3.3750231417e+01    0.4519863    0.2513045 -42.25 0.0008142613    1.797    0.443
       147  -8.8458     29.2997     52.9374   1.0282476116e+02   6.2782757360e+01    0.1738236    0.1273316 -46.22 0.0003604534    1.102    0.093
       148 -10.5458    233.5312     50.9134   4.9255204528e+01   2.0518363012e+01    0.3267153    0.2394425 -56.22  0.001390421    1.290    0.225
       149  -9.9806    106.7233     51.4852   7.4124518327e+01   5.1398658012e+01    0.2511231    0.2353746  -9.34 0.0003329833    1.032    0.031
       150 -10.2488     81.5358     50.3165   8.1766803463e+01   5.6469399173e+01    0.4056539    0.1579195 -46.02  0.001531117    2.702    0.630
       151  -9.9511     84.2646     46.9160   7.9558240765e+01   5.6584959718e+01    0.2791111    0.2127688  38.82  0.001067892    1.361    0.265
       152 -10.5964     18.3684     51.0401   1.0683129112e+02   6.4024569749e+01    0.5244771    0.2477704   2.19   0.00254811    2.999    0.667
       153  -9.7239     55.1768     50.7694   9.1666594485e+01   6.0416638908e+01    0.2374641    0.1611599 -37.57 0.0003230144    1.279    0.218
       154 -11.5154     59.5280     47.8717   8.8936029159e+01   6.0381000099e+01    0.4301638    0.3142927  26.83  0.001297725    1.457    0.313
       155  -9.6647     48.8880     49.8957   9.3853795183e+01   6.1375566841e+01    0.2438221    0.1816635 -18.84 0.0005289853    1.309    0.236
       156  -9.5570     43.7610     48.8439   9.5570269567e+01   6.2176808145e+01    0.3286372    0.2460828  -4.28  0.001561195    1.414    0.293
       157  -9.4314    213.0259     49.9827   5.1652732862e+01   2.5553740644e+01    0.2323747    0.1733405  28.62  0.001138548    1.751    0.429
       158  -8.6035    126.1601     57.3590   7.0776324919e+01   4.6103969987e+01    0.2007316    0.1419133  61.94 0.0001649607    1.598    0.374
       159  -9.2082     97.1104     48.2385   7.5857673625e+01   5.3918180529e+01    0.3250586     0.186281 -26.19 0.0007158245    1.869    0.465
       160  -9.8367     35.1705     47.4928   9.8682391243e+01   6.3344402108e+01     0.269452    0.1439931 -45.82  0.001066621    1.520    0.342
       161  -8.6882     11.1324     48.3528   1.0916867112e+02   6.5043378477e+01    0.1391092    0.1048594  27.98 0.0004520412    1.674    0.403
       162 -10.2775    143.8251     42.6044   6.1451699037e+01   4.4182331228e+01    0.2950756    0.2548328 -84.90  0.001548259    1.329    0.248
       163  -8.6063     67.4926     46.4909   8.5390138092e+01   5.9467596454e+01    0.1352428    0.1180409 -18.30 0.0002091365    1.016    0.016
       164 -10.8840    167.3713     43.3608   5.6983455339e+01   3.8098519212e+01    0.3690371    0.3260923  28.18 0.0008819018    1.222    0.182
       165  -9.3792    108.8646     44.1583   7.0801717033e+01   5.2141177391e+01    0.2601397    0.2426462  67.11  0.001480708    1.246    0.197
       166  -9.4067    126.0863     50.4148   6.8385570533e+01   4.7273833027e+01    0.3054885    0.2182289 -20.12 0.0007927288    1.512    0.339
       167 -10.1818    173.8840     52.4652   5.8600256957e+01   3.5090750752e+01    0.3057335    0.2051672  -9.81  0.001319239    1.966    0.491
       168  -8.8215    160.3500     44.0484   5.8525598455e+01   3.9801226429e+01    0.2019889    0.1865383 -34.00 0.0004806608    1.118    0.105
       169  -8.8587    187.4931     43.4977   5.3603052912e+01   3.2900890424e+01    0.1472295     0.137851 -79.94 0.0008104568    1.031    0.030
       170  -8.4681      8.4282     43.1903   1.0895693833e+02   6.6252726690e+01    0.1547079   0.09672033 -67.33 0.0004811731    1.585    0.369
       171  -9.8435     56.2995     41.8243   8.7946347110e+01   6.1939568364e+01    0.2271478    0.1744902  41.38 0.0009011598    1.580    0.367
       172  -9.5838     44.7251     39.9767   9.1999475419e+01   6.3753038485e+01    0.3579111    0.2072136 -55.51   0.00182367    2.024    0.506
       173  -9.5895     47.9347     37.1341   8.9557298523e+01   6.3877249575e+01    0.2259845    0.1619103 -33.77   0.00135141    1.191    0.160
       174 -10.4440     31.8503     40.0150   9.7570149993e+01   6.5119400552e+01    0.3609478    0.1374131 -46.27 0.0008134076    2.084    0.520
       175  -9.2462    204.0171     41.0482   5.0476665136e+01   2.9040343923e+01    0.2449532    0.1564579 -61.45  0.001116626    1.713    0.416
       176 -10.3919     81.9500     37.1622   7.6535317733e+01   5.8621951892e+01    0.4369273    0.2334587 -32.28  0.001178979    1.802    0.445
       177  -9.0951     75.2443     38.0121   7.9235342747e+01   5.9670335828e+01    0.1978013    0.1757531  -4.04 0.0003539603    1.036    0.035
       178  -8.9275     77.6462     35.2988   7.7276702621e+01   5.9687814265e+01    0.1894739      0.16349 -69.46  0.000781448    1.712    0.416
       179 -10.6994     78.4971     31.0334   7.5207378882e+01   6.0190064982e+01    0.3302526    0.2639448 -47.02 0.0005458701    1.531    0.347
       180 -10.7902    127.3009     37.1408   6.3330671365e+01   4.8984229573e+01    0.3717541    0.2969339 -42.17 0.0009560253    1.351    0.260
       181 -10.2128    156.9594     38.1529   5.7268994623e+01   4.1490543764e+01    0.4333788    0.2305335  39.49  0.001746005    2.143    0.533
       182  -8.8824    149.4995     38.8869   5.8992776953e+01   4.3284592266e+01    0.2194597    0.1458445 -29.99  0.001022623    1.561    0.359
       183  -9.3772    249.3158     37.6401   4.4352765101e+01   1.8744147872e+01    0.2874979    0.1356301 -53.74 0.0009283869    2.069    0.517
       184  -9.1044    245.7499     35.3841   4.4176995914e+01   1.9830303251e+01    0.2599221    0.1215806  66.68  0.001192983    2.190    0.543
       185  -8.7215    102.1747     36.8634   6.9961414605e+01   5.4683772846e+01    0.1960536     0.154205  10.54 0.0005146936    1.313    0.238
       186  -9.2332     69.5650     36.5707   8.0732134068e+01   6.0854618263e+01    0.2260401    0.1716015 -36.44  0.001297532    1.294    0.227
       187  -8.9005     27.8142     36.8198   9.8239191756e+01   6.6099326132e+01    0.1584429    0.1313264 -54.23   0.00106097    1.348    0.258
       188  -9.1045     94.0614     35.7049   7.1972056892e+01   5.6525951845e+01    0.1888607    0.1627482  21.30 0.0003143495    1.086    0.079
       189  -9.3879     62.5113     36.2608   8.3296785427e+01   6.2013109647e+01    0.2497346    0.1747541  23.09  0.001211397    1.463    0.317
       190  -9.5342     42.9981     34.9740   9.0814578324e+01   6.4861241184e+01    0.1966132    0.1538294 -18.61 0.0005611934    1.100    0.091
       191  -9.5222     33.1954     34.3268   9.4894019053e+01   6.6048939066e+01    0.2388057    0.1731419  36.42  0.001466938    1.746    0.427
       192 -10.2409    224.5473     32.4358   4.5672246609e+01   2.5128580225e+01    0.3112001    0.1773244 -21.38  0.001423804    2.095    0.523
       193  -9.2373    150.0859     33.9987   5.7230250328e+01   4.3792674005e+01    0.2117345    0.2079531  35.84 0.0003472637    1.039    0.038
       194 -10.4686    102.8353    248.6234   1.1493986313e+02   1.0898973273e+01    0.4402643     0.190728  45.14  0.002367742    1.775    0.437
       195 -10.4901    238.8921     22.8926   4.1894867704e+01   2.2945821984e+01    0.4147631    0.2341734  65.19  0.001444154    1.783    0.439
       196  -9.1640    184.8076     33.3413   5.1040281790e+01   3.4951137400e+01    0.2031707    0.1770628 -57.57  0.001116801    1.145    0.126
       197  -9.4919    142.0804     32.3864   5.8306163310e+01   4.6015341958e+01    0.3612219    0.2685913  60.89  0.001832282    1.300    0.231
       198  -9.7615    202.2184     30.3915   4.7792551371e+01   3.0884951816e+01    0.5221653    0.2446822 -66.63  0.001824143    3.319    0.699
       199  -9.0413    194.2402     32.2262   4.9363780084e+01   3.2676153214e+01    0.1954849    0.1524872 -67.09 0.0003395738    1.305    0.234
       200  -8.8656    120.3255     32.1053   6.3184543671e+01   5.1314257709e+01     0.191052    0.1747275  -8.86 0.0004628548    1.102    0.092
       201  -9.8653    110.9311     29.9623   6.4794098137e+01   5.3745864403e+01    0.5162433    0.3330988 -77.03  0.002007177    3.350    0.702
       202  -9.4246    107.5224     29.5260   6.5547757447e+01   5.4560880608e+01    0.4496965    0.2223079  68.35   0.00159508    3.510    0.715
       203  -9.0946     20.4667     30.8505   9.9490659713e+01   6.7838380113e+01    0.1783253    0.1551054  14.18 0.0009910055    1.379    0.275
       204 -10.3501     16.7815     27.1967   9.9919955044e+01   6.8795631785e+01    0.2807093    0.1655955 -36.52 0.0006433355    1.325    0.245
       205 -10.2594    181.2913     28.3331   5.0080622959e+01   3.6484153753e+01    0.5741447    0.2895537  33.21  0.002107305    3.093    0.677
       206  -9.5889    125.5308     30.0624   6.1153481605e+01   5.0355715701e+01    0.2589825    0.1774421  38.39 0.0003817709    1.427    0.299
       207  -8.7994     71.1416     30.2154   7.7500854630e+01   6.1598487010e+01    0.1975631    0.1034916  52.46 0.0008691681    2.606    0.616
       208  -9.7006    237.5188     26.9950   4.2996651173e+01   2.2761474397e+01    0.2655084    0.2163869  10.81   0.00103305    1.722    0.419
       209  -9.9738    119.2950     26.9920   6.1500142628e+01   5.2215254704e+01    0.6290159    0.2505367  37.24  0.002191882    3.098    0.677
       210  -9.1699    215.3107     28.0100   4.5576477146e+01   2.7924541741e+01    0.1878723    0.1711023 -43.84 0.0004745128    1.137    0.121
       211  -9.7816     80.9984     26.0565   7.2228196946e+01   6.0448020244e+01    0.3339206    0.2269906 -48.42  0.001725081    1.927    0.481
       212  -9.0111     31.2888     26.6805   9.2750431335e+01   6.7599737695e+01    0.1888153    0.1411513 -36.65 0.0003776784    1.171    0.146
       213  -9.8890     29.5224     23.4858   9.2253508180e+01   6.8324365195e+01    0.2137719    0.1508093 -30.06 0.0006054146    1.131    0.115
       214  -9.0440    222.0636     26.5276   4.4451508640e+01   2.6464558500e+01    0.1957023    0.1266668  72.15 0.0003527138    1.507    0.336
       215  -8.8397    206.0052     26.0254   4.6138143251e+01   3.0472266708e+01    0.1682459    0.1533892 -71.52 0.0004589069    1.027    0.026
       216  -8.8775    197.1937     25.8565   4.7181824136e+01   3.2712431449e+01    0.2173368    0.1756095 -69.14 0.0006986004    1.215    0.177
       217 -10.1994     47.9762     28.9224   8.6191771327e+01   6.5280626610e+01    0.3207836    0.1933196  38.94  0.001769991    1.931    0.482
       218  -8.9969     68.4528     25.4573   7.6439290376e+01   6.2758727418e+01    0.1303586    0.1118099  -2.88 2.367329e-05    1.030    0.029
       219  -9.7412    227.7245     23.5320   4.3119041617e+01   2.5474170152e+01    0.3854423    0.1732859 -70.77  0.001432143    3.209    0.688
       220  -9.5377    179.0591     23.0880   4.8839832447e+01   3.7684090068e+01    0.3001198    0.2036907 -58.74  0.001367557    1.597    0.374
       221 -12.5624     76.6059    219.1712   1.1703094565e+02   1.9882777390e+01    0.8242874    0.4783199  46.06   0.00255813    1.472    0.321
       222  -8.7568     34.6265     24.2609   9.0172756283e+01   6.7656773430e+01    0.1740494   0.09089959 -34.18 0.0004190969    1.623    0.384
       223  -9.0289     62.5287     23.1477   7.7676148187e+01   6.4063002930e+01     0.185828    0.1139612 -31.40  0.001004804    1.515    0.340
       224  -9.9030     52.8193     21.0555   8.0657905346e+01   6.5845624791e+01    0.4674012    0.2406915 -10.30  0.001973746    3.017    0.669
       225  -9.9039      7.9791     22.3218   1.0252071556e+02   7.0289344395e+01     0.279469    0.1743935 -17.29  0.001165372    1.530    0.346
       226  -9.9631      1.9777     22.1609   1.0555347176e+02   7.0664311804e+01    0.2387752    0.1704156 -50.24  0.001642693    1.208    0.172
       227  -8.3111    213.6993     22.7008   4.4377372825e+01   2.8962649075e+01    0.1313051    0.1024351  37.68 0.0006998433    1.581    0.367
       228  -9.2605    132.0535     21.3537   5.6478076698e+01   4.9833571143e+01    0.3337302    0.2028326 -52.74  0.001501568    2.122    0.529
       229  -8.6268    142.1336     21.6335   5.4538390057e+01   4.7304811350e+01    0.2160161    0.1113374  50.77 0.0005678078    1.758    0.431
       230 -12.1425     69.3553    218.3629   1.1835509313e+02   2.1027237091e+01    0.6427836    0.3550185  69.43  0.002136258    1.791    0.442
       231  -9.4260    223.1050     20.1310   4.2738275777e+01   2.6980057081e+01    0.2050501    0.1747759  50.29  0.001220623    1.357    0.263
       232 -10.1918    111.0197     19.2597   6.0534429877e+01   5.5045162355e+01    0.2946833    0.2209675  43.90 0.0006671892    1.213    0.176
       233 -10.1703    149.8694     18.3276   5.1968708447e+01   4.5717494020e+01    0.2810249    0.2394481  -6.94 0.0005650437    1.297    0.229
       234  -8.9260    119.5098     19.4673   5.8555498812e+01   5.3057840610e+01    0.1420802    0.1234843  32.58 3.473884e-05    1.059    0.055
       235  -9.7156     28.9705     18.2778   9.0245732145e+01   6.9240068073e+01     0.197546    0.1389149 -31.83 0.0004633433    1.172    0.147
       236  -8.9666    123.9979    206.0106   1.0591469633e+02   1.5127834534e+01     0.182628    0.1591168  53.74            0    1.019    0.019
       237  -9.4776      1.3617    185.4640   1.2905040148e+02   3.5153695216e+01    0.2889035   0.08117698 -78.67  0.001333767    2.833    0.647
       238  -9.6936     13.1604    174.8304   1.2603429052e+02   3.6402877326e+01    0.1555139    0.1173221 -69.52  0.001084791    1.352    0.260
       239 -10.8133      6.2197    168.8629   1.2706301604e+02   3.8279283109e+01    0.2371675     0.158864  30.15    0.0015915    1.862    0.463
       240 -10.6924     18.9889    160.4880   1.2365945870e+02   3.9049921332e+01    0.2667786    0.1004005 -59.80  0.001277693    2.423    0.587
       241 -10.2572      7.2089    157.0671   1.2600553097e+02   4.0790919225e+01    0.1756706    0.1315966 -67.60 0.0005754353    1.314    0.239
       242 -11.3504      2.7134    153.2298   1.2671600221e+02   4.1980404180e+01    0.3996882    0.2017322 -61.35 0.0009494844    1.824    0.452
       243 -10.8157     19.4917    153.7391   1.2294631236e+02   4.0530177762e+01     0.235905    0.1453205 -56.76  0.001405997    1.661    0.398
       244 -10.6644     11.2828    152.9952   1.2476787089e+02   4.1381411355e+01    0.2974793    0.1025932 -69.12  0.001424314    2.230    0.552
       245  -8.8428    217.3153     15.5678   4.2169673876e+01   2.8901772189e+01    0.1880136    0.1136079  61.47 0.0006724984    1.631    0.387
       246  -9.0664     21.3055    148.3438   1.2200788666e+02   4.1605224704e+01    0.1208675   0.07841761 -51.97 0.0003909598    1.689    0.408
       247 -10.8630      6.2966    140.5959   1.2488011533e+02   4.4561249731e+01    0.4628907    0.2196181 -36.26  0.001890668    3.653    0.726
       248  -8.7533     35.5492    142.5120   1.1786596069e+02   4.1635303813e+01    0.1278419    0.1039889 -83.99 0.0001667825    1.006    0.006
       249  -9.3192     21.1416    142.1306   1.2142082009e+02   4.3052176290e+01    0.1757287    0.1424347 -62.98 0.0007834457    1.256    0.204
       250 -12.4648    229.0892    136.1176   7.0729099889e+01   7.7616165413e+00     1.096615    0.6554786  47.79  0.005158323    1.785    0.440
       251 -13.1029    233.8773    127.5481   6.7924914707e+01   8.2341599231e+00     1.358052     1.067202 -16.41  0.007295268    1.259    0.206
       252 -12.1468    215.1101    132.1690   7.2338367659e+01   1.1329546528e+01     1.413728    0.9586695 -57.33  0.006440121    1.896    0.473
       253  -8.8202     46.9964     10.2335   7.7965499361e+01   6.8194986352e+01    0.1524142   0.09263338  33.64 0.0008814269    1.637    0.389
       254 -12.7441    220.9610    116.2158   6.7455704504e+01   1.2881907186e+01     2.259151     1.514873  19.96   0.01003967    2.012    0.503
       255  -9.2169     28.8025    138.1665   1.1906184300e+02   4.3300121067e+01     0.160653    0.1344154 -51.55 0.0008005662    1.346    0.257
       256  -9.0923      1.0000    136.9458   1.2583994747e+02   4.5749074171e+01    0.1914443   0.05159774 -76.23 0.0004922141    2.842    0.648
       257  -9.6887     32.8255    128.2231   1.1675459768e+02   4.5274887178e+01    0.3293502    0.1416573 -65.78  0.001558207    1.872    0.466
       258  -9.7061     31.0011    124.2923   1.1671897841e+02   4.6375300214e+01    0.2400157    0.1495889 -64.35 0.0005128566    1.326    0.246
       259  -9.7581     38.7460     17.8390   8.5382104223e+01   6.8205243208e+01    0.1991009    0.1395155   9.78 0.0006841882    1.380    0.275
       260  -8.9016     66.7524     13.1923   7.1449979861e+01   6.4693865099e+01    0.1965854   0.07942327  37.55 0.0006836958    2.419    0.587
       261  -8.7070     37.5014    126.5340   1.1524507404e+02   4.5228123682e+01    0.1300873    0.1076001 -80.87 0.0002411451    1.037    0.035
       262  -9.1648     74.7383    122.3428   1.0403248642e+02   4.1744137112e+01    0.3490396    0.1869382  50.27  0.001530389    2.123    0.529
       263  -8.9659     76.4657    119.4977   1.0296152629e+02   4.2176157961e+01    0.2476734    0.2046541 -39.90 0.0005492261    1.288    0.224
       264  -9.9796     12.9977    123.2008   1.2146785411e+02   4.8086578910e+01    0.1743509    0.1392229 -45.92 0.0009058764    1.419    0.295
       265  -9.2482      3.1456    122.5258   1.2399766530e+02   4.8897633078e+01    0.2476568    0.1495472 -27.93   0.00142893    2.409    0.585
       266  -8.6581     93.2779    122.7004   9.8859928538e+01   3.8773212220e+01    0.1876734    0.1411372  28.33  0.000205626    1.534    0.348
       267  -8.4942     90.0337    122.2162   9.9666054988e+01   3.9424344671e+01    0.1757175    0.1602164 -65.92            0    1.021    0.021
       268  -9.4580     20.7751    119.0611   1.1885201546e+02   4.8473335853e+01    0.2225284     0.126758 -58.68 -0.0006383859    1.486    0.327
