#   1 NUMBER                 Running object number                                     
#   2 MAG_AUTO               Kron-like elliptical aperture magnitude                    [mag]
#   3 X_IMAGE                Object position along x                                    [pixel]
#   4 Y_IMAGE                Object position along y                                    [pixel]
#   5 X_WORLD                Barycenter position along world x axis                     [deg]
#   6 Y_WORLD                Barycenter position along world y axis                     [deg]
#   7 A_WORLD                Profile RMS along major axis (world units)                 [deg]
#   8 B_WORLD                Profile RMS along minor axis (world units)                 [deg]
#   9 THETA_WORLD            Position angle (CCW/world-x)                               [deg]
#  10 FWHM_WORLD             FWHM assuming a gaussian core                              [deg]
#  11 ELONGATION             A_IMAGE/B_IMAGE                                           
#  12 ELLIPTICITY            1 - B_IMAGE/A_IMAGE                                       
         1 -16.5436     73.0117    193.3961   1.3484958908e+02   2.5726919112e+01      2.92011     2.035305  68.99   0.01479621    1.341    0.254
         2 -15.6983    136.9690     74.1420   9.2880668044e+01   4.0536873025e+01     2.600479     1.817729  27.49   0.01192455    1.699    0.411
         3 -12.5675     19.1224     70.0146   1.2839584016e+02   5.9394247140e+01     1.425897    0.8855544 -30.44  0.008860853    1.550    0.355
         4 -13.9431     83.1804     49.5306   1.0005759435e+02   5.5510061534e+01     1.493907     0.788595 -34.60  0.007245938    1.835    0.455
         5 -14.0520     73.5612     56.3415   1.0549661071e+02   5.5932003165e+01     1.213242    0.6571576 -41.35   0.00603935    1.748    0.428
         6 -13.2504     52.7703     46.0878   1.0926326204e+02   6.0561565421e+01     1.168858    0.6127252 -15.46   0.00525123    2.789    0.641
         7 -13.6589     72.9409     45.4417   1.0197461550e+02   5.7825037321e+01     1.160528    0.7096592 -10.66  0.005789288    2.022    0.505
         8 -14.1643     65.6935     41.3876   1.0300097042e+02   5.9553774225e+01      2.15589     1.097031  -5.64   0.00738073    4.837    0.793
         9 -12.7563    249.7663     56.5606   6.8478027220e+01   1.6297353560e+01     1.024695    0.1974082 -39.18  0.003227215    4.086    0.755
        10 -16.7890    137.7471    104.9911   1.0144861682e+02   3.4307634678e+01     4.095715     3.221135 -85.80   0.01901892    1.634    0.388
        11 -14.4473     11.6239      7.7924   1.1158523859e+02   7.0503365969e+01     1.187526    0.7106505   4.71   0.00777683    1.560    0.359
        12 -13.0784    184.5388     14.0741   6.6425639659e+01   3.7392279179e+01    0.5823559    0.1631046  59.97   0.00217047    2.801    0.643
        13 -13.5645     56.0913      6.3060   9.2469463716e+01   6.5495782055e+01    0.7643299    0.4761288  -1.51  0.004752864    1.548    0.354
        14 -11.8710    198.4770      3.9763   6.2217111004e+01   3.5036763839e+01     0.477438    0.2070995 -77.43  0.001736535    3.682    0.728
        15 -12.7264    163.5033      7.2268   6.7492772240e+01   4.3212405194e+01    0.4990599    0.4044562  39.56  0.003042821    1.313    0.238
        16 -13.3134    108.9527    215.7043   1.3025343707e+02   1.5288125194e+01    0.4834431    0.3845312  64.71  0.002891653    1.094    0.086
        17 -12.0875     94.2185    247.8698   1.3683608075e+02   1.1479990414e+01    0.3884649    0.2509511  82.43   0.00232425    1.598    0.374
        18 -12.2511    109.6534    209.0757   1.2920610360e+02   1.6531722768e+01    0.2972105    0.2293928  52.68   0.00108367    1.169    0.144
        19 -13.3162    121.9547    209.6099   1.2671289013e+02   1.4281788005e+01    0.7315102    0.3616092 -42.59  0.003062161    2.810    0.644
        20 -12.1692     74.0630    244.4737   1.4011018455e+02   1.5104712644e+01    0.4297863    0.2244105  71.57   0.00230755    1.965    0.491
        21 -10.9117    180.9755    204.1651   1.1347530583e+02   4.2562807805e+00    0.2399868    0.1569949  19.59  0.001094288    2.001    0.500
        22 -10.8899    130.5079    203.4807   1.2397272593e+02   1.3996903470e+01    0.2405333    0.1334572 -68.61  0.001035352    2.299    0.565
        23 -10.7066    175.2725    202.9834   1.1443737249e+02   5.5747418357e+00    0.2707015    0.1732662  31.43  0.001287251    1.634    0.388
        24 -10.8154    139.9702    200.6756   1.2149530294e+02   1.2812882778e+01    0.2089374     0.174463  55.37 0.0009300754    1.090    0.083
        25 -11.8685    189.2107    198.1860   1.1068359435e+02   3.7576150566e+00     0.346075    0.2645725 -54.94  0.001825776    1.525    0.344
        26 -13.0102    150.0120    210.3266   1.2095615548e+02   9.0026739009e+00    0.6115106    0.5280585  60.00   0.00327663    1.088    0.081
        27 -10.6531    153.2108    199.4385   1.1845150571e+02   1.0535148501e+01    0.2751956    0.1311255  39.23  0.001124055    2.040    0.510
        28 -11.5310    109.2050    198.6130   1.2779869735e+02   1.8822777045e+01    0.2655557    0.2098367  41.59  0.001215303    1.311    0.237
        29 -10.7361     38.5802    198.7440   1.4247349943e+02   2.9037589692e+01    0.1723134   0.09510484 -86.16 0.0008644931    1.618    0.382
        30 -10.7424    204.2401    195.7414   1.0718452022e+02   1.2977613521e+00    0.2827682     0.195473 -27.05  0.001358881    1.594    0.373
        31 -10.3724    164.2813    195.9718   1.1547536498e+02   9.0650476454e+00     0.199415    0.1970349  64.96  0.001179031    1.073    0.068
        32 -11.4967    192.5321    192.0463   1.0882967038e+02   4.2365904002e+00    0.4151694    0.2625802 -50.67  0.001962561    1.795    0.443
        33 -12.6602    140.1225    189.6005   1.1956999156e+02   1.5089169972e+01    0.5707775    0.3442186 -49.07  0.002641003    1.771    0.435
        34 -10.8038    247.9957    191.9921   9.8192993215e+01  -6.0147954685e+00    0.1924895    0.1693167 -74.42  0.001143744    1.716    0.417
        35 -12.5024    204.6109    185.9909   1.0518702706e+02   2.9711153461e+00    0.6319633    0.4583788 -31.93  0.003246802    1.437    0.304
        36 -12.1566     42.0007    187.2636   1.4064832973e+02   3.1146797748e+01    0.2950804    0.2098923  67.93  0.001490468    1.266    0.210
        37 -11.0710     38.4943    186.4998   1.4129126536e+02   3.1720256350e+01    0.2180904      0.18356 -66.69  0.001484955    1.322    0.244
        38 -11.6712    129.5939    184.3566   1.2099351078e+02   1.8230313313e+01    0.4654677    0.2444618  51.21  0.001773901    1.876    0.467
        39 -11.6957      9.6250    187.0691   1.4706731768e+02   3.4539365065e+01    0.3617517    0.2368792  84.96  0.002444659    1.189    0.159
        40 -11.6441    120.7357    180.9950   1.2241293413e+02   2.0628983374e+01    0.3441109    0.2849954 -14.01  0.001768538    1.733    0.423
        41 -12.7190    143.9402    208.2452   1.2188933624e+02   1.0546193424e+01    0.6308421    0.2873066 -46.72  0.002648468    2.494    0.599
        42 -12.4615    146.3515    190.8021   1.1841416355e+02   1.3629362237e+01    0.5971732    0.3070855 -70.56  0.002034159    3.632    0.725
        43 -11.8662    131.5459    178.6453   1.1953048580e+02   1.9112086141e+01    0.4240639    0.3260228 -23.91  0.001623111    1.820    0.451
        44 -11.2527    147.4948    178.4272   1.1587642270e+02   1.6023904621e+01    0.3103789    0.1470153 -49.86  0.001221096    2.201    0.546
        45 -11.5090    165.1755    176.9629   1.1165833083e+02   1.2734584810e+01     0.337306    0.2062915 -39.13  0.001480134    1.811    0.448
        46 -12.7029     96.9552    173.6244   1.2665346241e+02   2.6492427808e+01     0.465317    0.2980655 -59.12  0.002130889    1.513    0.339
        47 -15.2027     96.1155    192.7042   1.2977467811e+02   2.2315692668e+01     1.700702    0.9307209 -71.45  0.007865886    1.974    0.493
        48 -10.9036    157.7664    212.5045   1.1970402183e+02   7.1305568254e+00    0.2981003    0.2078352 -86.99  0.001420221    2.144    0.534
        49 -11.8184    109.0385    173.3235   1.2378253381e+02   2.4482248442e+01    0.3521987    0.2769774  55.88  0.001376692    1.226    0.184
        50 -12.3754    105.9963    170.5074   1.2400737234e+02   2.5665680571e+01    0.5149663    0.2562532  34.64  0.002095321    2.329    0.571
        51 -10.2367    181.5956    172.7834   1.0724700571e+02   1.0177684130e+01    0.2093992    0.1420602 -55.84 0.0009486624    1.673    0.402
        52 -12.6148    144.7091    171.0169   1.1507087884e+02   1.8193511798e+01    0.4288525    0.3946562  63.95  0.002338587    1.040    0.038
        53 -11.2889    171.1358    171.1652   1.0917324940e+02   1.2697953693e+01    0.3750625    0.2415693 -23.14  0.001541378    2.243    0.554
        54 -12.3017    116.3835    171.8441   1.2180305553e+02   2.3494245690e+01    0.3411093    0.2693055 -26.86  0.001581896    1.724    0.420
        55 -11.1285     30.0048    213.9836   1.4539589976e+02   2.6813573550e+01    0.1870859    0.1367915  79.19  0.001304191    1.027    0.026
        56 -11.0180    215.2912    168.2732   9.9399173690e+01   4.0940709528e+00    0.3988297    0.3072951 -78.02  0.001916804    1.935    0.483
        57 -12.7545    151.6131    167.5398   1.1279482768e+02   1.7541771196e+01    0.6162224    0.3799804  56.13  0.002656104    1.735    0.424
        58 -11.6010     50.0501    168.9871   1.3679769885e+02   3.4323073013e+01    0.2011254    0.1664539 -79.34 0.0006792473    1.064    0.060
        59 -11.8571    163.2757    164.6889   1.0956376213e+02   1.5716062501e+01    0.4791873    0.2886385  69.51  0.001780946    2.632    0.620
        60 -12.3108    122.5125    163.2381   1.1874569687e+02   2.4315733522e+01    0.3572325    0.2615871 -14.64  0.001561838    2.245    0.554
        61 -12.0207     90.3968    163.6676   1.2654824448e+02   2.9884514353e+01     0.415791    0.1739684  48.94  0.001396094    2.507    0.601
        62 -11.8647     96.3976    161.9931   1.2480965544e+02   2.9291460495e+01    0.3646637    0.1690604 -58.25  0.001497144    2.065    0.516
        63 -11.4387    124.6810    169.1352   1.1935761000e+02   2.2556962439e+01    0.2409351    0.1855331 -79.26 0.0009465223    1.418    0.295
        64 -11.4861    180.7776    159.9250   1.0468294438e+02   1.2970553414e+01    0.4394728    0.2977464  32.86  0.001967166    1.619    0.382
        65 -11.5805     59.6877    159.5191   1.3326680259e+02   3.5319231961e+01    0.3657435    0.2250926 -79.26  0.001876796    1.582    0.368
        66 -10.6906    221.1120    160.1209   9.6520396717e+01   4.4203459898e+00    0.2320788    0.1977235  -0.67  0.001113051    1.249    0.199
        67 -11.1847    157.5030    158.5921   1.0957513763e+02   1.8255506995e+01    0.3177418    0.1520049 -47.53  0.001201838    2.133    0.531
        68 -12.3792     91.7410    158.1307   1.2526268206e+02   3.0968065576e+01    0.3712989    0.2772666  39.35  0.001946037    1.442    0.307
        69 -10.6668     51.0203    156.4626   1.3489686453e+02   3.7110672145e+01    0.2548139    0.1630454 -87.35   0.00122979    1.566    0.362
        70 -11.9342     19.3298    154.1359   1.4198578702e+02   4.0922442570e+01    0.4501348    0.3198174 -81.31  0.002940635    1.114    0.102
        71 -13.5536    126.9540    151.3591   1.1527566786e+02   2.6184954128e+01    0.7922776    0.5287428 -30.66  0.003378315    2.012    0.503
        72 -15.2609    117.7792    152.8761   1.1784228114e+02   2.7609036037e+01     1.680466     1.152512  72.09   0.00751621    1.827    0.453
        73 -13.4981    104.7272    148.6338   1.2024367070e+02   3.0996684538e+01     0.787907     0.520923  20.29   0.00342156    2.237    0.553
        74 -14.7186    104.3609    142.4564   1.1908410361e+02   3.2514658176e+01     1.237377    0.8751187 -46.98  0.006032547    1.423    0.297
        75 -11.9940     82.6468    141.8473   1.2457436645e+02   3.6260548921e+01    0.4537117    0.3251407 -20.00  0.002040314    2.147    0.534
        76 -12.3337    167.1621    145.9361   1.0456274906e+02   1.8899304419e+01    0.7392955    0.3651468 -62.23  0.002323926    3.410    0.707
        77 -11.9929    118.7721    142.5924   1.1544273189e+02   2.9810508722e+01    0.3228254    0.2658133 -58.02  0.001086414    1.182    0.154
        78 -12.0105    116.4470    137.8645   1.1500201584e+02   3.1355356895e+01    0.3922656    0.2958103 -23.78  0.001819734    1.753    0.430
        79 -11.6004     89.0665    144.4328   1.2340974576e+02   3.4639396054e+01     0.394378    0.1386222  38.58  0.001412953    2.991    0.666
        80 -11.1777    218.5796    205.3960   1.0623417565e+02  -2.9968365192e+00    0.3251622    0.2471272  23.48  0.001837225    1.252    0.201
        81 -11.5348    177.3360    139.0890   1.0070178467e+02   1.8078495933e+01    0.3363432      0.28082 -41.53  0.001425311    1.205    0.170
        82 -13.4389    104.2759     86.0579   1.0519956436e+02   4.5110636950e+01    0.7269862    0.5761603  32.21  0.003379141    1.313    0.238
        83 -14.1140    101.9902     72.2616   1.0174149064e+02   4.8212678547e+01     1.265176     1.028588  33.17   0.00590572    1.238    0.192
        84 -11.3372     60.8471    248.6844   1.4276399094e+02   1.6168158207e+01     0.392447    0.1359295  50.43  0.001944108    2.274    0.560
        85 -10.1157     68.0523    122.9605   1.2479458680e+02   4.2815852844e+01    0.2171952    0.1534564 -33.31 0.0009608066    1.654    0.395
        86 -14.6475    182.8101    112.3112   9.2946410312e+01   2.2327455406e+01     1.472743      1.26785 -24.89  0.007341556    1.267    0.211
        87 -11.7777    104.8902    116.6565   1.1315296338e+02   3.8404676359e+01    0.4670726    0.2461201 -41.51  0.001821719    1.964    0.491
        88 -10.5926    218.3706    117.5170   8.7295049988e+01   1.3018810463e+01    0.3115315     0.211967  20.17  0.001286069    2.237    0.553
        89 -13.3718    112.9763    130.4728   1.1424181282e+02   3.3730027899e+01    0.6339301    0.5000711 -58.00   0.00318584    1.233    0.189
        90 -10.8388    157.4132    153.7143   1.0853621867e+02   1.9339069703e+01    0.2156417    0.1475869 -36.94 0.0009465374    1.608    0.378
        91 -13.3984     49.2893     83.8428   1.2163431542e+02   5.3824684226e+01    0.7446314    0.4717061 -61.56  0.003196636    1.599    0.375
        92 -13.4907     40.6075    111.7344   1.3036546523e+02   4.8627959694e+01     1.311594    0.8268642  29.05  0.007387668    1.888    0.470
        93 -13.6532     50.9995     99.4387   1.2477445135e+02   5.0277701448e+01     1.231143    0.6780385 -48.23  0.006291755    1.557    0.358
        94 -13.2409    191.1319    108.2771   9.0210262930e+01   2.1141293964e+01     1.098973    0.6551626 -57.81  0.004394905    2.007    0.502
        95 -11.2930    242.3228    108.6718   8.1209226221e+01   9.3588227277e+00    0.3230629    0.2487811 -56.23  0.001628074    1.280    0.219
        96 -12.5423    101.7566    105.9580   1.1134926249e+02   4.1368536867e+01    0.4446918    0.3190421 -61.33  0.002149111    1.496    0.332
        97 -12.4893     20.5107     92.7461   1.3274686253e+02   5.4568419145e+01     1.811968    0.7554369 -63.76  0.008937003    1.984    0.496
        98 -12.6143    125.7693    129.9929   1.1081920177e+02   3.1331705071e+01    0.4726335    0.3456684 -33.44  0.002180936    1.555    0.357
        99 -10.0674     58.5799    131.3148   1.2897500896e+02   4.2091899862e+01    0.1954669    0.1080292 -53.18 0.0009473423    1.606    0.377
       100 -12.0856    211.7499     95.1622   8.3044085116e+01   1.8689503865e+01    0.7774531    0.4817933 -60.91  0.003306013    1.913    0.477
       101 -11.1473    173.2281     97.0277   9.1001104703e+01   2.7646878898e+01    0.4043145     0.219625 -28.53  0.001501605    2.323    0.570
       102 -12.0141    197.4339     94.1163   8.5373752113e+01   2.2315776092e+01    0.6626974     0.419855 -49.20  0.002918775    1.588    0.370
       103 -10.8588    232.3644    127.7391   8.7209080180e+01   8.0552598249e+00    0.3828088    0.2700059  84.20  0.001729165    2.105    0.525
       104 -10.1651     95.5375     91.9922   1.0941657525e+02   4.5481845518e+01    0.2169835    0.1349928 -46.95 0.0005384161    1.528    0.346
       105 -10.5848     97.3483    121.6318   1.1639680031e+02   3.8607479790e+01    0.2983384    0.1895292  29.55  0.001345439    1.874    0.466
       106 -13.0502    123.1655    228.4382   1.2909154678e+02   1.0363916977e+01    0.3806174    0.3377623  83.53  0.002210394    1.135    0.119
       107 -10.6735    186.0257     80.7245   8.4038597751e+01   2.7536094495e+01     0.219467    0.2030083  67.64  0.001167348    1.058    0.055
       108 -11.6572    112.5436     80.1917   1.0113269978e+02   4.4658089188e+01    0.3812263    0.2336992 -30.90  0.001694974    1.769    0.435
       109 -10.4267    102.3202    114.3238   1.1329105960e+02   3.9399146564e+01    0.2104549    0.1385848 -59.19 0.0009567114    1.565    0.361
       110 -10.3979    233.3078     78.9821   7.5700842700e+01   1.6462067278e+01    0.2094941    0.1806466 -54.02 0.0009338829    1.070    0.066
       111 -10.6328    210.6676     77.9357   7.8940267670e+01   2.1976324525e+01     0.260767    0.2018792  51.31  0.001058763    1.354    0.261
       112 -13.0448    176.9844     64.7785   8.1429511827e+01   3.2490694957e+01    0.6780636    0.5172346  70.99  0.003127159    1.327    0.247
       113 -10.3634    216.2710     72.9663   7.6812001917e+01   2.1458497307e+01    0.2122701    0.1886362 -54.54  0.001172688    1.084    0.077
       114 -11.1875    165.5847     72.0588   8.5747884132e+01   3.4096653711e+01    0.3935194    0.2203056  67.29  0.001551125    2.124    0.529
       115 -11.0232    116.5318     69.2567   9.6698293379e+01   4.5870161010e+01    0.3111046    0.2271251  47.88  0.001402533    1.381    0.276
       116 -13.3062     87.9166    233.0035   1.3645042227e+02   1.5231969227e+01    0.4261436    0.3025129  77.05  0.002631428    1.277    0.217
       117 -11.7281    101.0094    238.7461   1.3461762470e+02   1.2094432859e+01    0.2663952    0.1645018 -78.52   0.00148986    1.801    0.445
       118 -11.0769    144.2868    234.7776   1.2580054841e+02   5.5187764069e+00    0.2905192    0.2116985  64.94  0.001664559    1.409    0.290
       119 -12.2904     73.4477    233.5606   1.3919574626e+02   1.7272775536e+01    0.3000202    0.2054023 -70.99  0.001831505    1.481    0.325
       120 -12.6709     13.2462    228.5434   1.4929223126e+02   2.5721208939e+01    0.6295109    0.3435121  59.86  0.004219424    1.475    0.322
       121 -11.8011    205.3334    230.3381   1.1323715764e+02  -4.5757042574e+00     0.427728    0.2822322  58.24   0.00222359    2.009    0.502
       122 -11.6888    168.5097     63.4815   8.2715687886e+01   3.4805548279e+01    0.2854732    0.2709619  -6.32  0.001535708    1.165    0.142
       123 -11.4063    166.1142     60.1024   8.2229375468e+01   3.5937847610e+01    0.3258804    0.2892756 -27.10  0.001558991    1.221    0.181
       124 -10.3356    214.3280     56.5151   7.3055361066e+01   2.4537792433e+01    0.2512451    0.1288583 -35.99  0.001083279    1.977    0.494
       125 -15.2046    149.9838    131.2922   1.0512275226e+02   2.5899975094e+01      1.88996     1.206486  36.81  0.008001314    1.715    0.417
       126 -11.3252    226.5363     52.1204   7.0326114173e+01   2.2270846651e+01    0.2854638    0.1662559  49.85  0.001335388    1.944    0.485
       127 -13.0278     55.3440    226.3484   1.4183570902e+02   2.1199255594e+01    0.4565295    0.2870705  62.33  0.002843607    1.318    0.241
       128 -10.5971    205.7398     50.6331   7.2842992730e+01   2.7515057192e+01    0.2523269    0.1831297 -22.55  0.001263078    1.698    0.411
       129 -11.2342    220.5054     48.4989   7.0259048801e+01   2.4236378512e+01    0.4313187    0.1559857 -23.16  0.001035365    7.763    0.871
       130 -11.1180    171.2210     46.4230   7.7353332237e+01   3.6716784428e+01    0.3184778    0.1805709  72.40  0.001357118    1.956    0.489
       131 -11.4746    167.0362     44.9776   7.7705422040e+01   3.7959042579e+01     0.307828    0.2309986  44.49  0.001586248    1.346    0.257
       132 -12.5471    124.7855     41.8540   8.5723385443e+01   4.8418015049e+01    0.5729585    0.4119237  57.84  0.003008108    1.401    0.286
       133 -11.1889    113.3552     42.4658   8.8823021600e+01   5.0806542887e+01    0.3205642    0.2690344  16.65  0.001512959    1.170    0.145
       134 -10.5631     81.0110    113.9951   1.1920648653e+02   4.3021415549e+01    0.2279751    0.1720165  85.05 0.0007757862    1.722    0.419
       135 -11.2326    153.8189     34.1739   7.7008393773e+01   4.2635626181e+01    0.2596056    0.2292574  63.31  0.001508643    1.047    0.045
       136 -10.6492    126.7216     32.3946   8.2134943628e+01   4.9217969327e+01    0.2484473    0.1660839 -41.11  0.001073731    1.685    0.406
       137 -10.6053     99.1348     33.0910   8.9421364125e+01   5.4960112345e+01     0.217648    0.1646418  16.00  0.001244187    1.313    0.238
       138 -12.0562     81.5072    146.0102   1.2564340887e+02   3.5448185486e+01    0.3470824    0.2257488  82.71  0.001133226    2.018    0.505
       139 -13.4272     84.9529    237.1747   1.3743801805e+02   1.4880065372e+01    0.7061872     0.295985 -70.30  0.003332972    2.660    0.624
       140 -13.0452     79.3669    222.6498   1.3696633434e+02   1.8573454924e+01    0.4171731    0.2861873 -76.68   0.00251544    1.406    0.289
       141 -11.9114    129.7412    220.4759   1.2668025825e+02   1.0739251874e+01    0.3934568    0.1742139 -47.07  0.001679321    2.744    0.636
       142 -14.0176    122.8301    238.1010   1.3039944780e+02   8.6300542721e+00    0.8906046    0.6816596  48.19  0.005515653    1.145    0.127
