#   1 NUMBER                 Running object number                                     
#   2 MAG_AUTO               Kron-like elliptical aperture magnitude                    [mag]
#   3 X_IMAGE                Object position along x                                    [pixel]
#   4 Y_IMAGE                Object position along y                                    [pixel]
#   5 X_WORLD                Barycenter position along world x axis                     [deg]
#   6 Y_WORLD                Barycenter position along world y axis                     [deg]
#   7 A_WORLD                Profile RMS along major axis (world units)                 [deg]
#   8 B_WORLD                Profile RMS along minor axis (world units)                 [deg]
#   9 THETA_WORLD            Position angle (CCW/world-x)                               [deg]
#  10 FWHM_WORLD             FWHM assuming a gaussian core                              [deg]
#  11 ELONGATION             A_IMAGE/B_IMAGE                                           
#  12 ELLIPTICITY            1 - B_IMAGE/A_IMAGE                                       
         1 -14.7096    192.8741     28.4151   7.2000577358e+01   3.3615912911e+01     2.278218    0.9646348 -39.19  0.006752566    2.275    0.560
         2 -16.7722    186.7899     82.7488   8.8937185429e+01   2.7045332068e+01     4.556442     3.125342 -62.48   0.01965455    1.785    0.440
         3 -15.1838    243.9490    106.3822   8.5298428591e+01   9.5779270885e+00       2.2947     1.345744  -3.04    0.0089277    2.901    0.655
         4 -18.5736    221.3328     86.4064   8.3853347557e+01   1.7881989586e+01     8.821022      7.29543  -3.38   0.04542728    1.389    0.280
         5 -16.1322    212.9593     48.1255   7.4841465526e+01   2.5781805079e+01     1.990442     1.037029 -27.73  0.008328413    2.000    0.500
         6 -11.4790    247.6725     15.3974   6.2641076084e+01   2.1365458372e+01    0.3746375    0.2158234 -39.44  0.001356859    1.549    0.354
         7 -10.0682    122.3813     15.4153   7.9959829543e+01   5.3332423977e+01    0.3659718    0.2127126 -54.60  0.001579901    2.439    0.590
         8  -9.9028    176.8248     12.7340   6.9436694383e+01   3.9645322931e+01    0.3841102    0.2024473  42.96   0.00163547    2.098    0.523
         9 -11.8233    238.5570     10.6282   6.2254042107e+01   2.4053975318e+01    0.3919046    0.2615193  70.40  0.002147794    1.468    0.319
        10 -10.4433     94.9481     11.4129   8.5192347398e+01   5.9962289435e+01    0.2391049    0.1779827  -3.05 0.0004628828    1.343    0.255
        11 -11.5940    143.0050      8.0738   7.3077775490e+01   4.8953390464e+01    0.2643903    0.2544968  12.54 0.0002877054    1.104    0.094
        12 -10.0236    142.2146      3.1729   7.1433560103e+01   4.9599724729e+01    0.3535999    0.1353265  44.02  0.001340259    2.608    0.617
        13  -8.9379     19.2931      8.7021   1.1431041719e+02   7.1978220639e+01   0.09361926   0.08551852 -51.20 0.0002088693    1.564    0.360
        14  -9.9227    201.3619      6.8434   6.4751359978e+01   3.3786048835e+01    0.2260587    0.1729995 -89.71 0.0005540068    1.215    0.177
        15  -9.3903    158.7287      7.0625   7.0179964685e+01   4.4978035347e+01    0.1863809    0.1719888  54.61 0.0003062348    1.054    0.051
        16 -10.1636    210.9211      5.8153   6.3506103052e+01   3.1425126341e+01    0.4282314    0.1938284  53.49  0.001505755    2.276    0.561
        17 -10.1487    210.7417      2.6733   6.2681637439e+01   3.1783925975e+01    0.2404338    0.1875234 -60.13 0.0008171864    1.206    0.171
        18  -9.9650    151.4641      2.3451   6.9662871205e+01   4.7295090557e+01    0.2714862    0.2172375 -55.92 0.0007927176    1.379    0.275
        19  -8.7733     51.2500      3.3130   9.6299144546e+01   6.8848157152e+01    0.1193744   0.07787042   1.18 0.0001912624    1.518    0.341
        20 -10.0142    180.3702      1.5421   6.5536189020e+01   3.9790781389e+01    0.2446913    0.1485112  70.18 0.0003486689    1.469    0.319
        21  -9.8946    165.8365      1.9835   6.7492614781e+01   4.3575517504e+01    0.2473969    0.1876083  68.76  0.001096079    1.181    0.153
        22 -10.0095    117.0240      7.7885   7.8089730208e+01   5.5386098381e+01     0.211307    0.1892392  -6.77 0.0003127932    1.158    0.136
        23  -8.8064    174.2873      1.2957   6.6190882227e+01   4.1413883809e+01    0.1399118   0.09620073  41.86 0.0001920284    1.549    0.354
        24 -10.5478    181.2253    223.2501   1.2015842053e+02   3.7920273096e+00    0.4187602    0.1311178  40.64   0.00169856    2.667    0.625
        25  -9.6325    229.2237    250.6065   1.1584968219e+02  -7.2432243937e+00    0.2144438    0.0773307  33.64   0.00105023    2.340    0.573
        26 -10.1645    232.8366    249.0521   1.1503573624e+02  -7.6194415587e+00    0.1711572    0.1269435  24.97 0.0004387977    1.019    0.018
        27  -9.3301    222.4949    250.5042   1.1693876720e+02  -6.2289895196e+00    0.1132981   0.08422406  29.31 0.0001905672    1.032    0.031
        28  -9.0179    204.9983    249.9938   1.1978192814e+02  -3.4955946246e+00    0.1390246    0.1032203  32.86 0.0003543056    1.004    0.004
        29 -10.1161    165.9176    249.5354   1.2640184377e+02   2.7616712512e+00    0.2158144    0.1565274  61.21  0.001445365    1.492    0.330
        30  -9.7302    124.8525    250.1250   1.3356895257e+02   9.1602459046e+00    0.1755756    0.1212146  59.31  0.000720749    1.219    0.180
        31 -10.2042     93.7988    222.2057   1.3633188102e+02   1.8413565587e+01    0.2039594    0.1490248  60.76 0.0003923235    1.070    0.066
        32  -9.2312      2.4001    222.4886   1.5227911976e+02   2.9411483667e+01    0.1034372   0.06556527  72.32 4.699219e-05    1.056    0.053
        33 -10.8574     60.1917    215.3747   1.4192142480e+02   2.4337450060e+01    0.3568685    0.2213887  54.33  0.001937799    1.292    0.226
        34 -10.3635    179.1580    216.7617   1.1957072604e+02   5.0872853880e+00    0.2169959     0.155881  -1.30  0.000944139    1.975    0.494
        35 -10.2781    124.1784    216.1561   1.2991979066e+02   1.4690381749e+01    0.2185487    0.1776313  53.80 0.0008159069    1.041    0.039
        36  -9.4682    234.9384    214.7386   1.0928363468e+02  -4.1709601154e+00    0.1736276    0.1258105  31.90 0.0004013693    1.159    0.137
        37  -9.5333      2.4226    214.2184   1.5193692220e+02   3.0894892970e+01    0.1574297    0.1173109  36.34  0.001255135    1.783    0.439
        38 -10.1685     89.8394    211.1622   1.3595757657e+02   2.1007542589e+01    0.1887021    0.1703016  38.25 0.0003242532    1.435    0.303
        39 -11.2328     86.9523    208.1263   1.3619910415e+02   2.2004241731e+01    0.2379865    0.1699228  73.75  0.001509265    1.240    0.193
        40  -9.0610     15.3112    212.3411   1.4968734275e+02   3.0013782600e+01   0.09142447   0.07300552 -66.03 0.0004344426    1.696    0.410
        41 -10.7607    183.0737    209.9417   1.1778164533e+02   5.4030188580e+00    0.4013928    0.2532954  76.39   0.00167571    3.646    0.726
        42  -9.1230     96.7784    209.0169   1.3438429597e+02   2.0358872140e+01    0.1424828   0.09561246 -71.23 0.0003226662    1.584    0.369
        43  -9.7601    223.7901    208.3613   1.1011590303e+02  -1.5312019350e+00    0.1803797   0.09668642  34.16 0.0009418356    1.624    0.384
        44  -9.6299    237.5010    207.0163   1.0751547021e+02  -3.6556784543e+00    0.2035557    0.1370737  35.16 0.0008142241    1.284    0.221
        45  -9.6938    250.8946    204.7493   1.0487263166e+02  -5.5484556631e+00    0.3741828   0.08661331 -31.15  0.001329511    4.736    0.789
        46  -9.7061    250.5899    199.0312   1.0389095188e+02  -4.8198930975e+00    0.1661611    0.1088576 -24.62 0.0003693876    1.528    0.346
        47  -8.9301    127.3227    206.6720   1.2809467238e+02   1.5829280551e+01    0.1336896   0.08743421  69.39 0.0007048909    1.692    0.409
        48  -8.8693     39.2912    204.2997   1.4492900287e+02   2.8986355628e+01   0.09459313   0.08223544 -66.41 0.0003753448    1.564    0.360
        49 -10.0993    244.5842    202.0295   1.0543324358e+02  -4.2077302526e+00    0.2088568    0.1465376  26.00 0.0004578524    1.210    0.173
        50  -9.2533    206.7016    202.0246   1.1207985321e+02   2.3109218226e+00    0.1725923    0.1514323  14.31 0.0004198262    1.092    0.084
        51 -10.2130    191.0289    201.3727   1.1487980655e+02   5.2490905343e+00    0.2495537    0.1970186 -89.61  0.001140438    1.989    0.497
        52  -8.9068    111.4555    202.4648   1.3070837381e+02   1.9255522307e+01    0.1317039    0.1030388  64.99 0.0001971841    1.105    0.095
        53  -9.2655     46.5034    201.5171   1.4337007913e+02   2.8686495938e+01    0.1168286   0.08697993  73.32 0.0002802744    1.008    0.008
        54 -10.5454    215.5004    198.4550   1.0985346126e+02   1.2379242461e+00    0.2471524    0.2081575  11.05 0.0008135509    1.110    0.099
        55 -10.3440    212.7690    196.0123   1.0991117712e+02   2.0716917703e+00    0.2341513    0.2023403  -3.70 0.0003477276    1.171    0.146
        56 -10.0177     68.1157    197.6011   1.3883196627e+02   2.6712065034e+01    0.3893057    0.1552036 -71.27  0.001855639    2.544    0.607
        57 -12.4307    202.0819    193.0315   1.1134757676e+02   4.4654247596e+00    0.6554793    0.4596549 -32.57  0.002928027    1.585    0.369
        58 -11.7340    207.8836    191.0749   1.0991321086e+02   3.6809636744e+00    0.4159453    0.3167285  -8.62 0.0008135693    1.462    0.316
        59 -10.2502    180.1444    196.8668   1.1619714849e+02   7.9632936716e+00    0.1949802    0.1692775  56.14 0.0004519821    1.195    0.163
        60 -11.0040    149.2689    196.1880   1.2219621710e+02   1.3812736677e+01    0.2714454    0.2343227 -79.13 0.0008833331    1.320    0.242
        61 -10.3411    166.3276    195.7738   1.1872058886e+02   1.0725115068e+01    0.2237322    0.1945634  68.34 0.0009819093    1.244    0.196
        62 -11.6690    155.7861    194.5497   1.2062551392e+02   1.2899146852e+01    0.5001655     0.306475  51.10  0.002571489    1.479    0.324
        63 -10.8265    142.0687    193.8828   1.2330032703e+02   1.5540852628e+01    0.4712951    0.2916628  82.57  0.002066083    2.753    0.637
        64 -11.2943    143.6355    188.7434   1.2217455992e+02   1.6196568644e+01    0.3250439    0.2466591 -76.56  0.001169014    1.583    0.368
        65 -10.9125    117.4579    189.3789   1.2772604410e+02   2.0752973732e+01    0.4917434    0.2425948 -70.61  0.001563415    2.777    0.640
        66  -8.9338    100.2583    196.3866   1.3221551975e+02   2.2224315350e+01     0.113605   0.09937494 -32.00  0.000697019    1.682    0.406
        67  -9.5684    249.4811    194.8445   1.0330506119e+02  -4.1291187260e+00    0.2260612    0.1490669  35.06  0.001161737    1.364    0.267
        68  -9.7151    106.8635    194.3174   1.3059895886e+02   2.1564306336e+01    0.2404305    0.1598554 -69.74 0.0006309162    1.607    0.378
        69  -9.4230    106.9126    190.5105   1.3008755551e+02   2.2302953437e+01     0.200088    0.1138833  45.07  0.001024325    1.565    0.361
        70 -10.6284    226.4521    190.4306   1.0643104063e+02   3.9390945842e-01    0.3876618    0.1957679 -41.84  0.001864713    2.334    0.572
        71 -10.4207    129.9679    192.4421   1.2556769887e+02   1.7981978463e+01    0.2147691    0.1837077 -81.78 0.0003931538    1.245    0.197
        72 -10.8781    186.8677    191.4257   1.1395544496e+02   7.5694498434e+00    0.2835053    0.2114682  -4.17 0.0007247153    1.720    0.419
        73  -9.2465     48.5996    192.2333   1.4220326722e+02   3.0281476943e+01     0.157435   0.09373607 -66.72 0.0009503418    1.679    0.404
        74  -9.9574    216.5511    189.9500   1.0811670271e+02   2.2498271265e+00    0.1790687    0.1193586 -18.93 0.0007331279    1.693    0.409
        75 -12.0886    214.4481    186.1200   1.0778473493e+02   3.1935390564e+00    0.4638453    0.3507387  18.42  0.002532676    1.296    0.229
        76 -11.1913    213.5624    180.5145   1.0687969323e+02   4.1936310619e+00    0.4035658    0.2271553  59.46  0.001628047    2.581    0.613
        77 -10.9216    230.9955    187.4243   1.0506612222e+02  -2.6139453290e-03    0.2751389    0.2324245  42.43 0.0006848228    1.281    0.220
        78  -9.3665     81.7963    187.8457   1.3500402509e+02   2.6751665984e+01    0.1791946    0.1227677  66.56 0.0006306511    1.299    0.230
        79 -10.1888    110.8916    184.4834   1.2841773192e+02   2.2839644818e+01    0.2724176    0.2145391 -71.86  0.001485184    1.316    0.240
        80 -10.3993    132.3427    246.9976   1.3194937851e+02   8.4560608858e+00     0.226695    0.1307737  47.57 0.0002952628    1.307    0.235
        81 -10.1378     69.5873    247.2202   1.4268324404e+02   1.7555422305e+01    0.1288117   0.09286641 -69.14  0.000949738    1.687    0.407
        82  -9.6380    161.9726    246.2949   1.2669424843e+02   3.8257472408e+00    0.1676258     0.118389  43.44 0.0002169139    1.077    0.071
        83 -15.0457    239.8592     55.4521   7.3278182961e+01   1.8120943992e+01     1.368061    0.9560169 -53.78  0.005453194    1.388    0.279
        84 -14.6000    245.9707     73.2111   7.6934845261e+01   1.4153904515e+01    0.8224167    0.6406569 -67.01  0.002487973    1.394    0.283
        85 -14.3369    241.5778     65.2164   7.5516529417e+01   1.6327615156e+01    0.7197154    0.4855377  86.65  0.001420888    1.803    0.445
        86 -10.8526    215.3524    244.2645   1.1723630857e+02  -4.4650927450e+00    0.2338965    0.1853802  39.03 0.0003699586    1.225    0.183
        87  -9.2717    102.3985    166.7521   1.2766027430e+02   2.7947434858e+01     0.180137    0.1225681 -51.94 0.0008338195    1.615    0.381
        88  -8.8125     33.3020    177.3201   1.4402476226e+02   3.5081675928e+01    0.1049683   0.08191606 -56.66 0.0002572656    1.627    0.385
        89 -11.4714    145.4825    159.7109   1.1668487248e+02   2.1465620118e+01    0.2789154    0.2360862 -86.72 0.0008317534    1.305    0.234
        90 -12.3769    127.0114    156.6199   1.2028622166e+02   2.5710233037e+01    0.4017933    0.3840722 -84.46  0.002374745    1.089    0.082
        91 -15.1595    220.6007     57.2578   7.6258730903e+01   2.2547832134e+01     0.920068    0.6092527  58.92  0.002493927    1.530    0.346
        92  -9.7874     16.0955    156.3466   1.4595174864e+02   4.1199547093e+01    0.2072105     0.126165 -72.20  0.001328045    1.395    0.283
        93 -11.3625    139.0042    155.0495   1.1723985003e+02   2.3707946601e+01    0.2455744    0.2094083  39.93 0.0003425608    1.187    0.157
        94  -9.5938     66.0064    242.6481   1.4295656033e+02   1.8775551423e+01     0.155253    0.1041319  58.10 0.0004729556    1.097    0.089
        95 -10.1733     77.0145    154.4267   1.3171777327e+02   3.4625217717e+01    0.2367288     0.174791 -72.78 9.033749e-05    1.253    0.202
        96 -14.7368    221.1614     64.8776   7.8213468774e+01   2.1282137005e+01     1.255442    0.3641256  57.95  0.004081222    3.286    0.696
        97 -11.0579    129.5118    179.6595   1.2369915678e+02   2.0529129112e+01    0.2738236    0.2016525  62.28 0.0008230408    1.311    0.237
        98 -11.0418    121.7688    150.1436   1.2029594976e+02   2.8086359836e+01    0.3666364     0.233831  50.77  0.001750006    1.507    0.337
        99 -10.1221     42.4741    149.0082   1.3923701280e+02   4.0234029338e+01     0.183502    0.1034107 -73.73 0.0003705143    1.519    0.342
       100 -10.5377     11.6786    146.7915   1.4615553753e+02   4.3633937822e+01    0.3393935    0.1587139  66.83 0.0007671294    2.122    0.529
       101 -10.0482     32.2914    135.7847   1.4017533742e+02   4.4260453888e+01     0.229673    0.1609646 -71.25   0.00086547    1.207    0.171
       102  -9.9403    124.5622    133.2872   1.1620467891e+02   3.1223757952e+01    0.2030187    0.1400896 -42.19 0.0008616114    1.576    0.365
       103  -9.6459     73.9675    128.3225   1.2827754804e+02   4.1024202137e+01    0.2621277    0.1778333  86.04  0.001327612    1.675    0.403
       104 -10.7541    140.6001    172.3306   1.2007551595e+02   1.9903851524e+01    0.2843675    0.2388497  62.38 0.0008566676    1.125    0.111
       105 -11.1924    220.8259    178.2524   1.0511254404e+02   3.1609493375e+00    0.2924455    0.2479439 -82.65  0.001660218    1.831    0.454
       106  -9.2524     25.2233    172.2004   1.4527408302e+02   3.6980743581e+01    0.1620393    0.1020363  71.49 0.0005027325    1.321    0.243
       107 -10.2706     42.0751    126.5978   1.3648611706e+02   4.5370184980e+01    0.2129782    0.1471326 -84.12 0.0007257783    1.291    0.225
       108 -10.1360     57.8057    124.9420   1.3203148841e+02   4.3957636926e+01    0.1952264     0.176856  78.07 0.0002748934    1.115    0.103
       109  -9.8680    235.8335    177.4433   1.0229457991e+02   5.0926602212e-01    0.2134839    0.1969967  57.75 0.0008759446    1.410    0.291
       110 -11.1274    233.5679    171.2260   1.0144924475e+02   1.8051763408e+00    0.2363204    0.2118923  20.81 0.0003327499    1.090    0.083
       111 -11.9762    147.8306    177.0713   1.1935088178e+02   1.7598469740e+01    0.4879541    0.2818708  59.40  0.002202208    1.936    0.483
       112 -11.5033    211.7748    166.4063   1.0440858728e+02   6.7258673896e+00    0.3010426    0.2589148 -43.72  0.001247767    1.323    0.244
       113 -10.9703     99.2540    117.8673   1.1937276410e+02   3.9415481833e+01    0.3495495    0.2055992  44.03  0.001595542    1.748    0.428
       114 -11.0760    138.8633    116.2666   1.0871545060e+02   3.1948692600e+01    0.3316146    0.2826771 -58.84  0.001687577    1.193    0.162
       115 -10.5655    137.2682    111.9942   1.0803609169e+02   3.3203793039e+01    0.2347817    0.2076815 -82.64 0.0004342713    1.212    0.175
       116  -9.6687     56.3759    165.5185   1.3792598338e+02   3.4948595827e+01    0.3121483    0.1361925 -85.84  0.001300033    2.903    0.656
       117 -10.2837     52.5287    113.3896   1.3153836718e+02   4.7267841401e+01    0.2383026    0.1812882  88.56 0.0006567789    1.312    0.238
       118  -9.3284     38.0763    110.8260   1.3523380691e+02   4.9406528316e+01    0.1868736    0.1345123 -27.35 0.0009142756    1.894    0.472
       119 -11.0092    128.8613    108.6303   1.0930213214e+02   3.5728362458e+01    0.2679956     0.199534 -39.72 0.0006180619    1.392    0.282
       120 -10.2998     29.5018    107.3918   1.3716398284e+02   5.0988798942e+01    0.2245091    0.1743912 -89.66 0.0005803676    1.191    0.161
       121 -10.5234     99.8493    106.4479   1.1655869782e+02   4.1897578370e+01    0.4178579     0.273137  35.52  0.001247623    1.701    0.412
       122  -9.1536     53.7887    103.3335   1.2931173971e+02   4.9445972370e+01    0.1655327    0.1255836  14.60 0.0009394285    1.734    0.423
       123 -11.3755    116.0669     98.7718   1.1010209361e+02   4.0504860200e+01    0.4803918    0.3448387   2.52  0.002044684    2.263    0.558
       124 -10.0028      1.5989     95.7906   1.4370411143e+02   5.5567815608e+01    0.1602313   0.08666547 -83.55 0.0003705036    1.564    0.361
       125  -9.5389    241.9571    165.6985   9.8881177749e+01   1.0452229538e+00    0.1852723    0.1573013  24.39 0.0005335673    1.103    0.093
       126 -10.0553    236.5184    164.5016   9.9564839388e+01   2.2270935198e+00    0.2704709    0.2242413   0.48  0.001613755    1.126    0.112
       127 -10.6723    124.4378     90.6557   1.0558959943e+02   4.0484716207e+01    0.3057973    0.2533759  78.08  0.001284562    1.410    0.291
       128  -9.8965    107.7937     89.5972   1.0988737403e+02   4.4120211147e+01    0.2458003    0.1930271 -37.49 0.0005261936    1.286    0.222
       129 -10.3954    229.9305    164.8358   1.0078381989e+02   3.4258759783e+00    0.2639542    0.2012696  24.39 0.0003483453    1.251    0.201
       130 -11.0858    116.0425     84.9979   1.0623709059e+02   4.3429912053e+01    0.5543976    0.2802472  63.84  0.001803035    3.559    0.719
       131  -9.5012    233.3135    164.3208   1.0008366081e+02   2.8580982558e+00    0.1974535    0.1307186 -26.72 0.0002948213    1.506    0.336
       132 -10.1315     58.9855     83.7388   1.2337658353e+02   5.3267791337e+01    0.2535353    0.1771537 -66.49  0.001380587    1.400    0.286
       133  -9.1480     96.0040    166.2125   1.2903407016e+02   2.9114464275e+01    0.1832763    0.1559333  67.33 0.0003412417    1.051    0.048
       134  -9.9178    104.6929     85.9695   1.0974724448e+02   4.5492799799e+01    0.2085263    0.1814507 -49.67 0.0004952421    1.104    0.094
       135  -9.8956     18.4606    166.0606   1.4620477929e+02   3.8917226349e+01    0.1659143    0.1610572  18.78 0.0006418011    1.549    0.354
       136  -8.9763    125.3512     77.6916   1.0148794556e+02   4.2911572623e+01     0.222579    0.1626557  66.78 0.0006401421    1.638    0.389
       137 -10.5197    121.4549     75.4549   1.0184526442e+02   4.4205386864e+01    0.3076093      0.26689  50.11 0.0009997999    1.179    0.152
       138 -12.4009     49.1484     73.3241   1.2407867522e+02   5.6731151968e+01    0.2589965    0.2173983 -56.85 0.0003670287    1.062    0.058
       139 -10.3953    104.8344     73.0964   1.0582806378e+02   4.8124695914e+01    0.2529474    0.2299608 -86.41 0.0007050575    1.261    0.207
       140 -10.4320    119.7682     69.7374   1.0048802294e+02   4.5678315914e+01    0.2672816    0.2465931 -74.05 0.0003775757    1.195    0.163
       141 -11.6589    131.3434     72.3658   9.8241357216e+01   4.2586707588e+01    0.4706273    0.3695947  74.46  0.001495108    1.534    0.348
       142 -10.7321    109.9527     63.5074   1.0120376734e+02   4.8947952957e+01    0.2649611     0.205929  27.59 0.0007572161    1.405    0.288
       143 -10.5033     11.8072     63.9742   1.3536028475e+02   6.1947278503e+01    0.2844973    0.1413073  25.27  0.001488059    2.457    0.593
       144 -10.8788    124.2584    176.9802   1.2440615400e+02   2.2014799270e+01    0.3734351    0.2110042 -74.65  0.001612387    2.511    0.602
       145 -10.7294    146.7651     62.1208   9.1152844514e+01   4.0744116851e+01    0.2349059    0.2108878 -71.01 0.0005788385    1.217    0.178
       146 -10.2225     94.4071     60.0583   1.0472776837e+02   5.2676412802e+01    0.4149101    0.1733861 -51.42  0.001487839    2.909    0.656
       147  -9.5490      1.5016     58.0125   1.3802704819e+02   6.3758622449e+01    0.1735648   0.08642825 -66.57 0.0004187274    1.531    0.347
       148 -10.4402    137.4827     52.7995   9.0235497410e+01   4.4576693840e+01    0.2706814    0.2040021  53.44 0.0003621181    1.306    0.234
       149 -11.0574    134.9206     48.6264   8.9409331271e+01   4.5866007682e+01    0.4116183    0.2503973 -36.78  0.001067913    1.656    0.396
       150 -10.6395    131.2657     49.0531   9.0451646431e+01   4.6677427578e+01    0.2791426    0.2640985 -43.87 0.0005331298    1.104    0.094
       151 -11.6394    127.2946     54.8873   9.3492623137e+01   4.6655649801e+01    0.4003605    0.3390985 -30.79  0.001713702    1.183    0.154
       152 -10.7681    131.6162     53.7369   9.1995862768e+01   4.5832694864e+01    0.3627806    0.2385527  28.50  0.001322844    1.848    0.459
       153  -9.8127    139.9572    165.5100   1.1899739555e+02   2.1386025754e+01    0.2168875    0.1310646  45.16 0.0004368697    1.532    0.347
       154  -9.6253    101.0000     54.9415   1.0090207850e+02   5.2346157809e+01     0.234551   0.07860437 -39.51 0.0006140215    2.885    0.653
       155  -9.8574     20.0467     52.0240   1.2942736597e+02   6.3921486051e+01    0.1651369    0.1316031  89.18  0.000335823    1.577    0.366
       156  -9.8350    106.7424     51.4293   9.7928242789e+01   5.1792134839e+01    0.2012471    0.1323127  36.13 0.0009436015    1.596    0.374
       157  -9.6575     94.3763     51.1400   1.0158840288e+02   5.4320102153e+01    0.2251899    0.1822202  25.45 0.0003555333    1.285    0.222
       158  -9.3993     29.3004     50.3525   1.2523555063e+02   6.3533052769e+01    0.1296681    0.0733776 -35.06 0.0005782194    1.698    0.411
       159 -11.5273    124.4462     48.0198   9.1811737015e+01   4.8447965053e+01    0.4204141    0.2781676  38.24  0.001798704    1.564    0.360
       160  -9.2996     33.4763     44.5071   1.2173042005e+02   6.4322158802e+01      0.12187   0.09970076 -40.78 0.0008100594    1.023    0.023
       161 -11.0046    139.8261     41.5747   8.5789119777e+01   4.5730951087e+01    0.3241466    0.2978193   9.30 0.0006898253    1.123    0.109
       162  -9.3244     19.2970     42.6679   1.2714464162e+02   6.5869403652e+01    0.1065093   0.08650067 -89.53 0.0003612708    1.642    0.391
       163  -9.8020    126.8616     40.3713   8.8427514615e+01   4.9059643942e+01    0.2696345    0.1680955  47.03 0.0007748154    1.545    0.353
       164  -9.7369     54.7237     40.0216   1.1149395203e+02   6.2759750221e+01    0.1834568    0.1423267 -34.88 0.0006278883    1.116    0.104
       165  -9.1612      6.1527     40.3992   1.3218382288e+02   6.7145993017e+01    0.1234112    0.1032682  31.99 0.0002489818    1.560    0.359
       166  -8.8693     32.3020     39.6763   1.2062157592e+02   6.5368573367e+01    0.1085822   0.09243508 -84.16 0.0003185658    1.635    0.388
       167  -9.8047    141.3545     30.0036   8.1337140769e+01   4.6933528923e+01    0.2250016    0.1879096  54.41 0.0003858766    1.133    0.117
       168 -11.3070    145.7927     31.1161   8.0814597435e+01   4.5664370466e+01    0.3477075    0.2369916  68.21 0.0006877123    1.507    0.337
       169 -11.4533    147.9178     35.9746   8.2079368505e+01   4.4478392830e+01    0.4660535    0.3560904  32.80  0.001129816    1.392    0.281
       170 -10.2039    141.3980     36.3344   8.3587936249e+01   4.6081056910e+01    0.2788656    0.2638353  63.52 0.0007327406    1.063    0.059
       171  -9.7758    123.4736     36.2501   8.7744790306e+01   5.0458127760e+01    0.2058377    0.1307639 -42.87 0.0009446531    1.699    0.411
       172  -9.2167    118.9594     36.4834   8.8983257494e+01   5.1474834106e+01    0.1869301    0.1295691  88.03  0.000555704    2.294    0.564
       173 -10.0649    230.0861     31.7913   6.8371168164e+01   2.3636815742e+01    0.2443233    0.1606869 -55.17 0.0006588352    1.463    0.316
       174 -10.5854    132.6579     31.0295   8.3609452183e+01   4.8965313120e+01    0.3312312    0.2424099  16.54  0.001302857    1.587    0.370
       175 -10.5474    111.1207     32.3765   8.9478947827e+01   5.3834138505e+01    0.3657037    0.1634221  49.51  0.001498011    2.124    0.529
       176  -9.6804    126.9503     31.0175   8.4929999601e+01   5.0352566878e+01    0.1736547    0.1639299  -0.37 0.0004220934    1.063    0.059
       177  -9.9300     70.2911     31.0375   1.0192450861e+02   6.1980138273e+01    0.1815898    0.1535884 -20.34 0.0004066752    1.063    0.059
       178  -9.2237    105.9033     27.1360   8.8816311887e+01   5.5701573995e+01    0.1964967    0.1508828  20.56 0.0004038029    1.332    0.249
       179 -10.5706     99.2903     25.7069   9.0108784348e+01   5.7308975274e+01    0.2614272    0.2067763  14.34  0.000192573    1.267    0.211
       180 -10.7443    152.5293     24.9609   7.7351531920e+01   4.4693518359e+01    0.2609782    0.2017631  64.14 0.0003253308    1.228    0.185
       181 -10.8719    128.2123     22.9956   8.1595926927e+01   5.1060889339e+01    0.2797048    0.2043714 -62.27  0.001020999    1.767    0.434
       182  -9.3060     43.2680     22.9804   1.0932691061e+02   6.7148692701e+01    0.1584882    0.1506342  39.26 0.0006003237    1.459    0.315
       183  -9.1738     41.0000     19.9496   1.0898647528e+02   6.7911873541e+01    0.1927964   0.05879846 -42.38 0.0004497136    2.871    0.652
       184  -9.8187    152.7370     18.7398   7.5156484229e+01   4.5352830710e+01    0.2562409    0.1601155  60.35 0.0007265148    1.460    0.315
       185  -9.0998      2.4591    243.5258   1.5305104898e+02   2.5806597365e+01   0.09694993   0.06440583  70.70 2.442689e-05    1.059    0.055
       186  -9.6237    235.9107     17.6855   6.4218544768e+01   2.3902372154e+01    0.1815349    0.1501128 -74.63 0.0003140716    1.088    0.081
       187 -10.0680    112.4766     17.5343   8.3156845527e+01   5.5419717649e+01    0.2921158    0.1357982 -23.13  0.001233456    2.268    0.559
       188 -10.0048    120.0684    163.1992   1.2305419900e+02   2.5613655143e+01     0.272898     0.173965 -30.40  0.001177565    2.596    0.615
       189  -9.2517     19.0075     17.4964   1.1839822131e+02   7.0560717591e+01    0.1296866   0.09353006  50.78 0.0006381109    2.354    0.575
       190  -9.0696    243.3469     16.2170   6.3200669992e+01   2.2288868479e+01    0.1237469   0.09337603  52.21 0.0002183345    1.538    0.350
       191 -10.9310    226.2270    241.6385   1.1503249254e+02  -5.8544219718e+00    0.2035897    0.1565871  21.67 0.0002923579    1.059    0.056
       192  -9.7999     57.4518     16.0367   1.0014935710e+02   6.6248839268e+01    0.3127991    0.1700066  48.63  0.001600049    2.321    0.569
       193 -10.7480    160.8835    176.5047   1.1650317635e+02   1.5167103124e+01    0.2706223    0.2154847  83.44  0.001444113    1.556    0.357
       194  -8.6229    131.3265    242.3190   1.3162612668e+02   9.3096963589e+00    0.1086161   0.08499712  22.95 0.0007046366    1.680    0.405
       195  -9.1430    141.1149     13.1816   7.5278499817e+01   4.8932654636e+01    0.1915368    0.1614823 -74.55 0.0005063927    1.347    0.258
       196  -9.3780     32.5183    242.5043   1.4840189001e+02   2.2857578172e+01    0.1039811    0.0714905  67.92 0.0008102157    1.029    0.029
       197 -15.3992    223.1399    123.5232   9.2803081024e+01   1.1360233976e+01     2.142331      1.61641  -0.50    0.0106388    1.562    0.360
       198  -8.7569    157.2521     12.3720   7.2208050578e+01   4.4847004663e+01     0.145609    0.1011008  29.28 0.0006959207    1.638    0.389
       199  -9.6761    127.0207    238.4666   1.3197322534e+02   1.0578679461e+01    0.1849189   0.09300984  43.81 0.0005421239    1.569    0.363
       200 -10.8604    236.8836    234.8071   1.1222358977e+02  -6.7450558136e+00    0.3019938    0.2092095 -10.90  0.002047741    1.518    0.341
       201 -10.6249    187.8983    236.3778   1.2084392824e+02   8.9094365517e-01    0.1865472    0.1657794  33.87 0.0002649216    1.152    0.132
       202  -9.6214    248.5963    232.7445   1.0998186036e+02  -8.2812275569e+00    0.1334479    0.1016134 -27.24  0.000943816    1.584    0.369
       203  -9.2122     32.3211    233.3194   1.4795036329e+02   2.4447272028e+01   0.08571973   0.07769474 -76.06 0.0007043699    1.668    0.400
       204  -9.4466    167.2717    232.5359   1.2399879819e+02   4.8536952545e+00    0.1768284   0.09578409  35.58 0.0009482211    1.653    0.395
       205 -11.8691    154.1043    231.1667   1.2621000076e+02   7.2642711052e+00    0.2502461    0.1832071  48.52 0.0003181767    1.097    0.089
       206  -9.8726    144.9810    231.4198   1.2790782128e+02   8.7478967093e+00    0.1940483    0.1524893  77.59 0.0003117806    1.456    0.313
       207  -9.7014     69.0515    230.4890   1.4153277389e+02   2.0445931398e+01    0.1622371    0.1218453  76.30 0.0004420266    1.124    0.110
       208  -9.8988    150.0025    226.7994   1.2640030297e+02   8.6159953278e+00    0.1831897    0.1756389  48.76 0.0006371639    1.213    0.175
       209 -10.1023    127.2243    226.3195   1.3056565931e+02   1.2479855482e+01    0.2422213    0.1505866  63.90  0.001388011    1.627    0.385
       210 -13.2337    238.6865    224.1431   1.1021986715e+02  -5.8541258700e+00    0.2869927    0.2378091  21.95 0.0006808411    1.135    0.119
       211 -10.0474    203.7993    226.2591   1.1655436388e+02  -4.5332756445e-01     0.358396    0.0875981  45.20  0.001298764    3.568    0.720
