#   1 NUMBER                 Running object number                                     
#   2 MAG_AUTO               Kron-like elliptical aperture magnitude                    [mag]
#   3 X_IMAGE                Object position along x                                    [pixel]
#   4 Y_IMAGE                Object position along y                                    [pixel]
#   5 X_WORLD                Barycenter position along world x axis                     [deg]
#   6 Y_WORLD                Barycenter position along world y axis                     [deg]
#   7 A_WORLD                Profile RMS along major axis (world units)                 [deg]
#   8 B_WORLD                Profile RMS along minor axis (world units)                 [deg]
#   9 THETA_WORLD            Position angle (CCW/world-x)                               [deg]
#  10 FWHM_WORLD             FWHM assuming a gaussian core                              [deg]
#  11 ELONGATION             A_IMAGE/B_IMAGE                                           
#  12 ELLIPTICITY            1 - B_IMAGE/A_IMAGE                                       
         1 -13.9410    193.6794    156.8159   6.2578187617e+01   1.2304057748e+01      5.18189     4.511596  79.13   0.01397149    1.607    0.378
         2 -14.6062    235.0088    108.8258   4.5557405440e+01   1.3498803251e+01     3.085333      1.74517 -43.84   0.01016533    1.480    0.324
         3 -14.2053    177.1638     83.9575   4.8657902579e+01   2.9146369515e+01      3.34397     1.533296  41.58   0.01271979    2.837    0.648
         4 -15.9857    242.8856     66.4396   3.5881481550e+01   1.8497340829e+01     5.144408     3.213723  61.36    0.0229337    1.858    0.462
         5 -12.8039    158.4997     93.1780   5.4659595719e+01   3.1670334337e+01     2.042809    0.8761935 -43.54 0.0008121129    2.261    0.558
         6 -13.1068    240.4226     26.0519   2.8003980780e+01   2.4133874811e+01     1.007064    0.8876692  77.36   0.00387826    1.366    0.268
         7 -14.4448    219.1346     34.8606   3.1497402397e+01   2.7245957664e+01     12.11578          nan -39.62   0.03197917    7.213    0.861
         8 -14.5661    238.2216     46.0026   3.2159101872e+01   2.2106331574e+01     1.048686    0.8004324 -81.40  0.002509312    1.253    0.202
         9 -10.7446    179.1371     24.1720   3.2966281912e+01   3.7183222303e+01    0.5007465    0.3680847  81.28  0.002103634    1.237    0.191
        10  -9.7570    134.4252     21.3361   3.8200415593e+01   4.8086105069e+01    0.2289837    0.1355106 -19.37  0.001130949    2.082    0.520
        11 -13.2724    246.7308      7.8263   2.4139073118e+01   2.4974692489e+01      1.56095    0.6169195 -48.61  0.008969869    1.875    0.467
        12 -10.1290    155.9205     12.4380   3.2519259302e+01   4.3823540603e+01    0.4431278    0.2615125  -6.73  0.001813836    2.604    0.616
        13  -9.8638    126.9538     12.2850   3.6509571910e+01   5.0774544369e+01    0.2946066    0.1942172  -9.24  0.000688994    1.966    0.491
        14  -7.6135    230.9354      8.7800   2.5222792463e+01   2.7847626316e+01    0.1354343    0.1034867 -67.89  0.000376971    1.011    0.011
        15  -8.6066    219.6091     11.4739   2.6499385407e+01   2.9808597841e+01    0.2046516    0.1353632 -64.09 0.0002861954    1.241    0.194
        16 -13.1448    249.7772     34.3454   2.8953708160e+01   2.1432755280e+01    0.7445543    0.3874772 -38.15 0.0006919227    1.664    0.399
        17 -10.6060    226.9464      7.0046   2.5113098395e+01   2.8809704188e+01    0.1978967    0.1819281  81.47 0.0003284953    1.362    0.266
        18 -10.0111    183.9662      4.1863   2.7563425328e+01   3.8134891809e+01    0.4768196    0.2657794 -77.95  0.002618031    1.722    0.419
        19  -8.6921    231.2316     12.5938   2.5959818414e+01   2.7388058526e+01    0.2170243     0.155294 -32.19  0.001135656    1.563    0.360
        20  -8.5455    178.0998      1.4981   2.7403789345e+01   3.9697442812e+01    0.1840989    0.1024809  77.68  0.001023065    1.561    0.359
        21 -10.4552    210.8231    186.6820   6.5276716447e+01   4.1902433420e+00    0.3899459     0.216552 -35.99  0.001987481    1.613    0.380
        22 -10.1782    248.5715    248.7882   6.9325025295e+01  -9.4545298922e+00     0.327532    0.1701986 -17.12  0.002035249    1.674    0.402
        23  -8.6316     21.0675    186.0948   1.1143308428e+02   3.2158190003e+01    0.1776353    0.1595553 -57.76            0    1.242    0.195
        24  -8.4181    231.1430    182.7886   6.0952322986e+01   1.9485199794e+00    0.2515466     0.096156  44.09  0.001055652    3.443    0.710
        25 -10.1834    235.0115    179.3477   5.9662712747e+01   1.9688234071e+00    0.2242581    0.2065276  -4.08 0.0003960496    1.259    0.206
        26  -9.0307    218.2954    180.3287   6.2709904014e+01   4.1709730253e+00    0.1348709    0.0889177 -10.73  0.000203626    1.632    0.387
        27  -9.2850    176.4204    247.7706   8.2378750692e+01  -1.0347231318e+00    0.2263504    0.2038767  62.94 0.0009734558    1.776    0.437
        28 -13.4781    196.8536     88.7295   4.6574039267e+01   2.4097188724e+01     2.642625    0.9162738  43.22  0.008643626    4.295    0.767
        29  -9.2041    237.3222    248.3204   7.1133473383e+01  -8.2540984741e+00    0.1185648    0.0662061  -5.62 0.0003502002    1.673    0.402
        30  -8.7967     21.0033    247.0000   1.1541882533e+02   1.8684072394e+01    0.1873243   0.05675384  28.82 0.0008097261    2.993    0.666
        31 -10.3988    197.8127    242.2553   7.7344196234e+01  -2.9170454955e+00    0.2064399    0.1684283  -0.27 0.0002704704    1.095    0.087
        32  -8.9918    164.3056    241.5495   8.3941910887e+01   1.5415999453e+00     0.202333    0.1760794   7.08 0.0002920901    1.101    0.092
        33  -9.0635    250.5542    171.5395   5.5755062984e+01   1.1106921691e+00     0.204061   0.09543128 -44.69 0.0004713402    2.094    0.522
        34  -9.2517    237.0107    172.0373   5.7954082138e+01   2.8615224676e+00    0.2008767    0.1597475 -24.76  0.001294716    1.031    0.030
        35  -8.9132    212.0807    165.8959   6.0995671462e+01   7.5973381906e+00    0.1871722    0.1715824 -48.90  0.000478744    1.315    0.239
        36 -12.6947      4.2193    156.5346   1.1358114973e+02   4.0876310367e+01    0.9897751     0.495188 -77.42  0.004825901    1.724    0.420
        37  -9.9369    166.2980    159.3792   6.8838615645e+01   1.6695577816e+01    0.2550388    0.2433354 -37.77 0.0002220789    1.117    0.104
        38  -9.3250    249.9062    156.8441   5.3078225850e+01   3.4787585170e+00    0.1965685    0.1461749 -16.78   0.00124879    1.256    0.204
        39  -9.0811    166.0152    237.0890   8.2924318253e+01   2.0397127839e+00    0.1884526    0.1549498   7.86  0.000304695    1.022    0.022
        40 -11.7079     18.7826    153.2653   1.0903695046e+02   4.0620215493e+01    0.7463584    0.4500304  80.45  0.003657303    1.737    0.424
        41 -11.6742     15.3802    144.3750   1.0912443070e+02   4.3189725941e+01     0.674391    0.2891981 -54.16  0.002925903    2.124    0.529
        42 -10.0288     31.2553    153.8558   1.0535544492e+02   3.9350219309e+01    0.4703093    0.2573341  69.67  0.002018841    2.243    0.554
        43  -8.3763    109.9321    153.7297   8.1812481056e+01   2.8332700246e+01    0.2040323     0.185756  30.99 0.0002861774    1.094    0.086
        44 -10.4281    133.9517    145.1832   7.3493973040e+01   2.5890533017e+01     1.294721    0.3917873 -55.39  0.003209945    5.165    0.806
        45 -12.2015     65.1628    138.9599   9.2366736487e+01   3.9261319900e+01     2.051415     1.426546  57.91  0.009501193    1.669    0.401
        46 -12.1612     50.0603    140.9949   9.7610790683e+01   4.0687756261e+01    0.7827169    0.5263008 -77.30  0.002181522    1.546    0.353
        47 -12.2609     35.3058    145.3994   1.0300502074e+02   4.1158204502e+01     0.647025    0.4438632  17.05  0.001467613    1.663    0.399
        48 -12.8670     42.7983    142.4833   1.0019117734e+02   4.1132436515e+01     1.434119    0.9332475  43.10   0.00297301    1.603    0.376
        49  -9.9504    158.5264    143.1655   6.7036631460e+01   2.1553566705e+01    0.4127464     0.269359 -45.99  0.001880256    1.499    0.333
        50 -10.4091    151.2430    138.1639   6.7591034201e+01   2.4056767069e+01    0.4115999    0.3169399  67.34  0.001217535    1.682    0.406
        51 -10.3579    157.6826    137.6775   6.5970847727e+01   2.2880281245e+01    0.3176791    0.2720756  -0.42  0.001286066    1.277    0.217
        52 -10.2766    154.5281    136.5004   6.6428377084e+01   2.3758530042e+01    0.3290346    0.2776331  15.81  0.001372858    1.290    0.225
        53 -10.1779    143.1818    144.1393   7.0923090311e+01   2.4337098548e+01    0.3212051    0.2453512  71.00  0.001199787    1.789    0.441
        54 -11.8306    206.5794    135.8911   5.5713642610e+01   1.3895073889e+01    0.9738511    0.6317925 -67.73  0.004317903    2.544    0.607
        55 -10.6393    212.5273    133.1228   5.4099208016e+01   1.3331911701e+01    0.4034718    0.2555004  -8.40   0.00178824    2.478    0.596
        56  -9.3966    145.3784    139.1241   6.9230980829e+01   2.5012326525e+01     0.224989    0.1425884 -56.21 0.0009456307    1.771    0.435
        57  -8.9570    137.0000    136.9669   7.0824786795e+01   2.7153483358e+01    0.2649897   0.08694761 -47.01 0.0008104999    2.999    0.667
        58 -10.4498     11.3165    136.0996   1.0949988206e+02   4.5630802209e+01    0.2235799    0.1889377 -20.91  0.001338617    1.368    0.269
        59 -10.9049    224.9633    129.2249   5.1275324811e+01   1.1849407009e+01    0.4239544    0.3502602 -71.87  0.002450262    1.530    0.346
        60  -9.3977    127.5062    113.3671   6.7459870095e+01   3.4354727082e+01    0.3895434    0.2744007 -66.75  0.001134426    1.820    0.451
        61 -10.1772    135.1112    120.5899   6.7323335274e+01   3.1179178241e+01    0.8135177    0.2108977 -48.49  0.002176109    4.118    0.757
        62 -11.8390    134.3956    103.6466   6.3068524735e+01   3.4958463673e+01     1.630469     0.458938 -46.57  0.004669749    3.683    0.729
        63 -10.1239    173.0148    124.5232   5.9516631359e+01   2.2488654828e+01    0.4615574    0.2689104 -67.94  0.001616537    3.306    0.698
        64  -9.7003    166.2826    134.0356   6.3192543231e+01   2.1926329416e+01    0.2166206    0.1884002 -41.63 0.0006892554    1.105    0.095
        65  -9.4025    214.4624    120.9805   5.1151857226e+01   1.5115071506e+01    0.5144396    0.1331425 -41.76  0.001715971    3.313    0.698
        66  -8.7669    216.9217    117.7263   5.0056518826e+01   1.5229328229e+01    0.2178687    0.1818845  32.25 0.0007886272    1.406    0.289
        67  -8.1526     92.9363    125.0304   8.0500674655e+01   3.8389885397e+01    0.1821824    0.1768224  22.02 0.0004142521    1.043    0.041
        68  -9.2160    135.9908    129.0915   6.9203885368e+01   2.9118048876e+01    0.4214526    0.1965297 -49.59   0.00127897    2.186    0.543
        69 -10.8943    163.1040    120.8771   6.0746286549e+01   2.5258571247e+01    0.4548307    0.3046328 -59.46  0.002019472    1.772    0.436
        70 -11.3885    167.9761    113.8333   5.7973863984e+01   2.5641172266e+01    0.6922418    0.4902851 -19.92  0.003190757    1.729    0.422
        71  -9.3211    179.0336    114.9799   5.6021917330e+01   2.3110834392e+01    0.2603107    0.1992711 -47.37 0.0003639361    1.248    0.199
        72  -9.7879    174.4675    113.4011   5.6541312850e+01   2.4361298436e+01    0.4541728    0.3679925  17.80     0.001808    1.491    0.329
        73  -8.4410     60.0852    119.3080   9.0117150539e+01   4.5040849943e+01    0.1966286    0.1897219  18.57 0.0003013469    1.084    0.077
        74 -12.0335    204.2616    111.6589   5.0724705976e+01   1.8661567974e+01    0.7991859    0.5257161 -20.43  0.003043229    1.881    0.468
        75  -9.2763    210.6280    109.7595   4.9277426839e+01   1.7769562710e+01    0.2677836    0.1841183 -49.12  0.000611028    1.352    0.260
        76 -10.8745    160.8595    128.2181   6.3018724765e+01   2.4218798314e+01    0.4705226    0.3292705 -46.29  0.001832373    1.391    0.281
        77 -10.4529    175.2650    105.9366   5.4548912456e+01   2.5611759905e+01    0.3556512    0.2627362 -58.18 0.0007584635    1.451    0.311
        78  -8.0778     78.5777    107.5333   8.0880948650e+01   4.5146672534e+01    0.1514821    0.1449479 -33.27 0.0001004926    1.013    0.012
        79  -9.5992    149.3525    105.3873   5.9909908497e+01   3.1331738247e+01    0.2909018    0.2651647   8.68 0.0006876771    1.202    0.168
        80 -13.5458    238.9779     54.9945   3.3922894095e+01   2.0782645125e+01     0.819317    0.4283315  45.08  0.002669125    3.009    0.668
        81 -10.1692     79.3421    102.3337   7.9247157035e+01   4.6259390704e+01    0.2687494    0.2483552 -14.70 0.0003244011    1.076    0.071
        82 -10.3032    248.8395    234.2721   6.6982461740e+01  -7.6538264437e+00    0.3278125    0.1498221 -11.92  0.001585343    2.811    0.644
        83  -9.7821    209.4093     97.5974   4.6721258566e+01   2.0068919489e+01    0.2403884    0.1789859   4.66  0.001170526    2.030    0.507
        84 -10.4294    195.3473     96.9524   4.8771364496e+01   2.3013084071e+01    0.4308131    0.2816144  52.20  0.001456075    1.664    0.399
        85  -9.9745    209.0087    127.4393   5.3456025493e+01   1.4972577994e+01    0.3524186    0.2724876 -72.87  0.001131319    1.723    0.420
        86 -12.4698    121.1226    103.3001   6.6489658048e+01   3.7891638667e+01     1.712073     1.052931  38.86  0.007296659    1.674    0.403
        87 -10.1594    151.0585     71.4923   5.0229173739e+01   3.7223750701e+01    0.2604469    0.2132809 -44.61 0.0002491799    1.216    0.178
        88  -8.9813    166.8954    232.6039   8.2058653686e+01   2.6646546623e+00    0.2050217    0.1559475 -20.77   0.00123813    1.302    0.232
        89 -10.2409    126.0802     66.1340   5.4189058484e+01   4.3971535117e+01    0.3476213    0.2277156 -38.04 0.0009823963    1.572    0.364
        90  -8.4695    140.3320     64.6845   5.0483573703e+01   4.0867537083e+01    0.1505787    0.1114311 -76.63  0.000704639    1.684    0.406
        91  -8.7062      2.6660     62.9969   1.0138063841e+02   6.4296548130e+01    0.1977008   0.09767276  85.55            0    4.382    0.772
        92  -8.3701    186.3066     60.2950   4.1192945413e+01   3.0867679538e+01    0.1268217    0.1059164  25.61 0.0002110273    1.584    0.369
        93  -8.7272     96.7838     59.6774   6.0079811685e+01   5.1677818775e+01     0.243197    0.2155036 -39.44  0.001241917    1.193    0.162
        94  -9.3542    175.2710    177.2720   7.0545020428e+01   1.1525334321e+01    0.2459984    0.2325565 -84.84 0.0008199121    1.382    0.276
        95 -11.4609    181.2023     50.5224   3.9433895591e+01   3.3414445068e+01    0.6317732    0.4379345 -37.00  0.001813392    1.443    0.307
        96  -9.8977    145.3551     56.3730   4.6977219590e+01   4.0975541272e+01    0.2353732    0.2127746  36.54  0.000596843    1.201    0.167
        97 -10.4035    192.5624     55.4826   3.9145281140e+01   3.0174033405e+01    0.2898935    0.2712042  68.44 0.0007562609    1.185    0.156
        98  -9.5726    187.8966     55.3242   3.9728720716e+01   3.1231344942e+01    0.3147864    0.1988363 -50.22 0.0008737855    1.487    0.327
        99  -9.8172    141.8812     50.4520   4.5882328989e+01   4.2675315300e+01    0.3468156    0.1758694  42.43  0.001429839    2.275    0.560
       100  -8.3769    137.3218     51.3009   4.7051014682e+01   4.3643892753e+01    0.1433536    0.1067338  29.33 0.0003928799    1.628    0.386
       101  -8.9631    114.9874     47.6030   5.0865322629e+01   4.9478370400e+01    0.1975261    0.1864821 -29.24  0.000101868    1.130    0.115
       102 -11.1019    192.4687     38.7323   3.5075621195e+01   3.2439551831e+01    0.4324662    0.3623501  71.38 0.0007958217    1.214    0.176
       103 -10.7700    187.5819     36.7812   3.5161948687e+01   3.3775426990e+01    0.3884072    0.2573599  50.35  0.001339834    1.734    0.423
       104 -10.9666    121.9032     37.8292   4.5960836803e+01   4.9181586388e+01    0.4008877    0.3062071  38.78   0.00217382    1.351    0.260
       105  -9.6569    159.0856     34.9946   3.8429227947e+01   4.0606981697e+01    0.2051182    0.1806743 -80.12 0.0003761113    1.060    0.057
       106 -11.5101    144.6979     29.9361   3.9176948357e+01   4.4658463749e+01    0.4724411    0.3392497  37.65  0.002152092    1.624    0.384
       107 -10.4670    123.0017     31.3410   4.3555466677e+01   4.9722173124e+01     0.286186    0.2044029 -30.37 0.0008235529    1.538    0.350
       108  -7.9823    167.5550     30.4892   3.6012679612e+01   3.9145723106e+01    0.1311677    0.1153791 -83.57  1.72447e-05    1.014    0.014
       109  -8.8520     97.4674     28.9995   4.8621196336e+01   5.5999918155e+01    0.1881767    0.1353214 -23.91 0.0004811823    1.541    0.351
       110 -10.2239    134.1774    225.1504   8.8077758708e+01   8.6836427715e+00     0.240614    0.2144087 -25.73 0.0004587059    1.193    0.162
       111 -11.3702    146.5051     20.2559   3.6010591543e+01   4.5289062954e+01    0.5987861    0.2986833  68.54   0.00285826    1.790    0.441
       112 -10.3209    238.6708    217.5869   6.5903465198e+01  -4.2723710981e+00    0.2758133    0.1859379  37.53   0.00173705    1.922    0.480
       113  -8.8712     85.6093    218.2240   9.8544520610e+01   1.7067818897e+01    0.2366108    0.1667552  32.91 0.0002064457    1.291    0.226
       114  -8.8541    189.9301     15.0213   2.9632979819e+01   3.5736772331e+01    0.1878445    0.1550778 -73.64 0.0006405747    1.026    0.026
       115  -9.1992     37.1540    213.8374   1.0971916186e+02   2.4021569647e+01    0.2084332    0.1519564  59.97   0.00123521    1.226    0.184
       116  -8.3015    157.2607    211.9401   8.0828652983e+01   7.7345659545e+00    0.1755001    0.1547088 -15.49 0.0002735476    1.108    0.098
       117  -9.4611    241.5141    207.1883   6.3636542708e+01  -3.1117541360e+00    0.1981693    0.1520959  13.48  0.001180146    1.286    0.222
       118 -10.1913    249.1768    202.0019   6.1485333400e+01  -3.2663000870e+00    0.3073994    0.2866911 -78.27  0.002166907    2.023    0.506
       119  -8.0538    160.5100     18.5807   3.3665135241e+01   4.2124049632e+01    0.1288663    0.1105439  88.02 5.938666e-05    1.014    0.013
       120  -9.4889     18.0284    201.4892   1.1334294720e+02   2.8770260886e+01    0.2216826    0.1670422 -79.02 0.0004114886    1.255    0.203
       121 -10.7516    192.4494    193.6424   7.0126916783e+01   5.7218849195e+00    0.8288788    0.4444371 -60.50  0.002974852    4.291    0.767
       122  -9.0023    204.4986    199.5201   6.8852665098e+01   2.9343065087e+00    0.1329754    0.1085089  -8.53  0.000142402    1.030    0.029
       123 -10.8770    217.9092    186.5368   6.3957694625e+01   3.1895078585e+00    0.4566907    0.3163483  26.74  0.002269099    1.497    0.332
       124 -13.0451    229.6639     77.9012   3.9686855271e+01   1.9279544243e+01    0.6925375    0.4615766  51.01  0.001634666    1.810    0.448
