#   1 NUMBER                 Running object number                                     
#   2 MAG_AUTO               Kron-like elliptical aperture magnitude                    [mag]
#   3 X_IMAGE                Object position along x                                    [pixel]
#   4 Y_IMAGE                Object position along y                                    [pixel]
#   5 X_WORLD                Barycenter position along world x axis                     [deg]
#   6 Y_WORLD                Barycenter position along world y axis                     [deg]
#   7 A_WORLD                Profile RMS along major axis (world units)                 [deg]
#   8 B_WORLD                Profile RMS along minor axis (world units)                 [deg]
#   9 THETA_WORLD            Position angle (CCW/world-x)                               [deg]
#  10 FWHM_WORLD             FWHM assuming a gaussian core                              [deg]
#  11 ELONGATION             A_IMAGE/B_IMAGE                                           
#  12 ELLIPTICITY            1 - B_IMAGE/A_IMAGE                                       
         1 -10.5249     32.5893     64.2093   1.1200267766e+02   5.9451203222e+01     1.238069    0.4683396 -36.97  0.004286223    4.288    0.767
         2 -10.6340     37.3935      9.7789   9.0710731471e+01   6.9831534477e+01    0.8275339    0.2624823 -46.01  0.002307912    3.017    0.669
         3 -10.8071     21.4060      7.7512   9.7665081833e+01   7.1920697536e+01     1.127568    0.8030083  65.16  0.006259362    3.118    0.679
         4 -10.9873     23.6178     32.6314   1.0675087272e+02   6.6994769990e+01     1.302444    0.3799714 -45.49  0.003971297    2.710    0.631
         5 -10.3169      5.0622     42.5017   1.1750989012e+02   6.6193590790e+01    0.9712542    0.3220263 -71.99  0.003551079    2.871    0.652
         6  -9.4873      2.4061     14.3563   1.1065084842e+02   7.2126851105e+01    0.4866462    0.2162261 -71.24  0.002014637    2.923    0.658
         7 -10.3502      5.0707      4.5842   1.0518928123e+02   7.3810131335e+01    0.4348483    0.3446733 -39.84  0.001542851    1.095    0.087
         8 -10.1395     69.5955     40.6498   9.1210407542e+01   5.9860693002e+01     1.073524    0.3620755 -41.68  0.003814261    2.633    0.620
         9 -10.1208     73.6382     17.6048   7.9794520247e+01   6.3122744224e+01     1.097893    0.2664421 -35.24  0.003462981    3.657    0.727
        10  -8.4000     71.9081      8.4052   7.5819880323e+01   6.4732236051e+01    0.3968575    0.1931038 -18.54  0.001746359    2.241    0.554
        11  -9.6916     79.5946     23.9383   8.0687749960e+01   6.1073974620e+01    0.5593082     0.323163  14.34  0.002319424    2.791    0.642
        12 -10.7342    134.1174     30.9036   6.8543350453e+01   4.8178666938e+01     0.436549    0.3002779  -0.86            0    1.731    0.422
        13 -10.4032     50.7778     15.2172   8.7471141394e+01   6.7167693028e+01     1.308937    0.7023472  -5.35  0.005022542    3.927    0.745
        14  -9.7350     63.9156      2.9633   7.5800337653e+01   6.6862181797e+01    0.5745839    0.2706167 -39.72  0.002683624    2.247    0.555
        15  -9.9038     63.1443     21.2427   8.5378983561e+01   6.4322279712e+01    0.7530445    0.3043014 -42.69  0.002401856    2.314    0.568
        16  -9.9009     64.5746     13.3144   8.0995901171e+01   6.5326661335e+01    0.4118994    0.2985936 -24.65  0.001708147    1.199    0.166
        17 -10.1116     46.3082     29.8216   9.5904119819e+01   6.5186639962e+01    0.4942771    0.2951398 -62.69  0.002211575    2.280    0.561
        18  -9.5433    131.3760      5.7570   5.8975209488e+01   5.1872968841e+01    0.5092899    0.4134364 -54.67  0.001965198    1.416    0.294
        19  -8.4259    135.5743      1.9387   5.6626666887e+01   5.1169841920e+01    0.5396025    0.1081365  51.24  0.001613265    3.808    0.737
        20  -9.8381    132.4937     17.0810   6.3411657029e+01   5.0366446036e+01    0.7784315    0.3435263 -12.71  0.002747754    2.908    0.656
        21  -9.2403    102.9650     22.2301   7.2731813595e+01   5.6635980903e+01    0.5646147    0.2436901 -25.34    0.0022068    2.358    0.576
        22  -9.0572     40.9325     21.3623   9.4622094521e+01   6.7405721304e+01    0.3673016    0.1489357 -46.79  0.001606966    2.102    0.524
        23  -8.4587    120.3166     16.2561   6.5736063417e+01   5.3444420711e+01    0.4870386    0.2621056  12.73  0.001604695    2.850    0.649
        24  -9.2052    114.1139     10.2511   6.4566742574e+01   5.5616291357e+01    0.4668863    0.2272788  36.01 0.0001983432    2.272    0.560
        25  -9.2779     96.3040     14.5303   7.1127689416e+01   5.9103364414e+01    0.6771338     0.272271 -18.76   0.00242593    3.054    0.673
        26  -8.3368    104.6412     13.7842   6.8505078411e+01   5.7377262225e+01     0.374288    0.1716143 -21.48  0.001458977    2.218    0.549
        27  -9.4940     85.4005     13.2712   7.3787742430e+01   6.1513996829e+01    0.4195398    0.2615831 -53.02  0.001648831    2.302    0.566
        28  -8.4944    141.7677     12.5552   5.9781620041e+01   4.8524652506e+01    0.2647081    0.1968292 -19.60 0.0006001944    1.349    0.259
        29  -9.2210    124.3875      5.3796   6.0191288562e+01   5.3652270643e+01    0.6604507    0.2717359  50.48  0.002635854    2.202    0.546
        30  -8.6451    125.0530     13.0319   6.3312524863e+01   5.2674675047e+01    0.2826039    0.2059815 -16.65 0.0006930404    1.360    0.265
        31  -8.8098    126.7815      9.0117   6.1250680124e+01   5.2688624923e+01    0.2836492    0.1719978  37.39 0.0008002442    1.672    0.402
        32  -8.2638    137.7610      9.3984   5.9264966470e+01   4.9885482396e+01    0.2079709     0.122869  51.25 0.0005608221    1.593    0.372
        33  -8.7423    102.0227      8.0799   6.6553709791e+01   5.8635666080e+01    0.3352128    0.1785208 -29.99 0.0006058417    1.798    0.444
        34  -8.2313    104.1749      2.1441   6.3212060240e+01   5.8781779048e+01    0.3031197    0.1790597  33.45  0.001332057    1.708    0.414
        35  -9.2743    110.0986      5.6050   6.3413204149e+01   5.7060556483e+01    0.6123744    0.2732263 -24.63  0.002570308    2.141    0.533
        36  -7.9073     97.5366      5.9796   6.6735574565e+01   5.9862959368e+01    0.2778949    0.1629598   9.15 0.0009111811    2.074    0.518
        37  -8.3003     95.7694      3.0104   6.5763324848e+01   6.0571030231e+01    0.2654058    0.1753253 -43.47 0.0003697747    1.772    0.436
        38  -8.3680     85.1197      5.8853   7.0222986676e+01   6.2496828957e+01    0.3375828    0.1675299  -6.66  0.001165737    2.679    0.627
        39  -8.3213    143.3749      5.2048   5.6594635252e+01   4.8856902768e+01    0.3252931    0.1533539 -51.84  0.001192375    2.869    0.651
        40  -8.1600     76.7048      6.3277   7.3113439593e+01   6.4102728829e+01    0.2118512     0.183364  17.50 0.0006378492    1.104    0.095
        41  -8.7045     78.8350      3.1479   7.0765877331e+01   6.4072067480e+01    0.2847949    0.2277316 -39.41 0.0007416452    1.424    0.298
        42  -8.7825    115.4441      4.3442   6.1627472421e+01   5.5927401049e+01    0.2953493    0.2210723 -36.72  0.000736596    1.421    0.296
        43  -8.6082     89.2038      2.9355   6.7533647255e+01   6.1986713190e+01    0.3386492      0.17777 -26.51  0.001609984    1.783    0.439
        44 -10.1752     10.1099     19.0122   1.0835837791e+02   7.0740033534e+01     1.145981    0.3724492 -29.88  0.003647938    6.661    0.850
        45  -7.6059    151.3848      2.1891   5.4137983018e+01   4.7042239420e+01    0.2105059    0.1220106 -33.41 0.0009438283    1.738    0.425
        46 -10.3843    109.0420    112.8177   1.0038855659e+02   3.7980609898e+01     1.074292    0.4738191 -50.46  0.002115711    2.185    0.542
        47 -11.9269    233.0529    250.1168   9.9972044102e+01  -4.3415845225e+00    0.1999743    0.1185382  36.09  0.000415477    1.234    0.190
        48 -10.5627    196.2681    247.5206   1.0520778369e+02   1.1503574704e+00     0.342954    0.2107545  34.80  0.002426073    1.222    0.182
        49 -10.1148    202.9379    249.3079   1.0440064596e+02   3.5177481500e-03    0.4572648    0.1515414  35.31  0.002275785    2.622    0.619
        50 -10.5130    108.4773     99.7376   9.7467796317e+01   4.0901296791e+01    0.9320269    0.5723832  72.43  0.003334371    2.612    0.617
        51 -10.6868    123.6261     91.0937   9.1290446891e+01   3.9771087294e+01     1.148237    0.5984624 -34.86  0.003008462    2.201    0.546
        52 -10.6375    131.8477    119.7449   9.6406581015e+01   3.2209939500e+01    0.8704869    0.5243747  78.09  0.002859797    3.219    0.689
        53 -10.9359    133.4061    109.5616   9.3651511281e+01   3.3974480413e+01     0.878884    0.4402762 -45.57  0.002347538    1.979    0.495
        54  -9.9915     27.3482    122.9171   1.2303842025e+02   4.6698683184e+01    0.5224444    0.2376473  72.79  0.001992546    2.660    0.624
        55  -8.2924    158.6221    122.3362   9.0990109552e+01   2.6196574392e+01    0.2203696     0.173174 -85.73  0.000853516    1.673    0.402
        56  -9.1849    152.7908    115.5379   9.0651494452e+01   2.8731334030e+01     0.319672    0.2064333 -36.77 0.0009595528    1.625    0.385
        57 -10.0187    140.7918    118.4077   9.4031999083e+01   3.0679979761e+01    0.5392777    0.3558311 -71.30  0.001296028    2.130    0.531
        58  -9.3510    141.8716    112.3094   9.2336699188e+01   3.1671644368e+01    0.4566574    0.3662336  21.79  0.002310679    1.499    0.333
        59  -8.8465    244.9301    118.3188   7.4177229806e+01   8.4007640402e+00    0.2138171    0.1660646 -18.46 0.0002419899    1.170    0.145
        60  -9.2003    242.6922    115.3415   7.3820571286e+01   9.2530309249e+00    0.2484453    0.2043641  73.62   0.00138008    1.660    0.398
        61  -7.5789    183.8252    119.1043   8.5021490576e+01   2.1316829697e+01    0.2013962    0.1642071  21.18 0.0004400387    1.312    0.238
        62 -10.2582     91.7130    112.8233   1.0482477775e+02   4.0937645576e+01    0.7511813     0.397826 -66.02  0.001589732    2.047    0.512
        63  -8.7974     92.7476    103.8828   1.0262505674e+02   4.2746628839e+01    0.5856024    0.3478279  15.88  0.002206338    3.638    0.725
        64  -8.3500      1.3421    116.9403   1.2887880627e+02   5.0029954634e+01     0.303591   0.08379415 -80.90   0.00117023    3.002    0.667
        65  -9.6463     81.5757     99.3747   1.0467163283e+02   4.5524793892e+01    0.6918582    0.2744414 -54.23  0.001214621    2.260    0.557
        66 -10.2589     78.1996    113.0447   1.0840853185e+02   4.2961596617e+01    0.5295178    0.3138438 -83.13  0.001644893    2.153    0.536
        67  -8.1169     78.0063    105.2009   1.0690327582e+02   4.4750665673e+01    0.2577931    0.1625142 -36.21   0.00123085    2.079    0.519
        68  -9.7403     41.4246    122.0960   1.1941595187e+02   4.5508376827e+01    0.4694944    0.2021904 -83.08  0.001760243    2.617    0.618
        69  -8.3064    167.2258    114.1845   8.7204146613e+01   2.5851309406e+01    0.2033289    0.1757494 -76.27 0.0004969915    1.363    0.266
        70  -9.9954     14.2127    111.2828   1.2511522880e+02   5.0360064566e+01    0.4388076    0.2183614 -88.47  0.001474168    1.779    0.438
        71  -8.4238     13.9880    105.0527   1.2450024038e+02   5.1758915320e+01    0.2084257    0.1306873 -73.65 0.0005305759    1.235    0.190
        72  -8.7569    158.7603    112.1410   8.8510759620e+01   2.8089869377e+01    0.2727371     0.241371  58.60 0.0005944911    1.156    0.135
        73  -8.1620     63.5719     81.8135   1.0590697801e+02   5.2041144566e+01    0.2150472    0.1436288 -87.24 0.0006343219    1.939    0.484
        74 -10.2569     65.7465    104.3925   1.1011798149e+02   4.6642140841e+01    0.7925832    0.4272976  16.28  0.003159186    3.839    0.739
        75  -9.0300     59.1530    109.2099   1.1280985951e+02   4.6392078061e+01    0.4224767     0.217956 -76.16  0.001725585    2.065    0.516
        76 -10.5416     62.9171     95.6455   1.0918071286e+02   4.8997864742e+01    0.7101548    0.3708844 -79.03  0.001603854    2.585    0.613
        77  -8.8980     63.8770     86.4565   1.0690084716e+02   5.0954993967e+01    0.5143602    0.3285654 -14.10  0.002257813    3.053    0.672
        78  -8.5013     55.6426    113.3135   1.1444373294e+02   4.5890199000e+01    0.2462318    0.1658629  75.77  0.001373317    1.593    0.372
        79 -10.9677     20.7935    100.8918   1.2213748147e+02   5.2168019942e+01     1.173952    0.4821878  85.37  0.004093496    3.503    0.715
        80  -9.5091     36.2710    111.6994   1.1936291180e+02   4.8359065209e+01    0.3339739    0.1709103  56.46  0.001409455    2.156    0.536
        81  -8.1395    150.0064    110.0033   8.9916475844e+01   3.0399416807e+01    0.2286086    0.1807174 -79.58   0.00050879    1.590    0.371
        82 -10.9786     44.5140    102.1331   1.1565931044e+02   4.9685076160e+01     0.920253    0.4718274  73.14  0.002899568    2.913    0.657
        83  -9.2154     40.0028    106.8725   1.1766124606e+02   4.9077412963e+01    0.2739019    0.1480714 -63.65  0.001243688    1.532    0.347
        84  -7.8856     23.3133     69.0010   1.1626355442e+02   5.9165616125e+01    0.1723725    0.1241594 -67.24 0.0003201267    1.096    0.088
        85  -9.0347     43.7987     53.9268   1.0523768166e+02   6.0582092097e+01    0.2703823    0.1904884 -46.23 0.0009357467    1.206    0.171
        86  -8.8885     39.8416     51.5317   1.0602320203e+02   6.1518125539e+01    0.4758116    0.1944129 -52.19  0.002221249    1.922    0.480
        87  -9.6474     20.0995     85.0988   1.2011607594e+02   5.5784978209e+01    0.5214646    0.1430458 -63.09  0.001764785    2.537    0.606
        88 -10.7194     24.9023     77.9476   1.1741425330e+02   5.7024524819e+01    0.7458209    0.4847436  74.69  0.003116141    1.792    0.442
        89  -8.3752    219.5006    250.4878   1.0203814164e+02  -2.4771730371e+00    0.1051679   0.07439069  31.20 0.0008105282    1.014    0.014
        90  -9.9685     34.4507     90.6638   1.1666048475e+02   5.3304442419e+01    0.6510539    0.2622315 -79.75   0.00161821    3.145    0.682
        91 -10.1135     37.1624     80.7914   1.1401250276e+02   5.5291643496e+01    0.6894279    0.3806404 -20.06  0.002972348    3.725    0.732
        92  -9.6447      5.6377    103.9181   1.2661537800e+02   5.2591244210e+01    0.4123106     0.296239  62.33  0.001863824    1.406    0.289
        93  -9.0582    166.0549    104.0811   8.4891264963e+01   2.7971458883e+01    0.3069153    0.2053403 -44.52  0.000472506    1.515    0.340
        94  -9.6499    149.5534    103.3576   8.8328922156e+01   3.1789859158e+01    0.4235145    0.2983483 -53.36 0.0009626457    1.508    0.337
        95  -9.0263    149.3255     97.0626   8.6714110577e+01   3.3060441275e+01    0.4925954    0.3476715 -23.01  0.002243088    1.684    0.406
        96 -10.0006     65.7949    110.9350   1.1132068368e+02   4.5154638811e+01    0.4479547    0.3188034  73.67  0.001317703    1.523    0.343
        97  -9.4446    159.1786    100.9447   8.5549669234e+01   3.0109763844e+01    0.4211686    0.2292514 -41.27   0.00105299    1.821    0.451
        98  -9.4899     94.3487     97.2265   1.0064318793e+02   4.3948697576e+01    0.3268944    0.2346274 -66.62 0.0006622386    1.414    0.293
        99  -8.9736     96.0994     90.9003   9.8589452646e+01   4.5035864081e+01      0.51763     0.327206 -21.22  0.002106059    2.786    0.641
       100  -9.5397    243.3612     95.9311   6.9014702919e+01   1.1763408077e+01    0.3723834     0.153887 -31.30  0.001501506    2.157    0.536
       101  -8.6884    170.0027     96.2674   8.1979559586e+01   2.8489929303e+01    0.2617409    0.2192898 -19.13 0.0003680699    1.256    0.204
       102  -9.1797    164.6585     94.6408   8.2663943243e+01   3.0026708704e+01    0.2867088    0.2510133 -70.21  0.000661457    1.292    0.226
       103  -9.5245    138.7411     92.4698   8.7935354170e+01   3.6293221909e+01    0.5269762    0.4028181 -81.41  0.001159539    1.724    0.420
       104  -8.2171    139.2234     87.7722   8.6502803410e+01   3.7113472226e+01    0.2928203    0.2067676  29.31  0.001026199    1.710    0.415
       105  -9.2799    140.4779     82.2037   8.4588351347e+01   3.7916049599e+01    0.5970919    0.2836573 -37.21  0.001361493    2.105    0.525
       106  -9.0424    139.9692     75.4307   8.2670048192e+01   3.9323089690e+01    0.5825583     0.314708 -34.33  0.002086191    1.876    0.467
       107 -10.2077      4.3860     89.6504   1.2543160458e+02   5.5831636615e+01    0.5852018    0.2599971  86.48  0.001892444    2.331    0.571
       108  -9.5933      6.0864     78.9474   1.2357377436e+02   5.8115305404e+01    0.5372465     0.201542 -41.42   0.00242997    3.461    0.711
       109  -9.1759    157.7987     90.9804   8.3137580182e+01   3.2291740333e+01    0.4630376     0.206468 -38.39  0.001480119    2.208    0.547
       110 -10.5080     48.1013     83.2873   1.1106617692e+02   5.3589178115e+01     1.045927    0.3837408 -57.33   0.00208722    2.180    0.541
       111  -9.7940    225.7662     88.9111   6.9869521427e+01   1.6633205600e+01    0.2777399    0.2340461  30.58 0.0004781855    1.218    0.179
       112  -9.1451    230.3153     85.0828   6.8173528214e+01   1.6149645289e+01    0.3136021    0.2342936  24.60 0.0008462385    1.474    0.322
       113  -8.2897     78.1633     89.5241   1.0336838342e+02   4.8247372644e+01    0.3556539    0.1206553 -48.07   0.00130223    2.762    0.638
       114 -10.2340     85.2985     86.6747   1.0058217349e+02   4.7769395893e+01    0.4687706     0.345972 -88.78 0.0008169746    1.709    0.415
       115  -9.4759     87.4033     78.9467   9.7906019823e+01   4.9115543780e+01    0.5635012    0.3854033  11.09  0.001977489    2.360    0.576
       116  -8.6560    150.4030     88.8493   8.4194392968e+01   3.4392297197e+01    0.2645418    0.1922999 -31.94 0.0006312273    1.408    0.290
       117  -7.3649    174.6371     88.3105   7.8823496039e+01   2.8812518395e+01     0.158554    0.1210174 -75.28 0.0007040151    1.750    0.428
       118  -8.4265    163.4240     87.1862   8.0841810400e+01   3.1675616429e+01     0.342147    0.1276828 -44.92 0.0008635832    2.830    0.647
       119 -10.3984    104.0636     82.7166   9.4169356960e+01   4.5362337166e+01    0.5771859    0.3258376 -59.92 0.0008087164    2.038    0.509
       120  -9.7454    104.7741     71.7022   9.0719067728e+01   4.7522524934e+01    0.7724976      0.53861 -22.75  0.003611378    1.774    0.436
       121  -8.4412    170.3062     83.4437   7.8319799911e+01   3.0703914548e+01    0.2737806    0.1800994 -54.32 0.0008174761    1.773    0.436
       122  -8.2653    156.5254     70.0967   7.7226549509e+01   3.6386296147e+01    0.2868668    0.1432892 -39.06 0.0005645416    1.932    0.482
       123  -9.0021    157.8269     83.0800   8.0869293186e+01   3.3744718562e+01    0.5440625    0.2418599 -35.48  0.001442737    2.247    0.555
       124  -9.0249    156.9640     76.4724   7.9092243337e+01   3.5148219139e+01    0.5273635     0.217861 -37.31  0.001372608    2.337    0.572
       125  -8.5221    235.6308     80.0879   6.6088760981e+01   1.5646907348e+01    0.3136352    0.1048287 -36.11  0.001107177    2.635    0.620
       126  -9.2793    149.9283     80.1275   8.1764894679e+01   3.6142517646e+01    0.4595421    0.2166501 -38.03  0.001281329    2.068    0.516
       127  -9.3852    115.3363     72.5722   8.8061400218e+01   4.5242357358e+01    0.5571117    0.2891649 -40.41  0.001710775    1.846    0.458
       128  -8.8431    118.9783     80.4408   8.9469850422e+01   4.2906807865e+01    0.3434575    0.2382478 -56.23 0.0005901605    1.520    0.342
       129  -8.2462    119.7600     76.3709   8.8046671823e+01   4.3566468460e+01    0.2775594    0.2266124  30.94 0.0004687704    1.362    0.266
       130  -9.2744     74.2710     79.4122   1.0200061756e+02   5.1077799225e+01    0.6221682     0.240523 -52.96  0.001618043    2.267    0.559
       131  -8.2430     68.7358     79.5577   1.0374760832e+02   5.1842530077e+01    0.2992859    0.1347268 -46.13  0.001282556    2.100    0.524
       132  -8.3118    240.4084     78.7771   6.5075677370e+01   1.4753044804e+01    0.2016627    0.1288259 -15.07  0.000941305    1.608    0.378
       133  -7.7586    227.5635     78.9093   6.6953421230e+01   1.7659709586e+01    0.2123904    0.1228224  -0.46 0.0008065476    2.577    0.612
       134  -7.7509    174.2241     78.9625   7.6216953938e+01   3.0531699778e+01    0.2053456    0.1240538 -34.51 0.0004532297    1.613    0.380
       135  -8.7496    166.1613     78.6683   7.7781104431e+01   3.2543262180e+01    0.2877793    0.2218207 -25.56 0.0007350816    1.326    0.246
       136 -10.1555    116.9551    124.4915   1.0095807496e+02   3.4061589402e+01    0.8693079    0.5251439 -74.20  0.002219299    2.320    0.569
       137  -8.1177    184.2276     78.0839   7.4011555151e+01   2.8228055195e+01    0.2296921    0.2029649   2.07 0.0005002324    1.189    0.159
       138  -9.4006    127.3739     75.2331   8.5722993608e+01   4.2170712865e+01    0.4305438    0.2690548 -57.19 0.0007916567    1.884    0.469
       139  -9.3625    129.3523     69.0399   8.3275878312e+01   4.2928519287e+01    0.5693986    0.3208727  23.46  0.001940896    3.299    0.697
       140  -8.6775    130.5055     64.9675   8.1664075689e+01   4.3433362736e+01    0.4314876    0.2433557 -32.12   0.00142403    1.813    0.448
       141  -9.9757     81.6813     72.4010   9.7786103198e+01   5.1465058031e+01    0.4405618    0.3064418 -73.45 0.0009672517    1.794    0.443
       142  -9.1699     83.3553     64.6022   9.4913052391e+01   5.2844909278e+01    0.5003762    0.3252959 -19.34  0.002242611    2.253    0.556
       143 -10.6186     55.2589     70.9602   1.0587962713e+02   5.5526996173e+01    0.6940098    0.4302254  71.62  0.001273242    2.613    0.617
       144  -8.3715     55.0448     63.5154   1.0395572248e+02   5.7192475673e+01    0.4133726    0.2510176  27.96  0.001997094    2.035    0.508
       145 -10.2715     62.6543     60.8199   1.0055571128e+02   5.6783169147e+01     0.900336     0.295224  33.74  0.001225773    3.781    0.736
       146 -10.1875    187.1830    249.3127   1.0682788644e+02   2.2962186977e+00    0.4080793    0.1131178  44.53  0.001943418    2.706    0.630
       147  -9.9867    173.6396    248.6449   1.0886084822e+02   4.3522210294e+00    0.2754762    0.1769191  23.08  0.001884775    1.767    0.434
       148  -9.8381     15.9555     70.7130   1.1908378553e+02   5.9325037623e+01    0.5907294    0.2803988 -48.18  0.001161107    1.953    0.488
       149  -9.7194     16.9751     61.3565   1.1696355944e+02   6.1340869206e+01    0.7294507    0.2727316 -60.67  0.003600794    1.925    0.480
       150  -9.8115    165.6156    248.5980   1.1011384907e+02   5.5341167761e+00    0.2864141    0.1006078  38.59  0.001478937    2.322    0.569
       151 -10.7778     22.0821     53.8042   1.1340305708e+02   6.2630487161e+01    0.8658376    0.4381591 -88.76  0.002874803    3.494    0.714
       152 -10.1021     13.3573     45.5019   1.1482096485e+02   6.5053916141e+01     0.618017    0.3402969 -26.69  0.002575375    2.284    0.562
       153  -8.8955    150.1366    248.2742   1.1251816236e+02   7.8301493813e+00    0.1657166    0.1218406 -27.92  0.001222956    2.112    0.526
       154 -11.0083    121.2069    109.7107   9.6643258944e+01   3.6369845815e+01     1.205022    0.5603669 -51.60  0.003198168    2.151    0.535
       155  -7.3249      9.7860    246.7956   1.3383283634e+02   2.5351479448e+01    0.1422002   0.03269048  47.38   0.00085813    2.460    0.593
       156  -9.4410      6.9036     32.5132   1.1420171881e+02   6.8203612818e+01    0.2403917    0.1755041 -42.49 0.0007250423    1.213    0.176
       157 -10.0670      7.1960     28.4350   1.1289502737e+02   6.9030303133e+01    0.3084194    0.2425624  64.38  0.001019986    1.758    0.431
       158  -8.3652    162.6014     72.8121   7.6763525507e+01   3.4432825205e+01    0.2966642    0.2118421 -57.38 0.0007307237    1.634    0.388
       159  -8.4840    169.6588     71.2730   7.4833037473e+01   3.2962482731e+01     0.289875     0.172964 -44.25 0.0007409964    1.706    0.414
       160  -9.4532    147.0180     68.8732   7.8965714110e+01   3.8887826482e+01    0.5775518    0.2926361 -40.75  0.001687555    1.913    0.477
       161  -7.3910    212.1942     70.3672   6.6960394980e+01   2.2552712063e+01    0.2029307    0.1459051  73.90 0.0004534882    1.662    0.398
       162  -9.8863     94.8788     68.2506   9.2524801736e+01   5.0083497321e+01    0.4328834    0.2546694 -53.25 0.0008866386    1.689    0.408
       163  -9.4819     97.1830     58.6234   8.8692552571e+01   5.1599284380e+01    0.7713906    0.4856493 -27.20  0.003508676    1.810    0.448
       164  -9.4912    121.6413     64.8735   8.3910743881e+01   4.5413294392e+01    0.7307122    0.3094099 -37.01  0.001901093    2.323    0.569
       165  -9.3332    138.1085     66.3870   8.0260322783e+01   4.1431038337e+01    0.3854542    0.2445505 -44.82 0.0006621766    1.569    0.363
       166  -9.6241    139.2403     56.1646   7.6582025168e+01   4.2976077209e+01    0.8275651    0.3702835 -47.46  0.002930743    2.546    0.607
       167  -9.0232    142.0984     47.8709   7.3032255530e+01   4.3662599141e+01    0.6158156    0.2726155 -25.86  0.001586726    2.515    0.602
       168  -9.4682    109.9090     63.9906   8.6804836954e+01   4.8048632872e+01    0.3961948    0.2851968 -57.60 0.0005894043    1.536    0.349
       169  -9.0062    110.9461     58.1432   8.4540812469e+01   4.8959175529e+01    0.4313496    0.3104509  13.72  0.001107807    1.879    0.468
       170  -7.6680     75.5577     66.4940   9.7977461462e+01   5.3694856472e+01    0.1384056    0.1220364 -55.57 9.315649e-05    1.059    0.055
       171  -8.3094    170.7897     65.1785   7.2724256871e+01   3.3695709439e+01    0.2351589    0.2095193 -58.54 0.0005067387    1.198    0.165
       172  -8.5784    157.3788     62.9848   7.4783990782e+01   3.7402707283e+01    0.2656287    0.2146866 -73.44  0.001263143    1.506    0.336
       173  -9.1966    164.8094     59.8738   7.2237005256e+01   3.6064782467e+01    0.5793647    0.2413008 -20.09  0.001681908    3.807    0.737
       174 -10.1518     73.2999     56.9512   9.5724793673e+01   5.6047446720e+01     1.134178    0.3648714 -43.30  0.002884707    2.876    0.652
       175  -9.0990     80.0219     46.4349   8.9794151059e+01   5.7052372606e+01    0.4501453    0.2272621 -33.40 0.0005244871    2.052    0.513
       176 -10.1603     85.1552     48.0844   8.8713973203e+01   5.5845623008e+01    0.4443765    0.3039326 -59.99 0.0009467185    1.779    0.438
       177 -10.3350     89.5363     38.4342   8.3595651676e+01   5.6810553495e+01    0.9172675    0.4131649  30.87  0.003243062    3.503    0.714
       178  -8.0341      9.7005     60.6446   1.1944644490e+02   6.1973100080e+01    0.2636338    0.1224193 -75.29  0.001380471    1.867    0.464
       179  -8.6949    146.3466     58.9828   7.5895166542e+01   4.0784442631e+01     0.310453     0.236339 -77.03  0.001324747    1.745    0.427
       180  -8.9247    147.5133     53.8827   7.3910750215e+01   4.1356038122e+01    0.5241666    0.2616369 -17.93  0.001531208    2.880    0.653
       181  -9.4596    129.6007     56.2521   7.8950272830e+01   4.5218208513e+01    0.6840798    0.3130161 -39.18  0.001777902    2.079    0.519
       182  -9.7968    130.5918     45.9766   7.5047924716e+01   4.6737384914e+01      0.88222    0.3536946 -22.83  0.002618556    3.650    0.726
       183  -9.4504    118.3987     54.6121   8.1271689616e+01   4.8023375537e+01     0.551404     0.342117 -37.68  0.001289858    1.528    0.345
       184 -10.1178     50.0083     54.3973   1.0308918571e+02   5.9771655991e+01    0.5893878    0.3088232 -67.24  0.001462219    2.332    0.571
       185  -9.8163     56.0470     43.7011   9.7323287744e+01   6.1228581714e+01      0.81789    0.4533979  -9.77  0.002887957    4.624    0.784
       186  -9.3923    162.5386     53.5639   7.0631915477e+01   3.7648167383e+01    0.3541144    0.2768449 -37.95  0.001446144    1.255    0.203
       187  -8.7394    105.4247     53.2296   8.4381967243e+01   5.1014926967e+01    0.3061819    0.2370991 -53.78 0.0008081691    1.378    0.274
       188  -8.4964    105.3371     49.3677   8.3007399814e+01   5.1742589147e+01    0.3516347    0.2437769  12.85   0.00126989    1.994    0.499
       189  -7.0321    172.6981     51.6806   6.8049863002e+01   3.5338231708e+01    0.1594432    0.1172847  20.76 0.0003519372    1.625    0.385
       190  -9.2602     87.9919     56.2522   9.0708412745e+01   5.3751554872e+01    0.8364865    0.3621933 -36.20  0.002946068    2.448    0.591
       191  -8.3161    157.4787     48.2655   6.9871181535e+01   3.9758224492e+01    0.4183096    0.1412718 -32.59  0.001310543    2.782    0.641
       192  -8.6080    149.9459     47.8260   7.1291031126e+01   4.1726524242e+01    0.2635315    0.2108885 -31.30 0.0004354322    1.218    0.179
       193  -8.9292    121.1476     46.6978   7.7687716349e+01   4.8798960339e+01    0.3236242    0.1994022 -37.81 0.0005212492    1.549    0.354
       194  -8.5426    111.9372     46.8047   8.0194904427e+01   5.0811671566e+01    0.2673006    0.2208556 -43.83 0.0005020068    1.205    0.170
       195  -8.8242    113.7265     41.1571   7.7563794266e+01   5.1382259942e+01    0.4914361    0.2822786 -11.41  0.001788721    2.607    0.616
       196  -7.7638    162.3996     46.2259   6.8196458503e+01   3.8809586444e+01     0.220688    0.1352405 -40.29 0.0008630083    1.618    0.382
       197  -9.6906    182.4602    245.5083   1.0711773499e+02   3.3927610134e+00     0.202403   0.07509871  36.02 0.0009174828    2.358    0.576
       198 -10.0538     76.2303     32.0217   8.5381584211e+01   6.0335803469e+01    0.4590114    0.3444493  71.40  0.001047542    2.096    0.523
       199  -9.0844     72.3512     25.3912   8.3864917514e+01   6.2122877437e+01    0.4897313     0.305287  11.94   0.00227983    2.290    0.563
       200  -8.8878    250.3217    239.2693   9.5939984030e+01  -5.8244959346e+00    0.1594194    0.1244502  -0.61  0.001262024    1.315    0.239
       201  -9.9646    187.9531    234.3656   1.0487979205e+02   3.7878878715e+00    0.2303176    0.2141186 -77.85  0.001873379    1.549    0.355
       202  -6.9825    110.2819    234.2921   1.1759695511e+02   1.5385786270e+01    0.0917107   0.07686847  30.16 0.0001674326    1.532    0.347
       203  -9.0834     84.8289     21.8375   7.7999653850e+01   6.0413133684e+01    0.2875803    0.2392089   3.31 0.0007500449    1.171    0.146
       204  -9.8666     37.8008     41.9922   1.0386446421e+02   6.3739011880e+01    0.3876173    0.2819718  89.81  0.001499127    2.050    0.512
       205 -10.5221     35.9114     37.9664   1.0328812126e+02   6.4760490127e+01    0.5914617    0.2960392 -30.56 0.0003677856    2.458    0.593
       206  -9.7830    153.1371     41.0867   6.8257380542e+01   4.1943327742e+01     0.442603    0.3497747 -37.23  0.001303694    1.251    0.201
       207  -9.6149    144.7990     37.8233   6.8817010943e+01   4.4532002174e+01    0.7057067    0.3451422 -50.46  0.002057481    2.632    0.620
       208  -8.7316    139.5597     39.9686   7.0748147076e+01   4.5517710232e+01    0.4529929    0.2568067 -31.36  0.001382181    1.706    0.414
       209  -8.9271    105.0060     40.8802   7.9886849882e+01   5.3302712263e+01    0.4155767     0.226261 -47.28 0.0009852339    1.987    0.497
       210  -8.4386    105.8837     36.3746   7.7852999336e+01   5.3865908652e+01    0.2857697     0.209647  29.33 0.0008142509    1.484    0.326
       211  -8.1947    123.1461     40.4137   7.4816834210e+01   4.9375677553e+01    0.3593265    0.2206106   2.95  0.001378728    2.593    0.614
       212  -8.4229     53.5133     39.0578   9.6600409989e+01   6.2485829711e+01    0.2778341     0.173042 -51.45 0.0009767218    1.457    0.314
       213  -8.5576     54.5324     35.5147   9.4851858571e+01   6.3038146111e+01    0.3968787    0.1880071 -32.48  0.001733612    2.345    0.574
       214  -9.5720    221.5065     40.3982   5.7082152533e+01   2.4336336829e+01    0.4306299    0.2719775 -25.69  0.001080384    1.505    0.336
       215  -9.1478    139.1162     22.1672   6.4074233074e+01   4.8085387146e+01    0.4577816     0.333321  62.03  0.002246868    1.405    0.288
       216  -7.9537    140.1200     18.1541   6.2300395042e+01   4.8315675833e+01    0.2555311    0.2002258 -31.87 0.0005616266    1.280    0.219
       217  -8.9389    132.9904     35.9800   7.0747525022e+01   4.7722473104e+01    0.2604729     0.213308 -40.78 0.0007059784    1.240    0.193
       218 -10.0536    145.1072    226.8563   1.1103137694e+02   1.1306791742e+01    0.1806772    0.1633815  60.25 0.0004058409    1.190    0.160
       219  -8.6392    118.8792     34.6557   7.3664714353e+01   5.1258243765e+01     0.341585    0.1850668 -33.44 0.0007051234    1.753    0.430
       220  -9.2824    101.0699     32.7807   7.7771603606e+01   5.5459508985e+01    0.5183118    0.2561803 -33.54  0.001311144    1.892    0.471
       221  -9.0476    110.3209     33.2915   7.5375920955e+01   5.3393776680e+01    0.3446124    0.2259453 -45.33 0.0007061157    1.624    0.384
       222  -9.5972     60.3178     33.6869   9.1885761920e+01   6.2571595702e+01    0.6578714    0.2347001 -46.42  0.002639663    2.511    0.602
       223  -7.4450     17.5785    218.5148   1.3162471198e+02   2.9021844867e+01   0.09644718   0.06789674  71.29 0.0001569174    1.069    0.065
       224  -7.7348    147.1481    212.2233   1.0893054800e+02   1.3034632638e+01    0.1551292    0.1137136  59.53 0.0003005477    1.308    0.235
       225  -9.9946     10.6515    207.2483   1.3225626733e+02   3.1573146654e+01    0.4739415     0.251581  31.49   0.00324535    2.409    0.585
       226  -9.1498    191.0847    192.4064   9.8295985835e+01   8.4437926499e+00    0.5134628    0.2804701 -60.41  0.002156658    4.151    0.759
       227  -9.0331    250.0853    177.1750   8.5762317321e+01   1.8586821157e-01    0.2501101    0.1790473 -37.05  0.001551835    1.743    0.426
       228  -8.4645     42.3212     28.2808   9.6958174025e+01   6.5961306293e+01    0.2322327    0.1447758 -33.23 0.0001843372    1.450    0.310
       229  -8.2839    153.6220     34.2883   6.5730701001e+01   4.2786375604e+01    0.2147135    0.1443541 -13.75 0.0007211711    1.626    0.385
       230  -7.2473    195.0185     33.2530   5.8460281834e+01   3.2042025657e+01    0.1751828    0.1278451  65.03 0.0002259777    1.394    0.283
       231  -8.5305    152.0476     30.4620   6.4646203312e+01   4.3710013211e+01    0.2688347    0.1970905   3.71 0.0009757855    1.573    0.364
       232  -7.4192    147.5203     28.9519   6.4975168669e+01   4.5074616715e+01    0.2070952    0.1261043   9.73  0.000804964    2.300    0.565
       233  -8.1689    119.3915     27.7625   7.0762106864e+01   5.2153975608e+01     0.204005     0.135744 -14.78 0.0009389647    1.595    0.373
       234  -9.1271     91.3742     26.3509   7.7947312752e+01   5.8445189769e+01    0.4077962    0.2334037 -48.87  0.001383512    2.105    0.525
       235  -8.5061     91.8353     21.3757   7.5590011768e+01   5.9095847850e+01    0.3092774    0.2057435  12.92 0.0009705201    1.830    0.453
       236  -8.7032    155.5409     27.1499   6.2776738807e+01   4.3233606505e+01    0.3820956    0.1825118  68.46  0.001433398    2.348    0.574
       237  -8.4981    144.2111     25.5581   6.4355064664e+01   4.6362487468e+01    0.2637757    0.2052272 -24.85 0.0006088591    1.269    0.212
       238  -8.9237    128.4474     25.8500   6.7833605267e+01   5.0258461245e+01    0.2741801    0.2237066 -45.58  0.000654924    1.315    0.239
       239  -7.5917     22.2265    176.9156   1.2865700754e+02   3.5992663021e+01    0.1289172    0.1075758 -87.43 0.0007461223    1.293    0.227
       240  -9.3029    239.8175    173.5054   8.6692525658e+01   2.3342181881e+00    0.3258654    0.2006226  48.97  0.001820847    1.759    0.432
       241  -8.9031    240.2619    168.6682   8.5693312530e+01   2.8312469404e+00    0.2221401    0.1721088  12.58 0.0003589299    1.119    0.106
       242  -8.9965    129.2800     16.3331   6.3782136229e+01   5.1253222295e+01    0.2518897    0.2005053  -4.08 0.0005444711    1.274    0.215
       243  -7.7794    230.6078    167.8018   8.7098642328e+01   4.6413022263e+00    0.1701557    0.1131002 -37.66 0.0009524116    1.726    0.421
       244  -7.7609    150.2530     25.6375   6.3208109689e+01   4.4799144601e+01    0.1547496    0.1084198 -52.50 0.0003164075    1.620    0.383
       245  -9.2060     94.9827    167.1108   1.1307805201e+02   2.8996804174e+01    0.1827588    0.1568374  84.05            0    1.067    0.063
       246  -8.0665    155.3414     23.2100   6.1370504675e+01   4.3775236519e+01    0.2212852    0.1265422 -34.89 0.0006965121    1.716    0.417
       247  -9.2400    119.0734     21.4973   6.8244989645e+01   5.3080958744e+01    0.2943403    0.2610312  -1.00 0.0004760717    1.079    0.074
       248  -8.3475    161.1998    164.9346   9.9170777276e+01   1.8029629346e+01    0.1855712    0.1635004  63.22 0.0003183181    1.168    0.144
       249  -8.9697    111.7543     20.8310   6.9778863092e+01   5.4868100714e+01    0.4502402    0.1892488 -20.71  0.001643707    2.692    0.628
       250  -8.5165    112.3093     15.6027   6.7365117196e+01   5.5409083030e+01    0.2774039    0.2055914 -42.29 0.0005933644    1.464    0.317
       251  -8.1804    249.9644    163.5201   8.3148789399e+01   1.7588229962e+00    0.1876703    0.1460844  -8.92  0.000487168    1.168    0.144
       252  -8.6066    240.2464    163.8796   8.4758217052e+01   3.4119333962e+00    0.2185315    0.1597223  31.63 0.0003139139    1.223    0.182
       253  -9.8678    208.3699    161.4092   8.9654983224e+01   9.5970786140e+00    0.2343129    0.2118229  29.89 0.0002616373    1.097    0.088
       254  -8.4992     94.0110    151.9648   1.1115385615e+02   3.2179841156e+01    0.1813576    0.1592559  78.54  0.001161844    1.013    0.013
       255  -7.8436     80.7524     12.8158   7.5052774725e+01   6.2484693175e+01    0.2218068     0.161596 -54.37  0.001161013    1.865    0.464
       256  -8.6913    133.7853    146.3524   1.0143776846e+02   2.6533917103e+01    0.5803397    0.1666062 -54.73   0.00178549    4.532    0.779
       257  -7.2199    138.2441    147.2790   1.0064956385e+02   2.5524040875e+01    0.1221313    0.1066569  -2.06 0.0006807251    1.451    0.311
       258  -9.3798     66.6165    143.9750   1.1622208554e+02   3.7752924946e+01    0.4615044    0.2411078  64.78  0.001928594    2.173    0.540
       259  -9.1481    227.6796    143.9987   8.2722444321e+01   8.3152386961e+00    0.2307774    0.1808641  38.11 0.0002951565    1.230    0.187
       260  -8.1477    213.2510    143.2464   8.5041748374e+01   1.1264695333e+01    0.2703162    0.1798526 -39.32  0.001393888    1.617    0.381
       261  -8.2956    112.1732    133.9210   1.0396010083e+02   3.2942994312e+01    0.2472289    0.1737784  70.96 0.0008179102    1.626    0.385
       262  -9.9120    134.2658    131.5108   9.8401578498e+01   2.9362677639e+01    0.5558293    0.4048775  51.79   0.00289377    1.342    0.255
       263  -8.2513     82.1269    130.5072   1.1053236589e+02   3.8520668808e+01    0.3570645    0.1614671 -73.38  0.001411879    2.886    0.654
       264 -10.1548     58.4321    124.6595   1.1548275648e+02   4.3007107108e+01    0.7547394    0.3657245  76.40  0.002590688    3.458    0.711
       265  -9.4877     67.3810    128.9250   1.1389682747e+02   4.0923551386e+01    0.3322946    0.2446248  73.68  0.001616169    1.332    0.249
       266 -10.0103     71.2677    125.8764   1.1245185583e+02   4.1076748791e+01    0.5487131    0.3247744 -88.92  0.001223473    2.022    0.505
       267  -7.5302     87.0222    134.0000   1.0993192699e+02   3.7032656605e+01    0.2073856   0.07247102  39.39 0.0008021944    2.941    0.660
       268  -9.7375     98.7263    128.7029   1.0617704014e+02   3.6329852881e+01    0.6387479    0.3453975  68.54  0.002041641    2.875    0.652
       269  -7.7987    161.0016    129.7984   9.2182935269e+01   2.4305539470e+01    0.2375972    0.1608851  22.75 0.0009188235    1.950    0.487
       270  -9.8431    110.5587     90.0342   9.4412741041e+01   4.2583592574e+01    0.8573923    0.4103628  31.04  0.003024338    3.269    0.694
       271 -10.0172    139.5020    103.7645   9.0758896904e+01   3.3877623948e+01    0.7479053    0.3446181 -46.75  0.002033098    2.169    0.539
       272 -10.1394    128.6777    100.5281   9.2532405223e+01   3.6792817534e+01    0.9473256    0.4966939 -30.15  0.002423114    2.733    0.634
