#   1 NUMBER                 Running object number                                     
#   2 MAG_AUTO               Kron-like elliptical aperture magnitude                    [mag]
#   3 X_IMAGE                Object position along x                                    [pixel]
#   4 Y_IMAGE                Object position along y                                    [pixel]
#   5 X_WORLD                Barycenter position along world x axis                     [deg]
#   6 Y_WORLD                Barycenter position along world y axis                     [deg]
#   7 A_WORLD                Profile RMS along major axis (world units)                 [deg]
#   8 B_WORLD                Profile RMS along minor axis (world units)                 [deg]
#   9 THETA_WORLD            Position angle (CCW/world-x)                               [deg]
#  10 FWHM_WORLD             FWHM assuming a gaussian core                              [deg]
#  11 ELONGATION             A_IMAGE/B_IMAGE                                           
#  12 ELLIPTICITY            1 - B_IMAGE/A_IMAGE                                       
         1 -12.1201    217.6841     35.7023   3.8560770901e+01   2.7129938392e+01      1.21862    0.6448821  55.95  0.006153068    2.047    0.512
         2 -11.6232    224.4352     28.7653   3.6338981004e+01   2.6527179913e+01    0.8736674    0.4241806  61.94  0.002753583    2.082    0.520
         3 -10.0485      2.2254     24.4402   9.5422348904e+01   7.0854125170e+01    0.4802365   0.08623447 -54.52  0.001595797    5.415    0.815
         4 -11.6402    240.9020     13.9982   3.1883524762e+01   2.4816437828e+01    0.6703811    0.4543523 -60.70  0.002727443    1.199    0.166
         5  -9.4701      2.0000      9.0300   8.8905879273e+01   7.3378524535e+01    0.3597182   0.07987269 -49.84  0.001271701    5.452    0.817
         6  -8.3785     33.0000     10.0446   7.2343034028e+01   6.9905217516e+01    0.1828052    0.0597331 -33.59  0.000803875    2.952    0.661
         7  -9.2212     79.5062    222.6531   1.0853374212e+02   1.7293210972e+01    0.4118029     0.148664  37.07  0.001723366    2.447    0.591
         8 -11.0604     82.8871    246.3430   1.1027936937e+02   1.2096548467e+01    0.6227634    0.3223393  35.79  0.002280941    1.733    0.423
         9 -10.8439     60.1909    247.2413   1.1485963948e+02   1.4914459559e+01    0.6363447    0.3746017  64.93  0.003729172    1.599    0.375
        10 -10.4901     70.0937    247.2921   1.1292002044e+02   1.3631269468e+01    0.6617813    0.3723417  68.13  0.003611833    1.903    0.475
        11  -9.6255     29.7602    245.5686   1.2053147533e+02   1.8829756306e+01    0.3582449   0.06237279  42.10   0.00147003    3.421    0.708
        12  -9.9157     37.5065    250.3386   1.1939712707e+02   1.7047666485e+01    0.4077514    0.1120713  38.09  0.001860923    2.813    0.645
        13  -7.9893     25.9509    250.7853   1.2153532100e+02   1.8244717132e+01    0.1357424   0.07706253  39.17  0.000330251    1.614    0.380
        14 -11.3636     11.4473    233.2249   1.2321906969e+02   2.3170588071e+01     1.072084    0.3962798  86.57  0.004308112    2.838    0.648
        15 -13.4018      4.1791    134.1526   1.1740757698e+02   4.6433855503e+01     6.245415     1.648699 -81.45   0.01916524    4.757    0.790
        16 -12.9219     33.6868    196.9834   1.1612417221e+02   2.8722675319e+01     1.809996     1.215461  68.97  0.008802935    1.362    0.266
        17 -10.9052    113.4813    228.9868   1.0190651783e+02   1.0997962805e+01    0.4326954    0.3575433  21.77  0.002612736    1.292    0.226
        18 -10.5069    101.4421    228.5461   1.0445600255e+02   1.2906928918e+01    0.4224427    0.2691554  44.91  0.002296982    1.379    0.275
        19  -8.8165    149.7643    229.4198   9.4171487712e+01   5.2207236676e+00    0.1969003    0.1150996  26.69 0.0009628159    1.699    0.411
        20  -8.6094     59.0617    231.8200   1.1377660198e+02   1.8113653648e+01    0.2702272     0.159819 -60.69  0.001502189    1.835    0.455
        21 -10.3440     86.8599    224.2245   1.0710937584e+02   1.5923450667e+01     0.367027    0.2935514  71.74 0.0004387091    1.217    0.178
        22  -8.8799     43.6066    218.5856   1.1584419012e+02   2.2785548340e+01    0.2092712    0.1682262 -85.94 0.0005541376    1.165    0.142
        23 -10.9817     13.2672    248.5136   1.2367698677e+02   1.9998390511e+01    0.6780385     0.310191  60.69  0.003381822    1.761    0.432
        24  -8.6409     71.6612    218.2992   1.0977428039e+02   1.9299569673e+01    0.1386671   0.08460195  63.03 0.0007034658    1.662    0.398
        25 -10.1460     57.8560    211.1755   1.1207617910e+02   2.2669723012e+01    0.4739068    0.2319265  50.26  0.002303729    1.885    0.470
        26 -10.6871     85.5137    232.5003   1.0831967970e+02   1.4427004883e+01    0.5588189    0.2860653 -43.77   0.00258138    2.800    0.643
        27 -10.0052     20.7892    195.2338   1.1885332016e+02   3.0440737927e+01    0.2618943    0.2000438 -87.99  0.000800661    1.102    0.093
        28  -8.9389     83.7275    229.3578   1.0835866976e+02   1.5313725331e+01    0.2479063    0.1761041 -77.08  0.000913788    1.508    0.337
        29  -9.8242     53.3955    179.5565   1.0959825155e+02   3.0587358113e+01    0.3916579    0.2659465 -34.28  0.001965577    2.025    0.506
        30 -10.0091     59.5960    173.7767   1.0727955762e+02   3.1220571292e+01     0.346626    0.2494536 -51.34 0.0008535677    1.450    0.310
        31 -10.3286     95.5678    243.4265   1.0740087752e+02   1.0873336865e+01    0.3811873    0.2412697  88.83  0.002049946    2.071    0.517
        32  -9.9474    134.2121    233.3228   9.8041148392e+01   6.9603979698e+00    0.2443344    0.1871833 -70.37  0.001410287    1.650    0.394
        33 -11.0223    127.3617    231.6107   9.9267007722e+01   8.3471577569e+00     0.395599    0.3495886 -47.24  0.002507711    1.285    0.222
        34 -12.6585      9.1328    207.3714   1.2217838866e+02   2.8818296140e+01     1.389832    0.9212328  87.91  0.007424351    1.234    0.189
        35  -9.6944     70.9672    163.9598   1.0284544708e+02   3.2126616518e+01    0.3165947    0.2844528  57.31 0.0005351291    1.121    0.108
        36 -11.5144     56.9882    160.2545   1.0606162144e+02   3.4911842632e+01     0.532901    0.3038337 -41.37  0.001407666    2.111    0.526
        37  -9.0904     35.3805    159.6805   1.1179920189e+02   3.7518053398e+01    0.5611352    0.2406558  65.23  0.001988485    3.700    0.730
        38 -10.9518     78.5302    156.7950   9.9590436420e+01   3.2825377102e+01    0.6883705    0.5986578  23.36   0.00223502    1.287    0.223
        39 -10.4447    119.1953    231.1886   1.0096251449e+02   9.6930098902e+00     0.359787    0.2511929  -7.63  0.001796609    2.277    0.561
        40 -11.1309     69.5194    145.5062   1.0013087041e+02   3.6971598669e+01    0.5299955    0.5107628  67.00  0.001714136    1.086    0.079
        41 -10.7435     67.7589    142.5715   1.0010933691e+02   3.7959397234e+01     0.542603    0.3462964  42.03  0.001351378    1.650    0.394
        42  -8.9863     95.1393    142.4738   9.2168376893e+01   3.3760420022e+01    0.4280298    0.2863256 -11.52  0.001708961    2.446    0.591
        43 -10.2961     81.9735    141.7073   9.5797596687e+01   3.6089964835e+01    0.3368791    0.2652423 -42.80 0.0004002469    1.289    0.224
        44 -10.5160     58.0725    132.9989   1.0123644360e+02   4.1669276140e+01     0.784453    0.2701525 -70.95  0.002194959    4.602    0.783
        45  -8.2930     94.1256    127.6551   8.9196704390e+01   3.7587492226e+01    0.2873986    0.2069193 -44.96 0.0006857897    1.346    0.257
        46  -8.9736     13.5756    127.8049   1.1393830863e+02   4.7364186106e+01    0.2275262    0.1377425 -79.11 0.0005683852    1.461    0.316
        47  -8.9798    106.4676    131.5353   8.6512052642e+01   3.4435699647e+01     0.338022    0.3174615  54.84  0.001210571    1.112    0.100
        48  -8.5365    114.5183    125.5260   8.2791254599e+01   3.4345524354e+01    0.1561487    0.1504311 -31.39 0.0008096969    1.025    0.025
        49  -7.7471    105.1130    119.9006   8.4087288015e+01   3.7475023238e+01     0.201516    0.1771155 -12.96            0    1.245    0.197
        50 -11.0585     22.8280    206.8520   1.1929895576e+02   2.7621192062e+01    0.3667156    0.2850441 -52.30 0.0009018652    1.596    0.374
        51  -7.2270     83.3493    111.3083   8.8564901573e+01   4.3370841944e+01    0.1571391    0.1145879 -17.62 0.0004951131    1.709    0.415
        52  -7.8634    205.6699    110.3114   5.8059476151e+01   1.7999477023e+01    0.1486227    0.1107493 -70.89 0.0007042696    1.670    0.401
        53  -9.5718      1.7335     86.1587   1.1171612073e+02   5.8103303102e+01    0.4733537    0.1264945 -71.01  0.001714998    3.460    0.711
        54 -10.3048      2.0000     78.5100   1.1024604850e+02   5.9845751259e+01     0.609167    0.1359362 -69.34  0.002003758    4.290    0.767
        55  -7.4709     62.3076     71.6941   8.4639244218e+01   5.5547552202e+01    0.1290862    0.1131065  83.63 0.0004310743    1.609    0.378
        56 -10.3718      2.1409     51.7691   1.0422459450e+02   6.5647062548e+01    0.7440621    0.1022565 -63.41  0.001815526    8.652    0.884
        57  -9.7389      2.0000     60.0184   1.0634920069e+02   6.3925151291e+01    0.3886702    0.1105786 -68.18  0.001388251    4.016    0.751
        58  -9.1369     13.1437     60.0397   1.0143925121e+02   6.3271333722e+01    0.2242606    0.1469931 -57.90  0.001322823    1.374    0.272
        59  -9.7179    201.3716     50.9650   4.4121932951e+01   2.8751818727e+01    0.3335378    0.2007379 -64.35  0.001592262    1.841    0.457
        60  -9.1772     49.1166    248.6695   1.1710298964e+02   1.6005618394e+01    0.2016181    0.1359101  79.68  0.001106781    1.376    0.273
        61 -11.4671      2.6016    244.3486   1.2535204305e+02   2.1833689045e+01     1.988618     0.364847 -78.54  0.007616156    4.928    0.797
        62  -7.2544    126.6919     34.3714   5.1969934561e+01   4.8818456997e+01     0.141949    0.1040932 -67.87 0.0007033601    1.766    0.434
        63  -8.6694     73.9980    241.2408   1.1158792095e+02   1.4280288971e+01    0.1789413     0.142844  53.89  0.001171036    1.047    0.045
        64  -8.4790     49.1108    237.2711   1.1624192635e+02   1.8239455090e+01    0.1917667    0.1789662 -46.30  0.001291536    1.473    0.321
        65  -8.1972     19.9938    238.3028   1.2191279818e+02   2.1296216633e+01    0.1585716    0.1155952  55.37 0.0001890149    1.162    0.139
