#   1 NUMBER                 Running object number                                     
#   2 MAG_AUTO               Kron-like elliptical aperture magnitude                    [mag]
#   3 X_IMAGE                Object position along x                                    [pixel]
#   4 Y_IMAGE                Object position along y                                    [pixel]
#   5 X_WORLD                Barycenter position along world x axis                     [deg]
#   6 Y_WORLD                Barycenter position along world y axis                     [deg]
#   7 A_WORLD                Profile RMS along major axis (world units)                 [deg]
#   8 B_WORLD                Profile RMS along minor axis (world units)                 [deg]
#   9 THETA_WORLD            Position angle (CCW/world-x)                               [deg]
#  10 FWHM_WORLD             FWHM assuming a gaussian core                              [deg]
#  11 ELONGATION             A_IMAGE/B_IMAGE                                           
#  12 ELLIPTICITY            1 - B_IMAGE/A_IMAGE                                       
         1 -13.3977    208.2697     28.5183   1.7345902740e+01   2.9828266206e+01    0.8770613    0.8003389 -68.60  0.004485472    1.060    0.057
         2 -10.9019     45.6667      9.6671   4.9347258852e+01   6.8206737216e+01     0.126881    0.0773379   1.32 0.0007052236    1.731    0.422
         3 -10.9096     71.7454      5.7703   3.7369905905e+01   6.4488639357e+01    0.1820431    0.1004971  58.97 0.0008874201    2.418    0.587
         4 -12.1229     54.5789    229.4222   9.2861553549e+01   2.0858498775e+01    0.2427537    0.1256405 -71.47  0.001305112    1.914    0.477
         5 -13.6636    247.6929    243.3912   5.8678889163e+01  -1.1166409378e+01     1.181989    0.4547509 -27.16  0.005865778    2.915    0.657
         6 -17.0317    121.1760    234.8028   8.0861045398e+01   1.0211020592e+01     16.46812     8.495973  87.83    0.0585302    5.277    0.810
         7  99.0000     56.7095    194.0096   8.9358567404e+01   2.7752446980e+01    0.3351508    0.2644042  57.93  0.001239738    1.175    0.149
         8  -9.6726    193.4953    194.5159   6.0224299370e+01   4.4699517171e+00    0.1376706    0.1233009  26.16 0.0001781664    1.020    0.020
         9  -5.4175     17.5431    188.2665   9.6843378901e+01   3.3325622325e+01    0.3402494   0.09730946 -70.81  0.001548931    2.789    0.641
        10 -10.9463     12.0027    188.7375   9.7959554859e+01   3.3741355058e+01    0.1384057    0.1149259 -45.88 0.0009990319    1.774    0.436
        11 -18.9230     27.0027     95.5099   8.3944660235e+01   5.3634200346e+01     14.53584    0.7047749 -65.36   0.02367997   16.404    0.939
        12  -9.4225     59.7446    185.7657   8.7855989708e+01   2.9156344171e+01    0.3332468    0.1570201  74.79  0.001391153    2.871    0.652
        13 -10.8185     55.4634    183.2097   8.8511484607e+01   3.0265170666e+01    0.2146858    0.1483324  57.31 0.0002949752    1.315    0.240
        14 -10.5186     69.0450    182.2364   8.5408602917e+01   2.8699722860e+01    0.2522536    0.1492001  39.68   0.00132789    1.706    0.414
        15 -12.5334     64.3904    179.5353   8.6126911210e+01   2.9931625475e+01    0.5393164    0.3802851  16.84  0.002125159    2.185    0.542
        16  99.0000     41.6636    209.2983   9.3715355301e+01   2.6387717639e+01     5.936784     2.585986  86.03   0.02819925    2.561    0.610
        17  -9.6968     47.0000    184.7744   9.0496096024e+01   3.0949747268e+01    0.1841855   0.06140656 -70.67 0.0007675976    2.711    0.631
        18 -10.8018    174.7686    180.0082   6.1349123664e+01   1.0664684540e+01    0.2914411    0.2723839 -24.34  0.000911129    1.133    0.117
        19 -11.5415    172.7580    176.5755   6.1112893083e+01   1.1717976129e+01    0.5267082    0.3594437 -24.64  0.002469628    1.843    0.457
        20 -11.6703    145.0731    177.0818   6.7307236100e+01   1.7059186159e+01     0.282245    0.2080837 -58.50 0.0004946945    1.476    0.323
        21 -10.4508     59.6787    175.5081   8.6714005294e+01   3.1453946569e+01     0.290353    0.1556707  64.40 0.0009400349    1.987    0.497
        22 -10.3827      3.9077    175.9783   9.8728534004e+01   3.7144280855e+01    0.1059207   0.08414769  65.70 0.0002932857    1.221    0.181
        23 -11.3047     61.0209    219.5676   9.0865314497e+01   2.1932806361e+01     0.182704    0.1305248  85.22 0.0003491383    1.225    0.184
        24 -10.9437     53.6904    173.9277   8.7886150584e+01   3.2563472392e+01    0.3011566    0.1732816  67.93 0.0008222334    1.779    0.438
        25 -11.4098    180.5323    170.5013   5.8239679412e+01   1.1325564559e+01    0.4545684    0.3037326  31.88  0.001887703    1.541    0.351
        26 -11.3768    179.1986    166.9880   5.7804108777e+01   1.2273038038e+01    0.4286815    0.3348108  34.43  0.002034197    1.246    0.197
        27 -11.3099    234.4697    169.4768   4.7413366729e+01   1.0080705173e+00    0.2842056      0.12612 -36.65  0.001210884    2.178    0.541
        28  -9.9289    210.9686    198.6646   5.7569182511e+01   6.1038506763e-01    0.1897375    0.1503138  32.22 0.0004945967    1.144    0.126
        29 -10.2258      9.2134    166.2841   9.6956494301e+01   3.8812481008e+01    0.1496364    0.1172367 -82.76 0.0004360735    1.132    0.116
        30  -9.6029      1.9316    166.5861   9.8510007304e+01   3.9323541798e+01    0.1193522    0.1088155  48.25 0.0004399056    1.426    0.299
        31 -11.2057     63.0425    197.5836   8.8399899053e+01   2.6167398822e+01    0.1677606    0.1344176  81.96 0.0002620672    1.051    0.049
        32 -11.7212    111.9127    150.0199   7.0108883618e+01   2.9297266628e+01    0.4387217    0.2824331 -86.58  0.001381532    2.222    0.550
        33 -12.0639    108.8780    145.4190   6.9979863936e+01   3.0915848259e+01    0.4229064    0.3036942 -66.99  0.001275419    1.430    0.301
        34 -12.0304    133.8704    146.2675   6.3864408172e+01   2.5952329759e+01     1.083766    0.2920441 -55.16  0.002742192    5.100    0.804
        35  -9.6725    149.2667    146.6372   6.0219734960e+01   2.2707906803e+01    0.1548833    0.1202934 -85.97 0.0004959315    1.647    0.393
        36 -12.5917    106.8778    131.3774   6.7599290366e+01   3.4571326104e+01    0.6343092    0.4980415  89.19  0.002511083    1.473    0.321
        37  -9.2430    123.6871    132.3306   6.3375987374e+01   3.1156525512e+01    0.1579583    0.1195498  84.94 0.0007044047    1.675    0.403
        38 -12.0509     98.1954    130.7083   6.9801056333e+01   3.6262349867e+01    0.2942782    0.2849865 -22.64 0.0004685391    1.159    0.137
        39 -11.2634    135.5197    128.0414   5.9343171197e+01   2.9717129996e+01    0.4204373    0.1521565 -48.10  0.001369794    2.763    0.638
        40 -11.0762     92.1702    127.1129   7.0697967440e+01   3.8131313190e+01    0.2159351    0.1939564 -38.08 0.0003455978    1.205    0.170
        41 -10.1328    116.0098    125.4932   6.3831707201e+01   3.4235817399e+01    0.2241119    0.1506155  40.25 0.0005524086    1.537    0.350
        42 -10.7215    103.9818    120.4099   6.5934516843e+01   3.7670126295e+01    0.2731746    0.2321628  -4.65 0.0006319251    1.473    0.321
        43 -10.0020    110.8117    115.4007   6.2844976984e+01   3.7565354581e+01     0.195539    0.1469248  29.20 0.0003373489    1.509    0.338
        44 -11.2312     83.1918    110.8648   6.9698181501e+01   4.3424204773e+01    0.2649411    0.2204384  77.80 0.0003508872    1.369    0.269
        45 -11.6390     85.4144    107.0885   6.8152647114e+01   4.3957040417e+01    0.3528198    0.2847983  59.09 0.0008490819    1.390    0.281
        46 -12.2746    117.5114    108.4106   5.9227693797e+01   3.7848098235e+01    0.4303211    0.3639592  46.73  0.001238267    1.213    0.176
        47 -12.3026    113.0036    100.1458   5.8295966923e+01   4.0591090214e+01    0.7759497    0.4470734  75.12  0.002204075    4.983    0.799
        48 -10.8307     79.5553    102.7383   6.8881232930e+01   4.5883664963e+01    0.3234588    0.2006861  51.49  0.001305058    1.900    0.474
        49 -11.1753     73.4382     99.7051   7.0042372684e+01   4.7493309671e+01     0.362137    0.2580258  88.75 0.0003706962    1.946    0.486
        50 -10.8678    118.3368     91.7069   5.4431126703e+01   4.1342050369e+01    0.3335328    0.2550344 -85.81  0.001507427    1.826    0.452
        51 -10.5712     65.2468     88.0129   6.9774436183e+01   5.1298770662e+01    0.2806378    0.1919565  43.33 0.0006270666    1.667    0.400
        52 -10.7911     95.1229     86.4743   5.9767901722e+01   4.6960090799e+01    0.3510736    0.2338454  63.96  0.001535245    2.155    0.536
        53 -11.1900     84.1130     84.4927   6.2666284375e+01   4.9274142460e+01    0.5387365    0.2748224  57.07  0.001951925    3.344    0.701
        54  -9.5601    111.8032     83.5793   5.3913450072e+01   4.4388419531e+01    0.2003038    0.1445871  55.62 0.0005293005    1.559    0.358
        55  -9.8218     49.9870     77.5336   7.2279188856e+01   5.5502729633e+01    0.1722055    0.1301815  27.24 0.0004545538    1.506    0.336
        56 -10.9080     58.2188    228.3619   9.2115525603e+01   2.0595450551e+01    0.1504431    0.1315538 -86.52  0.000667656    1.325    0.245
        57 -10.4390     69.2865    194.6868   8.6782626792e+01   2.5944549100e+01    0.2360721    0.1239763 -77.35  0.001177377    1.931    0.482
        58 -12.6781    169.3024     67.4665   3.4680876828e+01   3.4039198999e+01    0.4611017    0.4455584 -67.40  0.000863414    1.038    0.037
        59 -10.1338    150.7313     67.5501   3.8745677594e+01   3.8651315511e+01    0.2078945    0.1491353  67.16 0.0009332446    1.548    0.354
        60 -13.3829    185.0955     54.1498   2.7806498561e+01   3.2163394873e+01     1.142588    0.8807277  28.08  0.003685653    1.591    0.372
        61 -11.8710    191.1480     48.2042   2.5108808831e+01   3.1501741147e+01    0.4038812    0.3279051  32.96 0.0009037686    1.445    0.308
        62 -12.3056     90.3820    221.3043   8.5345441193e+01   1.7475962858e+01    0.5166489    0.2465386 -63.04   0.00236566    2.245    0.555
        63 -11.6726     67.8148    213.9722   8.9046607724e+01   2.2139944053e+01    0.1779008    0.1421939  68.78 0.0003838808    1.028    0.027
        64 -12.3307     89.2327    214.4544   8.4834586905e+01   1.8984942694e+01    0.4283637    0.2394753 -51.49  0.001714007    2.223    0.550
        65 -11.1045     71.0350    230.9241   8.9965847981e+01   1.8411759391e+01    0.1683227     0.131924  89.50  0.001095548    1.218    0.179
