#   1 NUMBER                 Running object number                                     
#   2 MAG_AUTO               Kron-like elliptical aperture magnitude                    [mag]
#   3 X_IMAGE                Object position along x                                    [pixel]
#   4 Y_IMAGE                Object position along y                                    [pixel]
#   5 X_WORLD                Barycenter position along world x axis                     [deg]
#   6 Y_WORLD                Barycenter position along world y axis                     [deg]
#   7 A_WORLD                Profile RMS along major axis (world units)                 [deg]
#   8 B_WORLD                Profile RMS along minor axis (world units)                 [deg]
#   9 THETA_WORLD            Position angle (CCW/world-x)                               [deg]
#  10 FWHM_WORLD             FWHM assuming a gaussian core                              [deg]
#  11 ELONGATION             A_IMAGE/B_IMAGE                                           
#  12 ELLIPTICITY            1 - B_IMAGE/A_IMAGE                                       
         1  -8.2158     38.7564     17.1726   9.4352490554e+01   6.5255861245e+01    0.3484562   0.08555254 -29.62  0.001330845    4.395    0.772
         2  -8.1047    112.7632     17.0193   7.2718926121e+01   5.2206058858e+01    0.1420073     0.103659 -18.78 0.0003182131    1.548    0.354
         3  -7.9103      7.6129     15.7587   1.0686206888e+02   6.8861591428e+01    0.1366417   0.08801354 -39.05 0.0007083203    1.682    0.405
         4  -7.8408     83.4071     11.1816   7.7676516647e+01   5.8589484067e+01    0.1486917     0.107016 -30.95  0.000526774    1.661    0.398
         5  -8.6284     55.8085     10.2609   8.5476880308e+01   6.3477599047e+01    0.1752112    0.1413819 -17.15 0.0007036189    1.379    0.275
         6  -7.6499     47.5164     10.0121   8.8209701476e+01   6.4776119986e+01    0.1339231   0.09295997 -44.48 0.0008084258    2.402    0.584
         7  -8.0829     90.7823      8.8586   7.4994830926e+01   5.7370333992e+01    0.1452334    0.1390446  68.72 0.0006540394    1.345    0.257
         8  -7.6835    101.4591      8.4356   7.2383048743e+01   5.5277095492e+01    0.1202542   0.09982345  43.34 0.0001110423    1.048    0.046
         9  -8.7439     33.3885      5.0384   9.1364358775e+01   6.7246757829e+01    0.2371028    0.1672448 -42.21  0.001493401    2.372    0.578
        10  -8.6283     79.0877      3.7501   7.6112390944e+01   6.0001638562e+01     0.226251    0.1484361 -36.73  0.001148573    1.993    0.498
        11  -8.5178     28.0604     10.0780   9.5642723347e+01   6.7403963186e+01    0.1421067    0.1298575  -5.75 0.0005121288    1.624    0.384
        12  -8.1899     15.9925      3.2132   9.7786235781e+01   6.9533387658e+01    0.1334763    0.1047803 -25.66 0.0004952145    1.610    0.379
        13  -7.4212    147.2541      1.6826   6.2248071013e+01   4.5971754747e+01    0.1120377   0.08424675 -71.42 0.0002256847    1.532    0.347
        14  -8.4270     62.3405      1.5134   7.9943665906e+01   6.3154775260e+01     0.187043    0.0994124  51.84 0.0006029932    1.858    0.462
        15  -8.4202    139.4686    244.9382   1.2093064816e+02   4.2414511415e+00    0.1704184    0.1149321 -86.71  0.000808733    2.529    0.605
        16  -8.3974    248.8678    249.2539   1.0032396608e+02  -1.2986915465e+01    0.3472375    0.1416229 -27.16  0.001656001    2.533    0.605
        17  -9.2582    248.6005    242.5461   9.9208060615e+01  -1.2046314500e+01     0.270878      0.21031 -45.43  0.001489154    1.843    0.458
        18  -8.4756     93.7649    249.1450   1.3070944267e+02   1.0576617680e+01    0.2675145    0.1606764  87.81  0.001319975    2.327    0.570
        19  -8.0322     67.4926    244.9196   1.3537584649e+02   1.5107192764e+01    0.1737927    0.1120154 -70.99 0.0007692506    1.569    0.363
        20  -8.7314    201.9588    243.0020   1.0801050071e+02  -5.4515416894e+00    0.2660482    0.1785327 -46.03  0.001027096    1.796    0.443
        21  -8.9408    169.0414    243.5192   1.1466895583e+02  -3.1856305341e-01    0.2125562    0.1860101 -72.13 0.0005558527    1.533    0.348
        22  -8.8180     77.9910    243.6446   1.3319999569e+02   1.3914130290e+01    0.2997024    0.1453364  64.79  0.001317605    2.735    0.634
        23  -7.7788     58.3526    244.6601   1.3709606799e+02   1.6364696596e+01    0.1319881   0.07497635  66.95 0.0007042849    1.803    0.445
        24  -9.4184    183.1684    240.2205   1.1127359611e+02  -2.0480298953e+00    0.4554644    0.3269376  69.58  0.001919694    2.522    0.603
        25  -9.7042    160.4506    240.7727   1.1598993109e+02   1.5566492903e+00    0.3968759    0.2703144 -78.93  0.001425782    2.753    0.637
        26  -7.9239     49.7099    243.0671   1.3857684954e+02   1.7775918963e+01    0.1901552   0.08054695  87.45 0.0007027097    4.202    0.762
        27  -8.1287    214.5162    241.3165   1.0529167761e+02  -7.0928386102e+00    0.2211794    0.1192544 -42.17 0.0007782383    2.048    0.512
        28  -9.1373    194.4250    239.8959   1.0896807283e+02  -3.7877370649e+00    0.3439175     0.209288 -48.21  0.001293547    1.997    0.499
        29  -7.9889    153.4564    242.2668   1.1765986076e+02   2.4402348189e+00    0.1633649     0.129401 -67.55 0.0007524175    1.633    0.387
        30  -7.9890     88.3458    242.2327   1.3098651285e+02   1.2708249918e+01      0.16795    0.1116103 -79.92 0.0005408746    1.691    0.409
        31  -7.9281    240.6026    240.7601   1.0032954048e+02  -1.0731656395e+01    0.1539832    0.1067636 -37.64 0.0009353254    1.594    0.373
        32  -8.4324    146.5134    239.8023   1.1871740721e+02   4.0216901980e+00    0.2356478    0.1562007  65.33  0.001148351    2.146    0.534
        33  -8.5385    209.1272    238.4745   1.0583832740e+02  -5.8442440420e+00    0.1850339    0.1770791 -32.64 0.0006516802    1.379    0.275
        34  -8.7545    135.7681    239.0828   1.2084168838e+02   5.9166846150e+00     0.205302    0.1678154  64.23  0.001121953    1.350    0.260
        35  -8.0147    129.3035    238.8160   1.2214799881e+02   7.0196479085e+00    0.1876257    0.1506955  50.09  0.001107229    1.169    0.144
        36  -7.8174     41.0000    239.0952   1.3985350691e+02   1.9627463601e+01    0.1830385   0.05976703 -69.41 0.0007992311    2.920    0.658
        37  -8.8818      1.6258    238.6492   1.4682604490e+02   2.3901822241e+01    0.2275941    0.1082805 -87.56  0.001176378    1.827    0.453
        38  -8.7849    230.9643    237.3089   1.0148812695e+02  -8.8927162488e+00    0.2500502    0.1969091 -56.27  0.001117605    2.051    0.512
        39  -7.7907     13.6301    238.2728   1.4473773436e+02   2.2801933454e+01    0.1186094   0.06314041  64.62 0.0007001521    1.675    0.403
        40  -8.9994    247.6736    235.1052   9.8058422207e+01  -1.0885088996e+01     0.302824    0.2428118 -56.44  0.001633679    2.144    0.534
        41  -9.3158    246.4143    229.3681   9.7252404090e+01  -9.8888428072e+00    0.3535705    0.1844056 -39.95  0.001268785    1.958    0.489
        42  -8.3624     25.5320    236.7195   1.4250392473e+02   2.1862779438e+01    0.2769417    0.1177093  81.22  0.001235516    3.076    0.675
        43 -10.0750    214.5802    232.5080   1.0373523498e+02  -5.7433047043e+00    0.5883714    0.3809595 -60.41  0.002615605    2.960    0.662
        44  -9.1151    203.1288    234.1900   1.0626376717e+02  -4.2375175742e+00    0.4004073    0.2010148 -47.70  0.001378906    2.429    0.588
        45  -9.6566    175.6740    233.2572   1.1163324544e+02   3.5864326435e-01    0.4800006    0.2683102 -59.38  0.002105056    2.815    0.645
        46  -8.4182    170.3433    236.1172   1.1320562750e+02   7.4151139260e-01     0.170421    0.1251291 -56.49 0.0004817322    1.714    0.417
        47  -9.4006    108.9223    234.5853   1.2581176280e+02   1.1099200015e+01    0.4701226    0.2338222  55.34  0.001117408    2.303    0.566
        48  -7.7477     58.0064    237.0000   1.3641853910e+02   1.7943450395e+01    0.1918183   0.06340007  36.23 0.0008012648    2.934    0.659
        49  -8.1420    122.9754    234.2843   1.2282167021e+02   8.9143985562e+00    0.2499901    0.1611238  87.65 0.0009784019    2.560    0.609
        50  -8.5344     99.5930    234.5905   1.2775597821e+02   1.2544280871e+01    0.2564511    0.1625406  72.51   0.00112881    2.008    0.502
        51  -8.9104     78.9032    234.7038   1.3201857682e+02   1.5575607144e+01    0.2621675    0.1732567  81.53 0.0009511583    1.708    0.414
        52  -9.1794     68.4371    232.2732   1.3386073534e+02   1.7528230752e+01    0.4672979    0.2296513  74.05  0.001906344    3.269    0.694
        53  -7.6875     53.5852    234.5321   1.3703545430e+02   1.9011911631e+01    0.1229639   0.09833682  74.48 8.936653e-05    1.071    0.066
        54  -8.5106    194.2889    232.4923   1.0772280815e+02  -2.5542450723e+00    0.2300816    0.1731042 -34.22 0.0007309188    1.380    0.275
        55  -8.4657    144.6702    233.3420   1.1810930196e+02   5.5190411222e+00    0.2244742    0.1477362  71.82  0.001014781    2.501    0.600
        56  -8.8076    140.2506    230.1686   1.1854938647e+02   6.8589923943e+00    0.3357948     0.205707  62.68  0.001226399    2.314    0.568
        57  -8.0670    132.9088    232.9345   1.2052848944e+02   7.5496363440e+00    0.2137288    0.1528941  66.24 0.0007479354    1.724    0.420
        58  -8.2280     92.8725    232.2392   1.2885200529e+02   1.4037231803e+01    0.3510604    0.1606692  61.62  0.001326649    3.375    0.704
        59  -9.0918    235.9304    231.0301   9.9450641379e+01  -8.6696356652e+00    0.2464197    0.1574058 -28.47 0.0006166462    1.448    0.310
        60  -9.3953    186.4076    230.5973   1.0898366269e+02  -9.5267553498e-01    0.3352251    0.2551942 -72.18  0.001183526    2.181    0.542
        61  -8.2676    157.7556    232.1738   1.1517384408e+02   3.5437264625e+00    0.1973947    0.1714353 -88.61 0.0008607271    1.504    0.335
        62  -8.6228      1.8408    231.1836   1.4631845346e+02   2.5359325761e+01    0.1763176    0.1107393  72.18 0.0006562013    1.319    0.242
        63  -9.1050    151.3177    228.9838   1.1601224159e+02   5.2201389775e+00    0.2849207    0.1983397 -86.82  0.001204688    2.537    0.606
        64  -9.4273    148.8251    224.6993   1.1584362881e+02   6.4577446086e+00    0.4550167    0.3080993 -81.18   0.00144889    2.550    0.608
        65  -8.5150    229.8336    228.7732   1.0017068723e+02  -7.4481247716e+00      0.22383    0.1397617 -43.48 0.0008550796    1.825    0.452
        66  -8.7359    162.3973    227.9151   1.1349606801e+02   3.5416797188e+00    0.3168943    0.2304885  70.01   0.00105414    2.079    0.519
        67  -8.9019    128.0391    227.1255   1.2068847615e+02   9.4892448168e+00     0.329704    0.2356667 -77.15  0.001252117    1.826    0.452
        68  -8.1568    119.9997    227.7532   1.2250545199e+02   1.0687239378e+01    0.2294027    0.1713117 -81.36  0.001233629    1.650    0.394
        69  -8.1906    223.5138    226.7613   1.0099322876e+02  -6.1965710179e+00    0.2383904    0.1149423 -33.66 0.0007794977    2.030    0.507
        70  -8.7722    206.3188    225.5622   1.0409972735e+02  -3.3332038991e+00    0.3957784     0.223324 -43.04  0.001661631    1.897    0.473
        71  -8.5868    200.1066    226.6186   1.0552154948e+02  -2.5117631300e+00    0.2164409    0.1777122 -43.79 0.0005464007    1.414    0.293
        72  -7.6706    177.6456    227.2874   1.1020627904e+02   1.0798878738e+00    0.1308129    0.1050889  63.42 0.0002205842    1.672    0.402
        73  -8.2926     49.2171    226.7308   1.3712467505e+02   2.1175130880e+01    0.2617671    0.1432626  68.40  0.001346699    1.991    0.498
        74  -8.9097    180.7894    224.0684   1.0899275379e+02   1.1235795961e+00    0.3268172    0.2595986 -49.43  0.001242192    1.458    0.314
        75  -9.0860    104.8929    223.9192   1.2519861347e+02   1.3895926298e+01    0.3744016    0.2396465  87.31  0.001687517    2.251    0.556
        76  -8.9206     94.2132    224.1818   1.2752476092e+02   1.5497027466e+01    0.3882458    0.2035651  66.97  0.001567113    2.952    0.661
        77  -7.9362     38.5455    224.8034   1.3904046537e+02   2.2855440718e+01    0.1700331   0.09928276 -88.44  0.000730194    1.678    0.404
        78  -8.9382    216.4237    223.5116   1.0175545808e+02  -4.5911201378e+00    0.2414324     0.220827 -56.89 0.0008893314    1.530    0.347
        79  -8.5279    173.0597    223.3932   1.1048280127e+02   2.5564535601e+00    0.2379637     0.192731 -64.78  0.000685124    1.625    0.385
        80  -7.9998    113.8014    223.8411   1.2326559226e+02   1.2487555141e+01     0.183331    0.1498322  75.55 0.0005224492    1.335    0.251
        81  -9.4105    192.5018    221.3035   1.0609493911e+02  -3.5388510891e-01    0.3165018    0.2716262 -75.67  0.001048075    1.724    0.420
        82  -8.1903    162.9972    222.5086   1.1245137553e+02   4.4434906065e+00    0.2669994    0.1666041  44.09  0.001315912    1.563    0.360
        83  -8.4377    158.9748    220.3827   1.1294326421e+02   5.5392770155e+00    0.2501438    0.2139732  74.66 0.0007708062    1.486    0.327
        84  -8.2061    140.3710    223.1189   1.1740425748e+02   8.2065829477e+00    0.1835758    0.1310263 -65.99 0.0009356006    1.727    0.421
        85  -8.9076    239.0712    221.6592   9.7166881747e+01  -7.7029198334e+00    0.2185356    0.1940712 -54.36  0.000876158    1.667    0.400
        86  -9.1885    225.5999    221.7429   9.9679053797e+01  -5.7193390643e+00    0.2388108    0.2205366  51.49  0.001085503    1.525    0.344
        87  -9.0907      7.6113    222.1524   1.4467306893e+02   2.6655314027e+01    0.2616119   0.08413188  48.03   0.00126797    2.777    0.640
        88  -9.1863    120.5657    219.3540   1.2112026141e+02   1.2301269527e+01    0.4669695    0.2882285  71.25  0.001647034    2.526    0.604
        89  -8.6901     82.6282    220.7564   1.2955150621e+02   1.7947125138e+01    0.2577494    0.1730518  74.89 0.0008954694    1.695    0.410
        90  -8.2076     73.0397    221.0501   1.3162218764e+02   1.9251747154e+01    0.2150771    0.1376334  71.89   0.00099679    1.743    0.426
        91  -8.2281     27.4480    220.7884   1.4083565964e+02   2.4940465709e+01    0.2188155    0.1012888 -76.71  0.001128684    1.983    0.496
        92  -8.3496    202.6944    220.1224   1.0382659186e+02  -1.8339227150e+00    0.1919775    0.1620307 -45.74 0.0005364301    1.402    0.287
        93  -8.7850    249.8170    218.8920   9.4730909209e+01  -8.8066170631e+00    0.1989671    0.1684601  60.93  0.001076472    2.021    0.505
        94  -8.3377    210.0406    218.9002   1.0214780964e+02  -2.8192419815e+00    0.2174876    0.1677403 -49.64 0.0006432438    1.603    0.376
        95  -9.2195    132.9599    216.0823   1.1787663866e+02   1.0882712924e+01    0.5222421    0.3309098  78.56  0.002115818    2.958    0.662
        96  -8.6388     62.4391    217.5438   1.3343893349e+02   2.1446226065e+01    0.3296021    0.1645708  60.94   0.00124527    2.340    0.573
        97  -9.0499     51.4936    217.4913   1.3571081974e+02   2.2861207533e+01    0.2774732    0.1826664  88.99  0.001064455    1.512    0.339
        98  -7.9789    179.3768    217.2702   1.0807122637e+02   2.5940211443e+00    0.1808865    0.1309666 -52.86 0.0006652303    1.636    0.389
        99  -8.6999    169.3096    216.4444   1.1004619649e+02   4.4919963346e+00    0.2954533    0.2341945 -73.44 0.0008364213    1.779    0.438
       100  -8.5973    142.9286    216.4681   1.1575133846e+02   9.0869525184e+00    0.2529128    0.1968691 -75.95 0.0008334485    1.653    0.395
       101  -7.9407    111.8377    217.0686   1.2268947193e+02   1.4212577410e+01    0.2209087     0.151772  83.88  0.001059628    1.991    0.498
       102  -8.5237     18.5233    216.9912   1.4223129580e+02   2.6671687250e+01    0.1771201   0.09672721 -76.21 0.0008895611    1.570    0.363
       103  -8.6137    232.5195    215.1343   9.7154034143e+01  -5.7137994897e+00    0.2675322    0.2016499 -56.88  0.001111118    2.001    0.500
       104  -8.5125    185.7739    214.6996   1.0626938323e+02   1.9630735508e+00    0.2315603    0.1836505 -75.19 0.0008662526    1.955    0.488
       105  -8.2852    154.4226    215.2623   1.1303819833e+02   7.3224318901e+00    0.2256922    0.1672998  60.43 0.0007867744    1.645    0.392
       106  -9.4477    214.0223    212.2551   1.0012430465e+02  -2.3401974368e+00    0.3399798    0.2766173  60.61  0.001392441    1.797    0.443
       107  -8.9325     92.9600    213.8907   1.2638832944e+02   1.7878562731e+01    0.2865421    0.2025803  81.07  0.001124326    1.670    0.401
       108  -9.4805     73.6218    212.4236   1.3042697131e+02   2.1038784402e+01    0.6749737    0.2720885  58.71  0.002330577    3.944    0.746
       109  -7.9404    224.6204    212.7210   9.8177512628e+01  -4.1075489810e+00    0.1713947    0.1175163 -42.31 0.0004863379    1.556    0.357
       110  -8.5911    161.7745    212.5185   1.1095969142e+02   6.5661028821e+00     0.244616     0.187917 -70.29 0.0006584659    1.758    0.431
       111  -8.0436    106.4513    212.9262   1.2325836932e+02   1.5964952198e+01    0.1950238    0.1336075 -63.64 0.0009485648    1.543    0.352
       112  -7.7837    242.6905    212.3247   9.4770898957e+01  -6.7810197763e+00    0.1124661    0.1032499 -62.49   0.00035321    1.653    0.395
       113  -9.0267    204.4104    210.9392   1.0177036804e+02  -5.2947761204e-01    0.2791548    0.2258953 -67.17  0.000700032    1.849    0.459
       114  -9.3974    175.6574    210.2147   1.0756336259e+02   4.5583311572e+00     0.431925    0.2985131  74.19  0.001519434    2.774    0.640
       115  -8.8305    148.0916    210.8246   1.1364789408e+02   9.3185680450e+00    0.3392292    0.2476446  85.00  0.001311603    2.146    0.534
       116  -9.4653      6.7769    209.4183   1.4387226337e+02   2.9402396894e+01    0.5747741    0.2057521  79.76   0.00196545    5.224    0.809
       117  -8.3081    192.4593    210.5019   1.0410752398e+02   1.5762292137e+00     0.235168    0.1305862 -53.58 0.0009613449    2.361    0.577
       118  -9.0353    116.3224    210.5260   1.2068048095e+02   1.4859430545e+01    0.3487685     0.232999  72.30  0.001076949    2.053    0.513
       119  -8.3099     32.5856    210.4981   1.3886955643e+02   2.6591082633e+01    0.3311444    0.1405142 -88.61  0.001347006    3.209    0.688
       120  -8.5638     85.6791    209.6202   1.2740266028e+02   1.9910932394e+01    0.3080731    0.1794525  79.34  0.001113884    2.613    0.617
       121  -8.9644    236.5096    208.5251   9.5169135734e+01  -5.2555793599e+00    0.2742305    0.2070778 -48.66 0.0009448628    1.651    0.394
       122  -9.5286    246.4098    207.3825   9.3172892025e+01  -6.5471430281e+00     0.276483    0.1994492 -30.49 0.0007281771    1.245    0.197
       123  -9.4644    250.1037    202.1985   9.1536324729e+01  -6.2664619507e+00    0.3954002    0.1779367 -36.30  0.001430924    1.974    0.493
       124  -7.9838    156.4271    208.1895   1.1134540848e+02   8.3687784900e+00    0.1898961    0.1380601 -61.34 0.0007290623    1.669    0.401
       125  -8.4821    139.1725    207.9481   1.1512622576e+02   1.1478547515e+01     0.264639    0.2051817  81.19 0.0008227027    1.727    0.421
       126  -9.7697    124.2747    206.2328   1.1818722162e+02   1.4430633137e+01    0.3128329    0.2260195  72.87            0    1.801    0.445
       127  -9.1524     99.2815    205.9717   1.2381748867e+02   1.8622935687e+01    0.3842695    0.2458893  86.15  0.001276175    2.254    0.556
       128  -8.3188     56.7735    205.6906   1.3325558725e+02   2.4788716998e+01    0.2546794    0.1482692  80.47  0.001220673    2.111    0.526
       129  -9.2540    195.1671    204.0576   1.0232361052e+02   2.2836290900e+00    0.3952314    0.2811395  62.31  0.001625148    2.131    0.531
       130  -9.4324    192.6124    197.5652   1.0158428179e+02   3.9409354491e+00    0.4411154    0.3289367 -75.73  0.001371933    2.278    0.561
       131  -9.0427    183.9643    204.0197   1.0464126273e+02   4.2619714912e+00    0.3122696    0.2620845  78.93  0.000976634    1.718    0.418
       132  -8.8229    131.3438    204.4079   1.1627523053e+02   1.3594439026e+01    0.3131578    0.2126944  69.14  0.001021959    2.054    0.513
       133  -8.2104    109.1938    205.1994   1.2144483057e+02   1.7191002542e+01    0.1941647     0.157637  81.69  0.000566437    1.379    0.275
       134  -8.0384     24.9975    205.4744   1.3993322984e+02   2.8494227314e+01    0.1656935   0.07678387  57.41  0.000804605    2.288    0.563
       135  -9.6361    163.8002    202.9521   1.0876578429e+02   8.0901622137e+00    0.3984183    0.3126514  67.47 0.0009051873    1.681    0.405
       136  -8.5000    211.0356    202.1297   9.8763382899e+01  -9.0664755628e-02    0.2307075    0.1800418 -66.59 0.0005034241    1.962    0.490
       137  -8.0318     17.3301    203.6576   1.4131925726e+02   2.9656230229e+01     0.127946   0.07348807  70.68 0.0007051172    1.747    0.428
       138  -9.2766    243.0616    200.6606   9.2478544663e+01  -4.9733348800e+00    0.3412582     0.171207 -38.62  0.001015111    1.827    0.453
       139  -8.1313    222.2786    201.8920   9.6542605945e+01  -1.9128362141e+00    0.2013367    0.1581277 -47.31 0.0005632038    1.479    0.324
       140  -8.9330    140.3702    201.0490   1.1363684372e+02   1.2707783257e+01    0.3452532    0.2417203 -85.11  0.001031189    2.252    0.556
       141  -8.5191     80.0504    201.4832   1.2752545873e+02   2.2553193974e+01    0.3116569    0.1852717  74.54  0.001373183    2.348    0.574
       142  -8.5680     48.3845    201.8951   1.3463056286e+02   2.6679585711e+01     0.276148    0.1572585  82.64  0.001051992    2.111    0.526
       143  -9.2366    237.0836    198.5783   9.3147326312e+01  -3.7138201033e+00    0.3194923    0.1765574 -41.85  0.001138897    1.769    0.435
       144  -8.7176    177.0980    199.2817   1.0518638481e+02   6.4045198500e+00     0.250399     0.213306  74.82 0.0006656844    1.574    0.365
       145  -9.4476    149.6865    198.8103   1.1112365320e+02   1.1495967261e+01    0.4322239     0.309173  87.88   0.00136191    2.311    0.567
       146  -8.9644    124.1877    199.5768   1.1707402585e+02   1.5879933540e+01    0.3024303    0.2244659  79.22   0.00112073    1.783    0.439
       147  -9.1497    112.8210    198.6627   1.1954465889e+02   1.8024937800e+01    0.4224817    0.2794168  73.41  0.001881907    2.150    0.535
       148  -9.1676     88.8037    198.8541   1.2513682882e+02   2.1841408256e+01    0.3841659    0.2487784  82.12  0.001468411    2.081    0.520
       149  -8.2063    202.1526    197.8495   9.9692388760e+01   2.2042503852e+00    0.1987485    0.1923999  81.69 0.0005712897    1.327    0.247
       150  -9.3412     61.4247    196.9547   1.3113089261e+02   2.6158780517e+01    0.4245402    0.2304591  73.48  0.001809341    2.660    0.624
       151  -8.2960     12.6856    197.6594   1.4172374492e+02   3.1407171953e+01    0.2512817    0.1152982  83.35  0.001166805    2.570    0.611
       152  -8.8307    215.8629    195.8212   9.6581222009e+01   2.1164000404e-01    0.2855611    0.1848654 -52.13 0.0008828107    1.906    0.475
       153  -8.0544    133.0041    196.0116   1.1441055196e+02   1.5099849216e+01    0.2230309    0.1754194  80.80 0.0006741938    1.635    0.388
       154  -9.3894    245.7557    193.5765   9.0627532380e+01  -4.2249952864e+00    0.2862374     0.241666 -82.13  0.001251279    2.042    0.510
       155  -8.8301    224.5281    194.1986   9.4604897409e+01  -9.5293956549e-01    0.2946215    0.1999141 -55.07  0.001258166    1.971    0.493
       156  -8.9048    185.3380    194.6183   1.0252145355e+02   5.8132300071e+00    0.3030623      0.23127 -56.05 0.0008771549    1.562    0.360
       157  -8.9344    160.8852    194.2092   1.0774426613e+02   1.0393056299e+01    0.3173517    0.2616822 -77.29 0.0009077016    1.580    0.367
       158  -7.7885    230.9992    194.5087   9.3460905207e+01  -2.0634967274e+00    0.1604746     0.120831  66.84 0.0004904051    2.285    0.562
       159  -8.9519     77.0361    193.7551   1.2710556373e+02   2.4746780181e+01    0.2630726    0.2011023  88.16 0.0007692652    1.386    0.278
       160  -8.9075     43.4903    193.0909   1.3467381772e+02   2.9250208813e+01    0.3802308    0.2081944  87.29  0.001406774    2.228    0.551
       161  -8.1169    198.9729    191.9058   9.9154009966e+01   3.8684923770e+00     0.202461    0.1776813 -85.30 0.0005463877    1.604    0.377
       162  -8.4453    172.4617    191.9968   1.0476221838e+02   8.6970094108e+00    0.2680288    0.2011385  57.73 0.0009937477    1.623    0.384
       163  -9.2051    139.4890    190.5547   1.1190254166e+02   1.5108096998e+01    0.4036701    0.2895852  89.12  0.001091686    2.163    0.538
       164  -9.2527      6.8522    190.9803   1.4232446251e+02   3.3394809918e+01    0.3302612    0.1569014  86.08  0.001640676    2.254    0.556
       165  -7.8144    179.2486    191.6502   1.0322664903e+02   7.5095325694e+00    0.1364395    0.1157765 -78.06 0.0003411332    1.586    0.370
       166 -10.3733     92.0998    188.7152   1.2277530870e+02   2.3644867162e+01    0.9671412    0.3181591  49.09  0.003073106    3.855    0.741
       167  -8.0926     90.3127    182.2923   1.2214423087e+02   2.5410229728e+01    0.2725663    0.1518571 -40.62  0.001100135    2.119    0.528
       168  -8.6452     21.4541    191.4344   1.3930308062e+02   3.1963245366e+01    0.2635591    0.1074511  57.98  0.001133305    3.043    0.671
       169  -8.4686    148.4883    189.3220   1.0959542227e+02   1.3714286286e+01    0.2468354    0.2061636 -77.52 0.0007438642    1.472    0.321
       170  -9.0140    129.2603    188.7947   1.1395804869e+02   1.7347206148e+01     0.322246    0.2496676  84.79 0.0009269218    1.693    0.409
       171  -8.3665    237.1811    188.4930   9.1145031061e+01  -2.0326099818e+00    0.2447068    0.1634748 -34.60 0.0006470039    1.345    0.257
       172  -8.9054    191.5284    187.6671   9.9829953335e+01   6.0247846212e+00    0.3350036    0.2707353 -85.04   0.00131934    1.896    0.473
       173  -9.3674    155.9840    187.5584   1.0754413230e+02   1.2688621765e+01    0.3757526    0.2493556 -59.22 0.0009378336    1.791    0.442
       174  -9.8511    120.9299    186.7721   1.1555402738e+02   1.9279675710e+01    0.5847404    0.3189985 -69.98   0.00219209    2.803    0.643
       175  -9.0073     34.2155    188.1188   1.3616017692e+02   3.1415898672e+01    0.3183886    0.1741267  88.50  0.001221348    2.090    0.522
       176  -8.0432    230.5925    187.7283   9.2187945546e+01  -8.2947241600e-01    0.1831259    0.1192945 -45.53 0.0006250967    1.602    0.376
       177  -8.8842    216.6065    187.9290   9.4858289745e+01   1.4968688016e+00    0.2295437    0.2263912  76.07 0.0007780929    1.291    0.225
       178  -9.1530     54.5603    186.8089   1.3136192958e+02   2.9368629634e+01    0.4091623    0.2344006  80.59  0.001584571    2.361    0.576
       179  -8.8980    164.9720    186.6729   1.0535024394e+02   1.1182535146e+01    0.3208636    0.2389433 -56.32  0.001015746    1.515    0.340
       180  -9.1117    109.5700    186.1601   1.1815775691e+02   2.1382182821e+01     0.381758    0.2635288  73.83  0.001158475    1.973    0.493
       181  -8.8342    249.1411    185.3798   8.8433617046e+01  -3.3906429622e+00    0.2579552    0.1662207 -42.45 0.0008296781    1.504    0.335
       182  -9.1089     66.6781    184.6382   1.2820769369e+02   2.8302053922e+01    0.3525444    0.2354398  76.69 0.0009740095    1.800    0.444
       183  -8.9817    210.1501    184.4686   9.5410507728e+01   3.2602160829e+00    0.2922852     0.183174 -36.22 0.0007601914    1.512    0.339
       184  -9.1348    202.7308    184.6202   9.6916064055e+01   4.5628498969e+00    0.3166902    0.1911326 -50.88  0.001105609    1.889    0.471
       185  -8.6413    183.0211    184.9132   1.0105991525e+02   8.1420431983e+00    0.2566881    0.2044455 -41.23  0.000739537    1.257    0.204
       186  -8.4746    224.1697    183.6348   9.2552735721e+01   9.6819413493e-01    0.2323331     0.169416 -41.95 0.0005597272    1.356    0.263
       187  -8.9462    174.3020    183.5755   1.0266660902e+02   1.0053575402e+01      0.28306    0.2455381 -76.81 0.0009372534    1.464    0.317
       188  -9.0702     44.5421    182.4678   1.3312131352e+02   3.1574406879e+01    0.3498021    0.2152186  71.40  0.001049778    1.912    0.477
       189  -7.9524      1.7532    183.5886   1.4272759876e+02   3.5449793787e+01    0.1497957   0.09598547  50.14 0.0009412771    1.638    0.390
       190  -8.6147    240.7408    181.0866   8.9034636089e+01  -1.3412923146e+00    0.2802242    0.1621796 -46.09   0.00137737    1.779    0.438
       191  -9.2855    147.5054    180.5710   1.0809621656e+02   1.5778763363e+01    0.3544679    0.2757263 -87.06 0.0009806226    1.789    0.441
       192  -7.6473     83.2826    182.5901   1.2390061124e+02   2.6414836636e+01    0.1485799     0.103421  80.78 0.0006978718    1.800    0.445
       193  -7.4274    235.2676    181.6166   9.0111745316e+01  -5.3916342972e-01    0.1299595    0.1030387 -60.21 0.0006977216    1.695    0.410
       194  -9.4640     25.6385    178.8665   1.3703238083e+02   3.4411804361e+01    0.6055306    0.2642767  82.15  0.002122809    4.369    0.771
       195  -8.7485    137.7114    179.4496   1.1016805401e+02   1.7864804790e+01    0.3398007    0.2405508  76.53     0.001226    2.143    0.533
       196  -8.7720    205.0609    177.7292   9.5025947128e+01   5.4413355546e+00    0.3020903    0.1893408 -48.30 0.0007928954    1.690    0.408
       197  -9.3807    191.3832    178.3572   9.7942417668e+01   7.8650702707e+00    0.2886764    0.2534595 -66.93 0.0005693845    1.401    0.286
       198  -8.2507    169.5388    178.8570   1.0274216946e+02   1.1930227664e+01    0.2614885    0.1932284  81.77 0.0008776074    2.208    0.547
       199  -9.1597     36.0489    177.0202   1.3440999830e+02   3.3779078461e+01    0.5485026    0.2587771  84.32  0.002032714    3.718    0.731
       200  -8.6659    250.5118    172.8879   8.5720597048e+01  -1.5124626826e+00    0.1992656     0.143865 -43.39 0.0005021484    1.347    0.257
       201  -9.0838    248.9673    177.4908   8.6899011377e+01  -2.0445420407e+00    0.2616817    0.2378126 -20.61 0.0009914777    1.122    0.109
       202  -8.5239    247.2502    174.0143   8.6493582303e+01  -1.1827174342e+00    0.2893154    0.1964893 -14.15 0.0009600066    1.609    0.379
       203  -8.5834    217.6486    177.4388   9.2514212695e+01   3.2232806133e+00    0.2595007    0.1963133 -58.53 0.0008505055    1.682    0.405
       204  -8.6172    129.1840    177.4145   1.1179992432e+02   1.9896765062e+01    0.3082058    0.2249393  87.16 0.0009941607    1.998    0.499
       205  -8.4592    231.2192    177.1545   8.9935739539e+01   9.1952872748e-01    0.2068667    0.1656327 -22.05 0.0006366703    1.132    0.117
       206  -9.0992    183.2058    176.3704   9.9249759561e+01   9.8134130651e+00    0.2661575    0.2349178 -63.49 0.0005761946    1.331    0.249
       207  -9.3738    158.8389    175.1689   1.0438019855e+02   1.4769522550e+01    0.4537097    0.3111346  78.14  0.001323065    2.612    0.617
       208  -8.1609     97.9428    177.2829   1.1940686021e+02   2.5361831120e+01     0.197439    0.1906796  39.97 0.0004771701    1.079    0.073
       209  -8.8718     89.0184    176.8194   1.2153037522e+02   2.6890006591e+01    0.2877829    0.2199409  86.46 0.0009438123    1.532    0.347
       210  -9.9768     57.1867    173.1424   1.2880223140e+02   3.2239911118e+01     0.797761    0.4025005  84.20  0.002645912    4.364    0.771
       211  -9.0087     12.5299    176.3578   1.3970659732e+02   3.6183418174e+01    0.2937468    0.1542086  79.37  0.001038079    2.223    0.550
       212  -9.3760    104.2607    174.6485   1.1736424477e+02   2.4929005810e+01    0.5272022    0.3037178  67.65   0.00180485    3.011    0.668
       213 -10.6418     75.9628    169.3058   1.2350625384e+02   3.0617831775e+01      1.46671    0.5175241 -64.07  0.004953997    3.259    0.693
       214  -8.6268    224.4711    174.4719   9.0619851587e+01   2.5616148861e+00    0.2319365    0.1228027 -48.51 0.0006752576    2.046    0.511
       215  -7.5823    241.6350    174.3251   8.7516718894e+01  -3.2437245126e-01    0.1287118    0.1061957 -72.83 0.0007038693    1.796    0.443
       216  -9.2771    175.7836    172.5843   1.0005170348e+02   1.2016419714e+01     0.305579    0.2696809 -60.03 0.0006266606    1.276    0.217
       217  -8.4470    142.9887    172.5746   1.0752620761e+02   1.8385589189e+01    0.2765905    0.2110617 -66.43 0.0008165471    1.550    0.355
       218  -8.0179    194.3295    172.3049   9.6057576356e+01   8.4953681623e+00     0.150777    0.1113722  -0.96 0.0005573438    1.654    0.395
       219  -8.6891    134.7561    171.8976   1.0935264941e+02   2.0098052898e+01    0.2689712    0.2103599 -72.10 0.0006669553    1.538    0.350
       220  -9.5948    121.4341    170.5105   1.1231695870e+02   2.2876807938e+01    0.4492606    0.3021884 -74.25  0.001134693    2.021    0.505
       221  -9.1253     45.0301    171.0784   1.3147733951e+02   3.4181437712e+01    0.3734953    0.2175037  88.28  0.001255514    2.173    0.540
       222  -8.4348    205.8421    170.5264   9.3357428787e+01   6.6673788360e+00    0.2854599    0.1789457 -54.43 0.0009819181    1.922    0.480
       223  -9.2314    244.0021    169.2713   8.6086467685e+01   1.5905351115e-01     0.304015    0.2337337  61.41  0.001687736    1.835    0.455
       224  -8.3632    237.1564    169.3759   8.7287381975e+01   1.2853074460e+00    0.2341913    0.1636782 -28.54 0.0004949212    1.310    0.237
       225  -8.9571    230.0910    169.4475   8.8554833577e+01   2.4857924426e+00    0.3417712    0.1666038 -45.96  0.001311444    2.048    0.512
       226  -8.2550    198.6405    170.2129   9.4731953817e+01   8.0843255169e+00    0.2190127    0.1752923 -53.39 0.0006489403    1.386    0.279
       227  -9.1708    167.2069    168.8203   1.0114447798e+02   1.4479065253e+01    0.3544289     0.275274  81.64  0.001125662    1.876    0.467
       228  -8.5483    149.7129    169.6891   1.0533976739e+02   1.7721901127e+01    0.2898413    0.2171414  85.96 0.0008949609    2.010    0.502
       229  -8.1123     88.5145    168.5150   1.2018853896e+02   2.8922757843e+01    0.2451133    0.1371266 -69.40 0.0008136856    2.132    0.531
       230  -8.1669    218.7869    168.5561   9.0446724251e+01   4.6554492583e+00    0.1751733    0.1376063  54.05 0.0004401254    1.540    0.351
       231  -8.6096    185.0861    166.7410   9.6796409137e+01   1.1389655233e+01    0.3183313    0.2022811 -56.88 0.0007065667    1.925    0.480
       232  -8.7717    111.6029    167.4303   1.1414826122e+02   2.5342313794e+01    0.3137523    0.2272801  86.89 0.0009545256    1.944    0.486
       233  -8.9355    191.9407    166.6158   9.5333183693e+01   1.0077966771e+01    0.2812932    0.2081185 -49.28 0.0006327436    1.410    0.291
       234  -8.4371    140.6680    166.3378   1.0677513225e+02   2.0211657416e+01    0.2467043    0.2176143  81.80  0.001236085    1.332    0.249
       235  -9.6101    135.7123    164.0488   1.0748657892e+02   2.1675288303e+01    0.4351286     0.279645  57.06  0.001135115    1.899    0.473
       236  -9.0665     20.8355    166.4135   1.3668894742e+02   3.7733026032e+01    0.3368533    0.1734466  60.87  0.001094744    2.444    0.591
       237  -8.6673     12.8354    167.2500   1.3865909984e+02   3.8233555382e+01    0.2075881    0.1019225  68.58 0.0007731562    2.753    0.637
       238 -10.0072     94.9337    162.3446   1.1739351167e+02   2.9356015440e+01    0.9052353    0.5650982 -79.81  0.003171552    2.362    0.577
       239  -7.5423    250.7020    165.3231   8.4169475460e+01  -2.5881339274e-01    0.1256752   0.09990703 -61.52 0.0004368805    1.625    0.385
       240  -8.2925    233.8699    165.0963   8.6981145908e+01   2.6069230231e+00    0.2043903    0.1743448 -49.67 0.0006426516    1.274    0.215
       241  -8.6292    159.4189    164.2366   1.0192006622e+02   1.6993299050e+01     0.274739     0.224829 -80.57 0.0007912189    1.592    0.372
       242  -9.3421     33.8683    163.6414   1.3318463656e+02   3.7130638913e+01    0.5628242    0.2251813  53.65  0.002166193    3.603    0.722
       243  -9.2121    245.9641    163.3308   8.4548144063e+01   8.6109702093e-01    0.3316274    0.1909913 -40.85 0.0005559922    1.541    0.351
       244  -8.7150    243.6621    159.4036   8.4128344467e+01   1.9300705700e+00     0.325446    0.2169368  21.07  0.001658024    1.906    0.475
       245  -8.1193    240.0540    164.2550   8.5734812517e+01   1.6935424774e+00    0.1795741    0.1673054 -21.91  0.000596797    1.100    0.091
       246  -8.6894    212.8984    163.1614   9.0418139065e+01   6.7467144400e+00    0.3314013    0.1799281 -48.44 0.0008456978    1.926    0.481
       247  -8.6411     60.5944    160.0287   1.2587306706e+02   3.4917369632e+01    0.3233395    0.2088188  89.86  0.001149991    2.016    0.504
       248  -8.5162     58.5473    163.4937   1.2696634208e+02   3.4354374867e+01    0.2145206    0.1362942  31.67  0.001084428    1.748    0.428
       249  -8.6496    204.9088    162.7227   9.1872901882e+01   8.3404539926e+00    0.2738832    0.1979764 -45.34 0.0005640752    1.368    0.269
       250  -9.3842      3.4749    162.4241   1.4029823697e+02   4.0068378562e+01    0.3716458    0.1881018  55.06  0.001963809    2.315    0.568
       251  -9.1221    177.3676    160.8139   9.7158461235e+01   1.4128119408e+01      0.33328    0.2537873 -51.73 0.0008654724    1.385    0.278
       252  -8.8979    151.8828    161.1614   1.0299792543e+02   1.9154838418e+01    0.3489423    0.2150525 -58.32 0.0008640086    1.922    0.480
       253  -7.4041    222.2760    161.6982   8.8351431023e+01   5.2872358422e+00    0.1318828    0.1094291 -67.04  0.000227049    1.540    0.351
       254  -8.6423    227.4011    159.2295   8.6901068004e+01   4.8093679844e+00    0.2603069    0.1936421 -60.47  0.001015414    1.684    0.406
       255  -9.6913    105.8130    158.0140   1.1372585913e+02   2.8543917583e+01    0.4994735    0.3472789  85.63  0.001075898    2.205    0.546
       256  -9.6544    250.1914    157.8414   8.2737696278e+01   1.1054732357e+00    0.3223757    0.1654424 -39.90 0.0007831348    1.688    0.407
       257  -8.2382    237.0085    158.9688   8.5163773185e+01   3.1512461181e+00    0.2066211    0.1638143 -67.46 0.0006182572    1.687    0.407
       258  -9.2133    167.6602    157.4179   9.8547691228e+01   1.6790501505e+01     0.365941    0.2789897 -80.84 0.0009871215    1.908    0.476
       259  -8.2911    128.0657    159.0664   1.0830337226e+02   2.4256517476e+01    0.2360742     0.187544  87.21 0.0006376612    1.655    0.396
       260  -9.5716    212.3682    157.1451   8.9225379949e+01   7.9838545261e+00    0.2690883    0.2381689 -52.34 0.0003614871    1.213    0.176
       261  -8.5378    196.3698    157.9567   9.2539819098e+01   1.0925450259e+01    0.2458183     0.211276  86.04 0.0007711933    1.523    0.343
       262  -8.5355    188.0769    157.6894   9.4186219334e+01   1.2622761299e+01    0.2578388     0.193303 -49.30  0.000546694    1.371    0.271
       263  -8.4938    217.9341    156.6806   8.8081523602e+01   7.0207524453e+00    0.2794749    0.1734421 -54.01 0.0007839132    1.876    0.467
       264  -9.1366    157.4821    155.9901   1.0054790244e+02   1.9153173752e+01    0.3808563    0.2517718 -63.47  0.001041857    1.972    0.493
       265  -9.3164    119.6357    155.6023   1.0967860151e+02   2.6625138928e+01    0.4394457    0.3017211 -79.95  0.001836298    2.186    0.543
       266  -9.6129     81.6261    154.8023   1.1941937189e+02   3.3227245518e+01    0.5373415    0.3487104  81.56  0.001550409    2.459    0.593
       267  -9.2125     49.8694    155.3139   1.2788575614e+02   3.7352235288e+01    0.3938871    0.2336488  66.56  0.001691077    2.381    0.580
       268  -8.5962     23.6782    156.0175   1.3468425346e+02   3.9890015362e+01    0.2455253    0.1407476 -24.60  0.001168159    2.726    0.633
       269  -9.4227    241.6859    154.4663   8.3439110152e+01   3.1339502514e+00    0.3779056    0.2473768  70.88  0.001716958    2.758    0.637
       270  -7.8995    204.4702    155.2909   9.0342884301e+01   9.8589484088e+00    0.2004454    0.1334913 -50.57 0.0009330098    1.583    0.368
       271  -8.6977    144.7306    154.9240   1.0331811105e+02   2.1944187795e+01    0.2755991    0.2128758 -69.22 0.0008677353    1.587    0.370
       272  -9.7500    132.7337    152.9105   1.0579973320e+02   2.4752616053e+01    0.4830409     0.372236  87.38  0.001159203    1.815    0.449
       273  -9.0839    133.4876    148.5003   1.0462288298e+02   2.5594617036e+01    0.3129981    0.2581798 -40.68  0.001388613    1.194    0.162
       274  -9.6915     67.8734    153.7307   1.2286917063e+02   3.5453804016e+01    0.4480945    0.2929223  87.90  0.001539713    2.171    0.539
       275  -7.9839    232.7135    154.1030   8.4885519838e+01   4.7811581787e+00    0.2178517    0.1556241 -50.19 0.0006330413    1.446    0.308
       276  -8.0187    151.6256    152.7867   1.0119651819e+02   2.1029444606e+01    0.2156558     0.143152 -55.09 0.0006405014    1.642    0.391
       277  -8.6034     20.1517    152.8775   1.3514993070e+02   4.0930732115e+01    0.1889659    0.1484748  85.14 0.0005721523    1.289    0.224
       278  -9.7516     29.3178    150.7544   1.3252346833e+02   4.0598107703e+01     0.437772    0.2389421  71.79  0.001772769    2.809    0.644
       279  -9.0101      2.7936    150.9435   1.3919531595e+02   4.2724739354e+01    0.3589779    0.1509798 -77.27  0.001699807    2.190    0.543
       280  -9.7203    248.8792    149.5313   8.1251541278e+01   2.7586074021e+00    0.3717524    0.1720288 -39.67 0.0009058994    1.870    0.465
       281  -9.1151    247.0226    143.8712   8.0381107838e+01   4.0593855979e+00    0.2988991    0.1704689 -39.77 0.0005605485    1.522    0.343
       282  -8.8195    189.4758    150.2294   9.2230859420e+01   1.3838101219e+01    0.3034785    0.2458403 -66.69 0.0007120495    1.499    0.333
       283  -7.9868    182.3922    151.2262   9.3938642197e+01   1.5077466327e+01    0.2103258    0.1381588 -52.13 0.0006354866    1.634    0.388
       284  -8.2337    162.4746    150.4667   9.8152380599e+01   1.9318134003e+01    0.2701173     0.143209 -54.86  0.001018023    2.240    0.554
       285  -8.7875     98.2987    150.7087   1.1417931094e+02   3.1535214272e+01    0.3108688    0.2356405  85.18  0.001200813    1.765    0.433
       286  -9.7822    242.5227    149.8028   8.2333745440e+01   3.8081180668e+00    0.4211004    0.2243323  54.29  0.001927153    2.420    0.587
       287  -9.8085    233.9869    146.8292   8.3131648806e+01   5.8583734371e+00    0.5186751    0.2160391 -33.07  0.002002839    2.526    0.604
       288  -8.5316    198.8492    149.0429   9.0067755737e+01   1.2184029681e+01    0.2194599      0.19452 -65.32 0.0005063516    1.283    0.221
       289  -9.9672     89.1214    145.4041   1.1552880298e+02   3.4283233566e+01    0.9229193    0.4870079 -66.00  0.003609078    2.394    0.582
       290  -9.8939     39.8060    147.9485   1.2935109027e+02   4.0210407286e+01    0.4734205    0.2561324  62.75  0.001961058    2.810    0.644
       291 -10.4045     54.6346    144.1741   1.2471163775e+02   3.9425039436e+01    0.8655121    0.4919451  85.77  0.002947461    3.390    0.705
       292  -9.4733     56.7037    135.5969   1.2253487389e+02   4.1190316765e+01    0.3969307    0.1798962  19.67  0.001536964    3.187    0.686
       293  -8.1162    223.2601    146.9897   8.5026419853e+01   7.8173775987e+00    0.2008697    0.1684204 -37.19  0.000353656    1.088    0.081
       294 -10.2448    148.9814    144.8401   1.0000370144e+02   2.3293349660e+01    0.5878724     0.419066 -82.58  0.001653965    2.257    0.557
       295  -9.8605    138.9756    144.7880   1.0241506230e+02   2.5331536082e+01    0.5514826    0.3261983 -61.13  0.001363951    2.179    0.541
       296  -9.2935    140.3329    137.4914   1.0036914009e+02   2.6657472134e+01    0.3892814     0.279168  -2.82  0.001615209    1.993    0.498
       297 -10.2221    106.6947    144.2238   1.1055875631e+02   3.1593381069e+01    0.7807652    0.5380127 -87.54  0.002279288    2.353    0.575
       298  -8.8586     78.0684    147.1503   1.1888220229e+02   3.5569879299e+01    0.2549355    0.1941251  63.16 0.0007601567    1.579    0.367
       299  -9.2997     13.6838    146.4251   1.3593324007e+02   4.2954148269e+01    0.3385657    0.1759134  61.31  0.001037581    2.670    0.625
       300  -8.0744    206.7487    146.5906   8.7983323230e+01   1.1086615244e+01    0.1879096    0.1416334  57.78 0.0005724042    1.555    0.357
       301  -8.1084    175.4289    146.2729   9.4305926372e+01   1.7523100137e+01    0.2063571    0.1422217 -52.70 0.0005056552    1.549    0.355
       302 -11.1916     68.9493    140.4541   1.2005692564e+02   3.8450598740e+01     1.042299    0.4609762 -56.23  0.003746832    2.062    0.515
       303  -9.6987    241.3106    143.7972   8.1280126061e+01   5.0785477350e+00    0.5645733    0.3342964  -9.80  0.002230601    3.189    0.686
       304  -9.9651    124.8285    141.9718   1.0531544735e+02   2.8744441054e+01    0.6894163    0.4023355 -57.90  0.001997612    1.958    0.489
       305  -8.2000    194.4329    143.9601   8.9805194701e+01   1.4074525989e+01    0.2018786    0.1249035 -62.64 0.0005776244    2.322    0.569
       306  -8.8656    165.4914    143.9447   9.5966117056e+01   2.0071885792e+01    0.2758265    0.2372189  85.93 0.0008244303    1.440    0.306
       307  -9.3744      2.7078    141.7616   1.3812411442e+02   4.4816848215e+01    0.4064935    0.2046348  82.63  0.001897668    2.733    0.634
       308  -8.3675    212.9912    149.9774   8.7549005474e+01   9.2210676287e+00    0.2123378    0.1727894 -71.34 0.0004167624    1.574    0.365
       309  -8.3785    181.9247    141.6199   9.1842468954e+01   1.7122822993e+01    0.2950443    0.1934153 -58.79 0.0007950299    1.858    0.462
       310  -7.8741    250.5799    140.7899   7.9192134238e+01   3.9749482949e+00    0.1819294    0.1108325 -46.73 0.0003924868    1.514    0.340
       311  -9.9075     23.4425    138.3755   1.3223582657e+02   4.4012939580e+01    0.5008975    0.2812474  73.26  0.001993945    2.789    0.641
       312  -8.2889     14.3581    140.3043   1.3493166146e+02   4.4310363555e+01    0.1296246   0.07773675 -40.81 0.0007039455    1.721    0.419
       313  -8.2511    218.3249    138.9179   8.4147011068e+01   1.0257724160e+01    0.2021993    0.1733399 -36.82 0.0005783295    1.071    0.066
       314  -8.6984    172.3254    138.4679   9.3168329692e+01   1.9777154034e+01    0.3159608    0.2394709 -85.42  0.001008436    1.935    0.483
       315  -8.9733    241.5463    137.1783   7.9856143182e+01   6.2000736132e+00    0.3290568    0.1199124 -32.64   0.00114558    3.191    0.687
       316  -7.6431    235.2513    138.6649   8.1188775752e+01   7.0873081921e+00    0.1351037   0.09995686 -60.41 0.0003325808    1.562    0.360
       317  -8.1984    207.4958    138.0040   8.5925067041e+01   1.2577140225e+01    0.2198874    0.1349663 -42.99  0.000657415    1.532    0.347
       318  -8.7008    197.5093    137.6462   8.7758049898e+01   1.4679433154e+01    0.2839146    0.2294955 -61.28 0.0009268309    1.390    0.280
       319  -8.5443    162.7092    136.5449   9.4854291547e+01   2.2203873707e+01    0.2530418    0.1877766 -66.11  0.000705807    1.690    0.408
       320  -8.8780    150.7753    136.2767   9.7557961146e+01   2.4765636014e+01    0.3810199    0.2404707  18.27  0.001470136    2.389    0.581
       321 -10.4227     83.3658    132.9119   1.1443390438e+02   3.8100279970e+01    0.6768116    0.3725573 -57.40  0.001351029    1.825    0.452
       322  -9.0444     84.7566    122.9037   1.1175316165e+02   4.0166237050e+01    0.5330361    0.3134021   3.46  0.001946098    3.252    0.692
       323  -9.3383     39.0691    136.3277   1.2761924421e+02   4.3013760664e+01    0.2995186    0.2060397  75.61 0.0007834054    1.940    0.485
       324  -9.0794    250.6095    129.8015   7.6929436369e+01   5.8547525598e+00    0.4299167    0.1121335 -39.94  0.001393531    3.305    0.697
       325  -9.0182    248.5944    135.2571   7.8357604539e+01   5.2747865526e+00    0.3034409    0.2012585 -44.29 0.0007733872    1.333    0.250
       326  -8.5074    246.8424    130.5377   7.7647092443e+01   6.4005747346e+00    0.2551852    0.1620398 -49.63 0.0005813403    1.498    0.333
       327  -7.9629    187.8628    135.8311   8.9268706215e+01   1.7039562538e+01    0.2033466    0.1743513 -65.80 0.0003739944    1.313    0.239
       328  -8.7546    179.5058    134.0244   9.0579661045e+01   1.9161745262e+01    0.3162662     0.238472 -63.59 0.0009254664    1.590    0.371
       329  -8.2206    237.4965    133.9695   7.9826899681e+01   7.5058577652e+00    0.2123232    0.1205497 -42.66  0.001013126    1.568    0.362
       330  -7.7626    231.4518    134.4295   8.0911513008e+01   8.5540573642e+00    0.1376576    0.1241116 -38.85 8.003582e-05    1.015    0.015
       331  -9.1936    112.8916    133.4253   1.0643765358e+02   3.2929565486e+01    0.3517241    0.2776693  86.71 0.0009041952    1.739    0.425
       332  -9.1648    143.1866    131.8237   9.8307486705e+01   2.7294967851e+01    0.3241014    0.2596503 -69.46 0.0007584458    1.515    0.340
       333 -10.4870    132.3952    130.4498   1.0065053161e+02   2.9799392532e+01    0.8562854    0.4225951 -42.63   0.00247474    2.003    0.501
       334  -9.7530    130.8780    118.6771   9.8100118534e+01   3.2624328341e+01    0.4880004    0.3453464 -82.87  0.001883362    2.387    0.581
       335 -10.5328     98.1304    130.1789   1.0968567015e+02   3.6308142802e+01    0.7536365    0.2898416 -52.64  0.001686552    2.620    0.618
       336 -10.1004     73.1516    129.3767   1.1656211815e+02   4.0442703784e+01    0.4414018    0.3254685 -88.15  0.001479547    1.888    0.470
       337 -10.0091     12.8790    129.2808   1.3373748046e+02   4.6944339823e+01    0.4464737    0.2628445  81.78  0.001780267    2.357    0.576
       338  -7.6882    204.5561    130.5128   8.4780819333e+01   1.4597072217e+01    0.1456801    0.1354235 -48.42 0.0001549822    1.059    0.056
       339  -8.2457    192.8622    130.0977   8.6931551961e+01   1.7112564969e+01    0.2289546    0.1932266 -64.67 0.0005113901    1.319    0.242
       340  -9.2077    168.3192    129.5552   9.1925372541e+01   2.2451176649e+01    0.3033791     0.246794 -70.30 0.0005839022    1.482    0.325
       341  -9.6594    152.9579    128.0863   9.5059130835e+01   2.6034584402e+01     0.718635    0.2840228 -43.34  0.001813033    2.492    0.599
       342 -10.7835     44.8875    123.5261   1.2357886008e+02   4.5361635590e+01     1.073194    0.6180914  83.90  0.003972435    3.987    0.749
       343  -7.9657      1.6733    130.3084   1.3691868782e+02   4.7474090165e+01    0.1165375   0.08249135  75.10 0.0004297786    1.656    0.396
       344  -7.5927    220.6284    129.7273   8.1717543979e+01   1.1497559825e+01     0.140599    0.1090647   8.39 0.0004980118    1.679    0.404
       345  -8.1162    211.6491    129.3092   8.3206913486e+01   1.3373258876e+01    0.2183711    0.1625738 -70.68 0.0006280495    1.736    0.424
       346  -8.0300    186.3352    129.6844   8.8142141217e+01   1.8573955249e+01    0.1517544    0.1192377 -80.86 0.0007047317    1.692    0.409
       347  -8.5171     25.8784    129.6689   1.3018032744e+02   4.5811498245e+01    0.2254837    0.1223677   8.90  0.001092638    2.584    0.613
       348 -10.0828    118.0136    125.2332   1.0309401018e+02   3.3776862699e+01    0.5845121    0.4155618 -76.30  0.001784105    2.113    0.527
       349 -10.3828     59.8453    124.9850   1.1947983623e+02   4.3257866858e+01    0.6723741    0.4293864 -89.00  0.002479287    2.717    0.632
       350  -8.0543    228.4100    125.3151   7.9442776474e+01   1.0767721567e+01    0.1960674    0.1194275 -48.16 0.0009358207    1.562    0.360
       351  -8.8075    179.2215    124.9158   8.8472036952e+01   2.1035109264e+01    0.2728778    0.2433248  84.92 0.0006516344    1.287    0.223
       352 -10.5993     28.3547    122.4109   1.2821753321e+02   4.7254036917e+01    0.8031622    0.4529375 -84.76  0.003642672    2.599    0.615
       353  -7.6166    243.7390    124.3562   7.6827757896e+01   8.0312249095e+00    0.1362525   0.09486748 -60.84 0.0003363926    1.621    0.383
       354  -8.1099    188.4969    124.0230   8.6370318455e+01   1.9215295164e+01    0.2267494    0.1413068 -43.42 0.0006657551    1.548    0.354
       355  -7.6121    195.0000    122.0568   8.4635793925e+01   1.8202611029e+01    0.2375455   0.08079844 -40.46 0.0004314092    2.812    0.644
       356  -8.6340    171.9882    121.5949   8.9195666988e+01   2.3257134954e+01    0.2738814    0.2036452 -57.66 0.0005040616    1.495    0.331
       357  -9.3383    158.5321    121.4751   9.2138478997e+01   2.6200128739e+01    0.3477253    0.2697877 -73.21  0.001256406    1.670    0.401
       358  -9.6550     71.0514    119.7273   1.1501401183e+02   4.2943531681e+01     0.439276    0.2288951 -61.59   0.00129226    2.187    0.543
       359 -10.0841    141.5701    118.6577   9.5429754091e+01   3.0405060513e+01    0.4671898    0.3023763 -59.02  0.001128521    1.902    0.474
       360  -8.1278    141.3402    113.3395   9.4124280528e+01   3.1541685336e+01    0.1564647    0.1523514  -6.54 0.0008420455    1.000    0.000
       361  -9.5309      3.0519    117.5417   1.3471656362e+02   5.0245050944e+01    0.4131285    0.2410927  78.68  0.002121231    2.512    0.602
       362  -7.1432    231.5211    117.5377   7.7257247976e+01   1.1534746993e+01    0.1382688    0.1225724 -52.74 0.0001546939    1.064    0.060
       363 -10.0613    109.2504    114.2533   1.0269114315e+02   3.7815576553e+01    0.5502196    0.3743745 -69.33  0.001541229    2.150    0.535
       364  -8.9396    109.2650    107.7067   1.0097688719e+02   3.9188238801e+01    0.4601421    0.2334817  25.99  0.001663165    2.796    0.642
       365  -8.2276    185.5433    116.0404   8.5050928615e+01   2.1382371725e+01    0.2258158    0.1409307 -43.10 0.0005188223    1.553    0.356
       366  -8.7227     59.2859    115.4090   1.1755042828e+02   4.5500972365e+01    0.4032046    0.2207871  -3.55  0.001475686    3.660    0.727
       367 -10.0166    249.2419    114.2186   7.3916700848e+01   8.7421402914e+00    0.3864419    0.2373338 -69.33  0.001801613    2.379    0.580
       368  -8.2816    192.9686    115.1918   8.3404378136e+01   1.9931500948e+01    0.2221653    0.1898964 -68.60 0.0004954729    1.282    0.220
       369  -7.8570    153.2966    115.6591   9.1880117865e+01   2.8505745383e+01    0.1535802       0.1218 -79.10 0.0004982218    1.661    0.398
       370  -9.9996     78.8553    112.5206   1.1097770536e+02   4.3392533712e+01    0.5242859    0.3787301 -87.71  0.001774431    2.295    0.564
       371  -9.1354     78.0017    105.6790   1.0951345631e+02   4.5001574342e+01     0.403755    0.2772507   6.50  0.001938334    1.829    0.453
       372  -8.0442    167.2594    114.5878   8.8484438182e+01   2.5667929741e+01      0.20547    0.1425215  38.19 0.0006385887    1.524    0.344
       373 -10.2441     92.6105    112.4091   1.0691184350e+02   4.1191831798e+01    0.5613989      0.33596 -60.54  0.001292061    2.075    0.518
       374  -8.8076     92.5349    105.4860   1.0514022675e+02   4.2677176355e+01    0.3416496    0.2149064   0.93  0.001368518    2.579    0.612
       375 -10.4611    133.4925    109.4711   9.5056679043e+01   3.3979336905e+01    0.7437356    0.3826693 -45.34  0.002990784    1.959    0.489
       376  -9.9528    121.8507    112.6005   9.8870743359e+01   3.5720520170e+01    0.3884586    0.3012236 -61.56 0.0006016928    1.516    0.340
       377  -9.8230    119.6019    106.4703   9.7848830771e+01   3.7429428490e+01    0.4650575    0.3666268  15.19  0.002304725    1.427    0.299
       378 -10.7759    109.3388     99.1322   9.8643030095e+01   4.0914494211e+01    0.8438081    0.5027961  66.76   0.00268005    3.375    0.704
       379  -9.4381    107.3999     92.7268   9.7399797146e+01   4.2538291008e+01    0.6224484    0.3303748  25.72  0.002400598    2.557    0.609
       380  -9.7379     14.1785    111.5215   1.3047512447e+02   5.0841878949e+01    0.3619612    0.2290273  69.75   0.00140507    2.454    0.592
       381  -8.5442    174.7491    111.9319   8.6237533678e+01   2.4531608888e+01    0.2764591     0.197107 -57.41 0.0006967215    1.574    0.365
       382 -10.2312     66.4455    109.9186   1.1408802646e+02   4.5767799919e+01     0.609833    0.3197395 -55.91  0.002406839    1.908    0.476
       383 -10.8351    249.1625    103.0098   7.1621031217e+01   1.0614866239e+01    0.4483977    0.3216204 -58.84  0.002561954    1.367    0.269
       384 -10.5708     45.8715    102.6387   1.1878554300e+02   4.9912898425e+01    0.7358427    0.4699614  72.69  0.003101839    3.420    0.708
       385  -9.4598    150.6764    103.3464   8.9311403626e+01   3.1490936879e+01    0.4547511    0.3086602 -68.05  0.001400643    2.140    0.533
       386  -9.3137    139.9145    104.7198   9.2217471989e+01   3.3562445352e+01    0.3672657    0.2890986 -79.82 0.0009547331    1.738    0.425
       387 -10.6123     23.0062    102.7905   1.2609830570e+02   5.2081060204e+01    0.7060629    0.4455399  78.49  0.002960795    2.936    0.659
       388  -8.5181    166.7760    104.3013   8.5998020982e+01   2.7743746822e+01    0.2583722    0.1924067 -52.39 0.0006522303    1.416    0.294
       389 -10.0197    128.4627    102.1515   9.4382071611e+01   3.6485734185e+01    0.3747663    0.3070911 -65.07  0.001070933    1.472    0.321
       390  -8.2412    130.4673     97.5066   9.2613984702e+01   3.6965975565e+01    0.2906803    0.1322601  35.38  0.001034186    2.618    0.618
       391  -8.9667      6.7182    102.9255   1.3122266873e+02   5.3225689079e+01    0.2373935    0.1798377  58.88  0.001160951    1.784    0.439
       392  -8.3465    159.1719    111.9218   8.9593995315e+01   2.7964954656e+01    0.2316774    0.2001644 -73.27 0.0005182846    1.339    0.253
       393  -8.3385    159.8110    101.0875   8.6674183802e+01   2.9896623516e+01     0.229532    0.1977726 -66.48 0.0006330715    1.296    0.229
       394  -9.3930     82.0443     99.9015   1.0677620278e+02   4.5580935835e+01    0.3731322    0.2531178 -62.35 0.0008492105    1.887    0.470
       395 -10.3406     64.3851     94.2810   1.1077352509e+02   4.9372789295e+01     1.065824    0.4944664 -43.93  0.003197812    1.943    0.485
       396  -9.6582     95.0007     97.1372   1.0216879312e+02   4.3959718083e+01    0.3958868    0.2190028 -47.27 0.0006907142    1.819    0.450
       397  -8.5769    150.9168     96.1815   8.7367045502e+01   3.2783560228e+01    0.2971061    0.1998722  -8.63  0.001237363    2.230    0.551
       398  -8.9270     43.0148    109.4644   1.2122351251e+02   4.8732154163e+01    0.2817765    0.1341441  15.92    0.0012071    2.837    0.647
       399 -10.7069    124.1176     90.8802   9.2398735108e+01   3.9542086756e+01    0.8223499    0.5734337 -16.14  0.001592919    1.758    0.431
       400  -8.3029    164.8518     94.1617   8.3803191240e+01   3.0034102507e+01    0.2229722    0.1955389 -71.92 0.0004465439    1.264    0.209
       401  -9.3683    139.0211     92.3688   8.9109862145e+01   3.6096994474e+01    0.3583551    0.2736618 -78.67 0.0007378843    1.870    0.465
       402  -9.4821     45.8895     92.8575   1.1641531681e+02   5.1983623553e+01    0.4434425    0.2136354   8.68  0.001745335    3.434    0.709
       403  -7.6887    188.5142     93.5232   7.9017213860e+01   2.4823709651e+01    0.1419022    0.1373254 -70.66 0.0002321113    1.003    0.003
       404  -8.2065    176.3759     93.1750   8.1222317832e+01   2.7610457571e+01    0.2415236    0.1952392 -69.05  0.000616212    1.406    0.289
       405  -9.0341    172.8566     92.4450   8.1730927299e+01   2.8532892702e+01    0.2487902     0.206862 -28.40 0.0001532094    1.268    0.211
       406  -9.5136      5.3402     92.3068   1.2968390340e+02   5.5575679706e+01    0.3132772    0.2115403  57.98  0.001281165    2.255    0.556
       407  -8.1032    157.7382     91.9816   8.4745590879e+01   3.2023733728e+01    0.2061797    0.1862002 -37.40 0.0003724074    1.119    0.107
       408  -9.7755     34.7891     89.8387   1.1936300568e+02   5.3776860290e+01    0.4096238    0.2543447 -74.63  0.001753054    2.519    0.603
       409  -9.1170     23.0275     90.4511   1.2345055088e+02   5.4707414903e+01    0.3302566    0.2270256  -2.71  0.001983624    1.626    0.385
       410  -8.3736    189.2473    107.7472   8.2331912953e+01   2.2121411157e+01    0.2770824     0.164944 -49.54 0.0006855431    1.725    0.420
       411  -7.8945    151.1055     89.1855   8.5456219940e+01   3.4006494433e+01    0.1981945    0.1732487 -75.49 0.0004121634    1.325    0.246
       412  -9.9943     86.3375     86.7581   1.0182430703e+02   4.7491861785e+01    0.4534152    0.3583589 -83.00  0.001225726    2.068    0.516
       413  -9.2881     86.3353     81.3207   1.0024043035e+02   4.8513725391e+01    0.3597843    0.1935656  16.98  0.001377411    2.937    0.660
       414  -8.5447    228.1909     84.7309   7.0641116361e+01   1.7709213615e+01    0.1951257    0.1639298 -69.66 0.0006069554    1.146    0.127
       415  -7.8745    179.2855     85.6615   7.8776193214e+01   2.8244424865e+01    0.1467529    0.1092862 -71.20  0.000316468    1.632    0.387
       416  -9.9698    104.7904     83.3484   9.5440215648e+01   4.4792406972e+01    0.4364733    0.3272435 -64.55  0.001034063    1.877    0.467
       417  -8.2957    157.9067     84.1163   8.2625909026e+01   3.3358813443e+01    0.2132334    0.1942751 -78.27 0.0003890516    1.201    0.167
       418  -9.2406    140.8349     82.5758   8.5984792598e+01   3.7440993704e+01    0.3872273    0.1953564 -46.28 0.0009837713    2.170    0.539
       419  -7.8905     35.2570     82.9762   1.1748741127e+02   5.5127413427e+01    0.1690604   0.09524817 -50.14 0.0008862913    1.552    0.356
       420  -9.6394     24.5768     80.4464   1.2055402895e+02   5.6621422716e+01    0.3805887    0.2456967 -74.06  0.001463357    2.315    0.568
       421  -9.5643      9.7116     80.9589   1.2585255558e+02   5.7641112930e+01    0.2832339    0.2020919  62.63  0.001290927    2.317    0.568
       422  -8.3863    150.1997     80.7420   8.3372275484e+01   3.5667938427e+01     0.244851    0.1927277 -50.95 0.0008494577    1.372    0.271
       423  -9.0225    119.3097     80.2863   9.0623029584e+01   4.2443424633e+01    0.3582014    0.2364263 -45.70  0.001306363    1.636    0.389
       424  -9.1314     74.5230     80.4424   1.0365753646e+02   5.0605058620e+01    0.2929134    0.2091628 -57.76 0.0009077544    1.801    0.445
       425  -8.2692    166.6825     79.8986   7.9722450717e+01   3.2071658592e+01    0.1982702    0.1779095 -44.39 0.0004356718    1.136    0.120
       426 -10.1227     63.8173     74.7543   1.0545206971e+02   5.3254404742e+01    0.6258311    0.2882805 -55.90  0.002402781    3.357    0.702
       427  -7.5622    184.2425     78.3507   7.6052139904e+01   2.8322423183e+01    0.1346727    0.1105012   5.10 0.0003401464    1.578    0.366
       428  -9.9308     48.4489     84.2285   1.1331624609e+02   5.3442660371e+01    0.4466084    0.3333335 -82.56  0.001758706    2.312    0.568
       429  -8.0346    157.4437     76.5164   8.0691569583e+01   3.4728784760e+01    0.1406459     0.137045  64.38 0.0001965171    1.024    0.023
       430  -9.5387    128.1430     74.8167   8.6809286157e+01   4.1511977288e+01    0.4615593      0.25225 -40.79 0.0008762869    1.904    0.475
       431  -8.6322    140.3907     75.2866   8.4051567493e+01   3.8762694868e+01      0.19974    0.1323514 -46.74 0.0008156229    1.646    0.393
       432  -9.2043    115.4774     73.1439   8.9525573449e+01   4.4445828708e+01    0.4072492    0.2088632 -35.95  0.001326356    2.002    0.500
       433 -10.2722     82.5350     71.5794   9.8467893921e+01   5.0901798826e+01    0.7998209    0.3674886 -37.34  0.003204655    2.135    0.532
       434  -8.3158    163.5224     73.2764   7.8606065320e+01   3.3861827087e+01    0.2560261    0.1326743 -42.27  0.001084765    1.985    0.496
       435  -8.5983    151.3702     73.2286   8.1069512352e+01   3.6635206983e+01    0.2029788    0.1288313 -46.66 0.0005530783    1.703    0.413
       436  -9.4029    105.9320     71.7248   9.1664345459e+01   4.6595410751e+01     0.316601    0.2007628 -48.78 0.0006570598    1.865    0.464
       437  -8.3842     42.6143     72.7514   1.1213645714e+02   5.6332805903e+01    0.2177638    0.1509212 -51.06 0.0009115799    1.504    0.335
       438  -9.3247     29.4265     70.3241   1.1617083175e+02   5.8154509220e+01     0.578489    0.2642256 -10.89  0.002134626    4.343    0.770
       439  -7.6608    175.5152     72.5936   7.6166186629e+01   3.1224074052e+01    0.1383695    0.1312533  63.25 0.0001067351    1.031    0.031
       440  -9.5739     95.0615     70.7781   9.4456024542e+01   4.8823225044e+01    0.4094763    0.2217646 -49.08  0.001227262    2.271    0.560
       441  -9.5567     51.4137     69.6005   1.0812421494e+02   5.5862050863e+01    0.4317872    0.2548057 -60.04  0.001723638    2.602    0.616
       442  -8.9096     16.7707     70.1622   1.2073972953e+02   5.9266996605e+01    0.2378864    0.1767469 -74.35 0.0009536853    1.925    0.480
       443  -7.6423    156.7831     70.0013   7.9073182065e+01   3.5913491194e+01     0.178527    0.1155262 -35.43 0.0004112704    1.614    0.381
       444  -8.9888    147.0487     68.2858   8.0624857582e+01   3.8386434062e+01    0.2839139    0.1986383 -43.15 0.0006526001    1.516    0.341
       445  -9.0390    138.7366     66.3075   8.1883199183e+01   4.0550647369e+01     0.310198     0.171231 -49.53 0.0009580175    2.199    0.545
       446  -8.9400    121.6161     66.1656   8.5879611021e+01   4.4289415602e+01    0.2929038    0.2266579 -63.56 0.0007694025    1.742    0.426
       447  -8.7373     64.7798     63.4692   1.0164481338e+02   5.5100578833e+01     0.427076    0.2340994   2.70  0.001728481    3.096    0.677
       448  -8.8512     37.3229     64.0450   1.1147988062e+02   5.8512939173e+01    0.2675661    0.2036001 -70.04 0.0008826613    2.153    0.536
       449  -9.0461    110.0938     63.5158   8.8034038705e+01   4.7083308064e+01    0.3067778    0.2322121 -48.81  0.000953546    1.570    0.363
       450  -7.5562    187.6808     63.3394   7.1780792875e+01   2.9844272575e+01    0.1436891    0.1001261 -72.08 0.0007049612    1.711    0.416
       451  -7.9328    158.0088     61.9392   7.6655975477e+01   3.6846609538e+01    0.1605309     0.155905 -37.80 0.0003513326    1.090    0.083
       452  -9.6594     97.7703     60.4399   9.0448338679e+01   4.9976819524e+01    0.3680469    0.3176096 -15.58  0.001836047    1.137    0.120
       453  -9.8197     73.2257     59.4617   9.7571393187e+01   5.4454010401e+01    0.3742784    0.2652059 -51.17   0.00121087    1.852    0.460
       454  -8.5691     88.8773     59.5404   9.2741486666e+01   5.1765946807e+01     0.214527    0.1507466 -36.54 0.0006653104    1.476    0.322
       455  -7.9929    146.9670     59.0000   7.8052715713e+01   3.9785051286e+01    0.1639831    0.1554115 -24.28 0.0005376351    1.123    0.109
       456  -9.8626     23.4629     56.4749   1.1439373096e+02   6.1224941990e+01    0.3799365     0.278219 -78.70  0.002075933    2.848    0.649
       457  -8.3905    130.8875     57.8007   8.1191196338e+01   4.3540837575e+01     0.249647    0.1727115 -61.25 0.0006850798    2.025    0.506
       458  -9.4393      7.3039     57.0914   1.2082552683e+02   6.2381999157e+01    0.2779263     0.185095 -63.87  0.001094849    1.881    0.468
       459  -9.3668    119.1671     55.3418   8.3219247219e+01   4.6413914904e+01    0.3961677    0.2153897 -45.62  0.001339748    2.209    0.547
       460  -9.4868     54.3893     55.7199   1.0270124587e+02   5.7854326880e+01    0.3059232    0.2231366 -51.02  0.001113158    1.786    0.440
       461  -8.6373    139.8988     56.1304   7.8720437559e+01   4.1781651664e+01    0.2049129    0.1825562 -81.47 0.0004996441    1.306    0.234
       462  -8.8523     44.1551     55.5186   1.0631010118e+02   5.9203317478e+01    0.2097948    0.1855322 -44.76  0.000796866    1.458    0.314
       463  -8.7338    105.7848     53.3825   8.6013531729e+01   4.9448215231e+01    0.2367455     0.209417 -67.02 0.0007429262    1.511    0.338
       464  -8.6498    127.8846     52.8921   8.0422782018e+01   4.4883495078e+01    0.2244552    0.2010801 -48.64 0.0006218078    1.273    0.214
       465  -9.6505     92.2929     50.5605   8.8820807043e+01   5.2462606033e+01    0.4254382    0.2130663 -40.62  0.001367238    2.225    0.551
       466  -8.4144     74.3166     52.3258   9.4860792483e+01   5.5378202427e+01    0.1365692    0.0908787   3.76 0.0007044454    1.672    0.402
       467  -9.1433    144.8313     49.0876   7.5702091307e+01   4.1626060476e+01    0.1991982      0.17908 -72.08 0.0004943002    1.256    0.204
       468  -8.3408    129.9678     49.3000   7.8886474558e+01   4.4911278908e+01    0.1900415    0.1662205  46.45 0.0004040292    1.054    0.051
       469  -8.9321    120.8683     47.4252   8.0393082935e+01   4.7128064434e+01    0.2656477    0.1846645 -33.08 0.0005721236    1.550    0.355
       470  -8.3345    112.1781     46.9500   8.2340849316e+01   4.9019998214e+01    0.1840445    0.1795334 -67.09 0.0005362315    1.246    0.197
       471  -9.1382     82.0281     46.3779   9.0449372213e+01   5.4912983771e+01    0.2580218    0.1788447 -30.11 0.0007043491    1.470    0.320
       472  -9.2138     16.5465     44.9733   1.1353404676e+02   6.3780439191e+01    0.2021031     0.175008 -48.31 0.0007823816    1.537    0.349
       473  -8.6502     45.0080     44.6293   1.0232785336e+02   6.0820364807e+01    0.2059604    0.1569483 -42.63 0.0005936357    1.577    0.366
       474  -8.8166    132.9556     43.4731   7.6519057164e+01   4.4999599458e+01    0.2372373    0.1821668 -52.14 0.0007301242    1.559    0.358
       475  -8.9425     58.2491     42.7711   9.6922420670e+01   5.9274317374e+01    0.2541199     0.186516 -50.76  0.001119491    2.010    0.502
       476  -8.0515     32.3381     44.3254   1.0703632714e+02   6.2360572185e+01    0.1279867   0.07542136 -12.41 0.0007051423    1.724    0.420
       477  -8.3517     92.8235     42.7217   8.6071371719e+01   5.3419596809e+01    0.2192445    0.1431525  26.59  0.001173517    1.499    0.333
       478  -9.3868     69.8045     41.0869   9.2450439032e+01   5.7711518531e+01    0.4901571    0.2561744 -34.42  0.001873267    1.945    0.486
       479  -9.7027      5.2556     41.9858   1.1722458425e+02   6.5140913795e+01    0.2780937    0.1907618 -59.12  0.001176099    1.933    0.483
       480  -9.4074    105.9860     40.8402   8.1946582472e+01   5.1067797534e+01    0.3550294    0.1774536 -32.74  0.001058726    2.136    0.532
       481  -8.2400    140.4414     41.4986   7.4417956344e+01   4.3573470969e+01    0.1321948    0.1202371  50.68 0.0001760457    1.014    0.014
       482  -8.6147     36.7902     40.8798   1.0411433507e+02   6.2385007543e+01    0.1935984    0.1574962 -43.64   0.00081713    1.605    0.377
       483  -8.1708    155.5397     39.5222   7.1059672582e+01   4.0389013951e+01    0.1319642    0.1186264  57.26 0.0001356595    1.021    0.020
       484  -8.6884     95.4790     37.9883   8.3757532119e+01   5.3503135006e+01    0.2423383    0.2004952 -48.42 0.0009632319    1.578    0.366
       485  -8.0423     80.5082     36.5503   8.7522372223e+01   5.6466894486e+01    0.2063064    0.1106862 -41.17 0.0006310396    2.278    0.561
       486  -8.2667    224.0034     36.0125   6.0835783339e+01   2.5506671859e+01    0.1748955    0.1456749  35.36 0.0005336117    1.655    0.396
       487  -7.6035    133.4756     36.4921   7.4360718350e+01   4.5720684865e+01    0.1314529    0.1173372  48.34 0.0001062746    1.015    0.015
       488  -8.0606    125.9791     35.7502   7.5697480816e+01   4.7453483015e+01    0.1812058     0.152117  46.76  0.000320174    1.053    0.050
       489  -9.4238     26.1448     35.4379   1.0637885205e+02   6.4364790362e+01     0.239145    0.1761136 -40.99 0.0008527148    1.559    0.359
       490  -8.5973    111.9250     34.8974   7.8587962782e+01   5.0551283018e+01    0.1880902    0.1577063 -82.02 0.0006664403    1.653    0.395
       491  -8.0088     88.5477     34.4930   8.4480153191e+01   5.5244514422e+01    0.1275743    0.1088263  21.43 8.235325e-05    1.023    0.023
       492  -9.1326     48.4964     33.5116   9.7040321465e+01   6.1932471975e+01    0.2109963    0.1880217  -3.28 0.0005650577    1.290    0.225
       493  -8.3130    119.0387     33.0405   7.6377441313e+01   4.9257525106e+01    0.1874863    0.1556747 -75.60 0.0004640171    1.611    0.379
       494  -8.8667     60.6440     32.5173   9.2398820780e+01   6.0281539535e+01    0.2046122    0.1670005 -16.62 0.0005256176    1.227    0.185
       495  -7.8133    139.3658     32.1331   7.1946557171e+01   4.4899548219e+01    0.1735854    0.1157316 -41.97 0.0009386324    1.706    0.414
       496  -8.8048     72.2342     31.1125   8.8115969047e+01   5.8566516906e+01    0.1971925    0.1621601 -38.56 0.0006294674    1.564    0.360
       497  -9.2163     12.8740     29.9901   1.0995055840e+02   6.6427308522e+01     0.277855    0.1446289 -50.14  0.001422585    2.419    0.587
       498  -8.4957    101.4744     29.1694   7.9261365909e+01   5.3329711197e+01    0.1822234    0.1694302  61.88 0.0005528513    1.282    0.220
       499  -9.0820     81.5270     27.5234   8.4040794075e+01   5.7337816260e+01    0.2750127    0.2033553 -46.11  0.001132861    1.885    0.470
       500  -8.6470      3.6197     27.8314   1.1321384555e+02   6.7487901081e+01    0.1758864    0.1526583 -43.39  0.000958648    1.636    0.389
       501  -8.0103    109.7188     27.3586   7.6693066316e+01   5.1835480966e+01    0.1186722    0.0986454 -68.64 0.0007015417    1.668    0.400
       502  -8.8842     91.8232     26.4121   8.0807705232e+01   5.5525914941e+01    0.2475277    0.1705594 -35.65 0.0008492832    1.704    0.413
       503  -7.3689    145.7155     25.3679   6.8898409952e+01   4.4192318976e+01     0.127231   0.09345325 -69.13 0.0007018574    1.697    0.411
       504  -8.2098    104.5032     22.9641   7.6481486950e+01   5.3357183158e+01    0.1702357    0.1217878 -17.78 0.0004382599    1.534    0.348
       505  -8.0731     34.7853     23.5695   9.8444127143e+01   6.5002043821e+01    0.1477217   0.09878781  36.07 0.0009457088    1.711    0.416
       506  -9.0513     63.5858     21.1836   8.7183722443e+01   6.1128472262e+01    0.2449338    0.1921641 -40.44  0.001009967    1.762    0.433
       507  -8.9449     48.3546     21.6878   9.2583080017e+01   6.3415121183e+01    0.2014203     0.175181 -17.15 0.0006059664    1.391    0.281
       508  -8.2328    120.4496     21.2007   7.2422553199e+01   5.0180931636e+01    0.1645278    0.1139417 -41.38 0.0009422379    1.734    0.423
       509  -8.9848     74.2806     19.8978   8.3397154749e+01   5.9441784014e+01    0.2488119    0.1823736 -47.26 0.0007987861    2.049    0.512
       510  -8.5326     19.7332     21.5866   1.0383884934e+02   6.6952285987e+01    0.1338296   0.09299152  25.16 0.0002893246    1.531    0.347
       511  -8.2063     87.8406     17.8335   7.8875518442e+01   5.7148869759e+01    0.1449138    0.1414571  11.24 0.0004170282    1.298    0.230
       512  -9.0642    175.6789    247.5893   1.1397542728e+02  -2.0630720434e+00    0.3252065    0.2475017 -56.99  0.001048233    1.734    0.423
       513  -8.7503    156.1596    248.1049   1.1799372364e+02   9.8419990878e-01    0.2334077    0.1735481 -72.26 0.0007912606    1.957    0.489
       514  -8.7362    132.3407    248.0650   1.2282788557e+02   4.8234354781e+00    0.2706739    0.1959321  79.17 0.0006572295    1.919    0.479
       515  -8.2584     17.0475     14.0368   1.0195670551e+02   6.8183906150e+01     0.139619    0.1265051  -3.93 0.0005836251    1.624    0.384
       516  -8.2286     30.0105     16.0367   9.7331152665e+01   6.6495526912e+01    0.1443559    0.1348983 -10.93 0.0005682362    1.671    0.402
       517  -8.2643    113.0592    248.7970   1.2682421264e+02   7.7246678626e+00    0.2181878    0.1573954 -82.83  0.001067596    1.716    0.417
       518  -9.0628    103.9195    246.9906   1.2843348811e+02   9.4658726282e+00    0.4303568    0.2253222 -74.24  0.001970131    2.742    0.635
       519  -9.0358    242.8515    246.7748   1.0097126756e+02  -1.1868944923e+01    0.3548713    0.1365417 -31.03  0.001651193    2.588    0.614
       520  -8.2922    218.5066    248.0464   1.0568394068e+02  -8.6758592689e+00    0.1727971     0.114317 -33.06 0.0005769007    1.548    0.354
       521  -9.1333    211.0200    246.6602   1.0687493007e+02  -7.3764417492e+00    0.2419165     0.176862 -51.10 0.0009415891    1.917    0.478
       522  -7.8638      1.6876     16.7084   1.0995560100e+02   6.9221752133e+01    0.1110344   0.06003283 -15.15 0.0003410848    1.589    0.371
       523  -8.4573    232.6554    247.2046   1.0290061725e+02  -1.0551539231e+01    0.1682421     0.144628 -28.26 0.0005270352    1.398    0.285
       524  -9.9719    223.9847    243.9238   1.0394668802e+02  -8.8641642637e+00    0.4598615    0.2408321 -43.95  0.002361256    2.258    0.557
       525  -9.2026    146.9910    246.0291   1.1955068775e+02   2.8282746080e+00    0.3108269    0.2251268  75.32  0.001181299    2.054    0.513
       526  -8.9446    120.3903    245.7898   1.2494933595e+02   7.1384859804e+00    0.3467367    0.2270752  77.99   0.00158398    2.254    0.556
       527  -9.4274     10.2853    244.6720   1.4574063879e+02   2.1885425398e+01    0.3765919    0.1413711  75.18  0.001663337    3.457    0.711
