#   1 NUMBER                 Running object number                                     
#   2 MAG_AUTO               Kron-like elliptical aperture magnitude                    [mag]
#   3 X_IMAGE                Object position along x                                    [pixel]
#   4 Y_IMAGE                Object position along y                                    [pixel]
#   5 X_WORLD                Barycenter position along world x axis                     [deg]
#   6 Y_WORLD                Barycenter position along world y axis                     [deg]
#   7 A_WORLD                Profile RMS along major axis (world units)                 [deg]
#   8 B_WORLD                Profile RMS along minor axis (world units)                 [deg]
#   9 THETA_WORLD            Position angle (CCW/world-x)                               [deg]
#  10 FWHM_WORLD             FWHM assuming a gaussian core                              [deg]
#  11 ELONGATION             A_IMAGE/B_IMAGE                                           
#  12 ELLIPTICITY            1 - B_IMAGE/A_IMAGE                                       
         1  -9.2102     92.4724     50.3394   3.2538444713e+01   5.4390810948e+01    0.3352948    0.1365888 -42.04  0.001260187    2.506    0.601
         2  -8.3949    119.3690     33.1561   2.0147108594e+01   5.0423050106e+01    0.1977518    0.1124669 -45.94 0.0009328321    1.718    0.418
         3  -9.2600    148.0950     28.6059   1.4532850795e+01   4.4158910230e+01    0.2424752    0.1819029  -3.45  0.001105584    1.933    0.483
         4  -9.5812     97.5885     12.3519   1.6180441001e+01   5.8216940388e+01     0.300142    0.2049429  -6.22  0.001554227    1.983    0.496
         5  -8.4067     65.1092      4.8807   1.9826429174e+01   6.7056638658e+01    0.1804939    0.1383791  45.80            0    1.275    0.215
         6 -10.4694     41.0429     13.8122   3.4496727909e+01   7.1686975237e+01      0.24826    0.1960241  39.57 0.0002448969    1.152    0.132
         7  -8.2362     52.2172      3.0254   2.2764267128e+01   7.0357753910e+01    0.1510411    0.1098789 -21.08 0.0008445141    1.590    0.371
         8  -8.0615      2.5196      3.4602   5.8017611643e+01   8.0014766695e+01     0.126695    0.1062365   3.16 1.026528e-05    1.028    0.028
         9  -9.5248     67.5229      1.3683   1.7278705828e+01   6.6765624295e+01    0.2400797    0.1106469  68.95 0.0002768334    1.866    0.464
        10 -10.3264    236.8365    239.8447   4.4530283590e+01  -4.4692844567e-01    0.3553266    0.1609034   4.15  0.001978783    2.380    0.580
        11  -9.0298    213.9370    250.2469   4.9398564422e+01   8.0033743442e-02    0.1876107   0.09850609  12.04   0.00130425    1.625    0.385
        12  -9.7560    161.5553    249.2632   5.8452962741e+01   4.6880693012e+00    0.2813056    0.1128233 -51.62   0.00139289    3.402    0.706
        13 -10.7467    169.8408    224.8801   5.3625329201e+01   7.4582816839e+00    0.4924102    0.2730205  19.27  0.002933694    1.619    0.382
        14 -11.3988    173.5316    245.9444   5.5775654910e+01   4.0518951329e+00    0.5916176    0.4228263 -42.28   0.00421901    1.701    0.412
        15 -10.4983    166.8149    248.0415   5.7298824595e+01   4.3750500613e+00    0.4071133    0.2259215  10.16  0.002549048    1.536    0.349
        16 -11.1104    167.2034    242.0058   5.6451393795e+01   5.1930989262e+00    0.5448609    0.2646438  17.37  0.001890422    1.798    0.444
        17 -11.2888    162.3233    225.6784   5.5196080405e+01   8.1109010006e+00    0.4772013    0.2812922   9.47  0.002650233    1.566    0.361
        18 -10.7599     54.0778    249.0390   8.1964044655e+01   1.5099121416e+01    0.4487188    0.2678509  -2.68  0.001784772    1.956    0.489
        19  -9.7925     37.2004    249.0520   8.5956599605e+01   1.6584986822e+01    0.2384378    0.1715687  53.14 0.0007265356    1.355    0.262
        20  -9.0103     12.2587    244.5677   9.1670498623e+01   1.9455088938e+01    0.2564547   0.09974076  19.26 0.0008377945    2.167    0.538
        21 -10.6217      7.9393    240.7290   9.2576734958e+01   2.0531010225e+01    0.3132682    0.2539752  66.85  0.001060713    1.261    0.207
        22 -10.2104     13.1052    250.2364   9.1654672756e+01   1.8301899686e+01     0.455353    0.1730172  15.05  0.002066873    2.479    0.597
        23 -10.2164     20.2854    249.4364   8.9954856402e+01   1.7899950345e+01    0.3435659     0.251616 -74.84  0.001999188    1.663    0.399
        24  -9.3783     16.9963    245.4977   9.0582275641e+01   1.8912267680e+01     0.340482    0.1971081  69.07  0.001996044    1.835    0.455
        25  -9.8749      4.0400    249.1310   9.3716993742e+01   1.9179642790e+01    0.2662875    0.1418464  38.07 0.0007005005    1.393    0.282
        26  -9.5350      1.3779    245.2847   9.4241068325e+01   2.0108609043e+01    0.2013148    0.1102687  89.00 0.0007817378    2.053    0.513
        27 -10.7453     98.3709    241.5340   7.0937997460e+01   1.2157286856e+01    0.4495865     0.196693  21.33  0.001610113    1.907    0.476
        28 -10.6844    107.8306    238.2112   6.8420801925e+01   1.1765477221e+01    0.3905974    0.2927296 -53.50  0.002510814    1.614    0.381
        29  -8.6572    221.3094    240.0858   4.6884937731e+01   7.2083176307e-01    0.1416536   0.09698509 -16.52 0.0005523312    1.095    0.086
        30  -8.9199     16.0133    237.9724   9.0540745143e+01   2.0472605417e+01    0.4192412    0.1242225  41.32  0.001857498    2.400    0.583
        31 -11.6875    106.6460    224.2448   6.7100795211e+01   1.4409386759e+01     1.437544    0.5373875 -33.84  0.005176825    4.203    0.762
        32 -11.5660     90.3432    232.7415   7.1923375141e+01   1.4582299552e+01     1.228133    0.3335993 -63.10  0.004483257    4.726    0.788
        33 -10.6875     87.6165    227.7135   7.2063727963e+01   1.5823845626e+01    0.3780023    0.3042136 -37.48  0.001613903    1.373    0.272
        34 -11.7047     98.6281    225.4779   6.9154165659e+01   1.5060572426e+01    0.5948371    0.5188363  29.70  0.001637895    1.164    0.141
        35 -10.2405     99.9687    217.4621   6.7896203612e+01   1.6450492616e+01    0.3538404    0.1903937  36.79 0.0008132217    1.730    0.422
        36 -10.0763    231.1290    234.3094   4.4606733353e+01   6.3898038025e-01    0.2282872    0.1604268 -14.23 0.0008167913    1.085    0.078
        37 -10.8986    238.7549    230.1608   4.2920396525e+01   5.3618274984e-01    0.3701515    0.2063462  -5.17  0.002026339    1.552    0.356
        38 -11.6142     95.8499    218.0592   6.8978302081e+01   1.6799566503e+01    0.6451433    0.3644853  29.87  0.001646444    1.517    0.341
        39 -10.0659    117.8470    227.7040   6.4920594016e+01   1.2548296232e+01    0.3455006    0.2157242  39.49  0.001109365    1.696    0.410
        40 -11.5316    126.5503    221.6490   6.2185334642e+01   1.2660122077e+01    0.5233989    0.3387411 -58.78  0.001131449    1.993    0.498
        41  -9.7319    181.2906    226.0476   5.1650968419e+01   6.1358841530e+00     0.224826    0.1660361   5.62  0.001320404    1.134    0.118
        42  -9.0975    242.8373    223.6797   4.1430071541e+01   9.8430905886e-01    0.1735976   0.09449422 -24.17 0.0006033285    1.333    0.250
        43  -8.9807     66.5066    223.9176   7.6966516147e+01   1.8789876614e+01    0.1775791     0.130881 -67.53  0.001039193    1.609    0.378
        44  -8.8387    144.9559    227.3709   5.8953582995e+01   9.6709890121e+00    0.1723291    0.1280222   7.78 0.0004549844    1.111    0.100
        45  -9.2528    157.6066    221.3802   5.5531433609e+01   9.2860433883e+00    0.2270883     0.163374  -1.32 0.0007898595    1.190    0.160
        46  -9.1066    213.1363    220.8483   4.5456422323e+01   3.8464291058e+00    0.1793904    0.1063614  26.52  0.001225271    1.794    0.443
        47  -9.3165    133.2980    220.6528   6.0553104370e+01   1.2079190055e+01     0.258197    0.2027655  58.29   0.00096154    1.949    0.487
        48 -10.1768    131.0347    214.5184   6.0218842912e+01   1.3422143627e+01    0.3758595    0.2503283 -64.86  0.001637732    2.192    0.544
        49  -9.0973    128.3481    211.7278   6.0437696424e+01   1.4241858605e+01    0.1811466    0.1629867  22.83 0.0003514467    1.211    0.174
        50  -9.8541    114.8072    220.7359   6.4755119949e+01   1.4146901077e+01    0.2395545    0.1786477  20.14  0.000793096    1.150    0.130
        51  -9.2340    218.5440    220.3284   4.4529147912e+01   3.4308441096e+00    0.1956749    0.1251037  -4.87  0.001402555    1.300    0.231
        52  -8.7291    149.3616    219.7753   5.6992854451e+01   1.0443424384e+01    0.2183931    0.1556674 -36.36 0.0008375901    1.401    0.286
        53  -9.4055    151.7285    215.9154   5.5952634682e+01   1.0822352950e+01    0.2878851    0.1735814   8.26  0.001299426    1.618    0.382
        54  -9.5470     75.3643    219.3278   7.4267807399e+01   1.8801230848e+01    0.2603601    0.1734017  33.63 0.0008708322    1.306    0.234
        55  -9.7299    190.1634    215.2836   4.8488713468e+01   6.8163077451e+00    0.4088446    0.1930396 -20.47  0.002095795    2.378    0.579
        56  -8.7693     60.6818    219.7108   7.8093971966e+01   2.0255731534e+01    0.1292288   0.09347042 -15.68 0.0003862417    1.596    0.374
        57  -9.3767    175.8787    216.7213   5.1302786521e+01   8.0736032610e+00     0.323978    0.1531922 -22.07  0.001596323    2.438    0.590
        58  -8.5358    143.5090    216.9424   5.7827991433e+01   1.1571613993e+01    0.1726014    0.1157302 -43.23  0.001022949    1.563    0.360
        59 -10.1377     84.5673    215.4859   7.1513493229e+01   1.8581287968e+01    0.4148652    0.2227392 -54.65  0.002068821    2.039    0.509
        60 -10.2976    170.6635    215.2771   5.2079588127e+01   8.8498580208e+00    0.2486975    0.1924371  -3.40 0.0007350754    1.041    0.039
        61  -9.3573     21.5288    216.5037   8.8209796915e+01   2.4559458103e+01     0.233796    0.1159447   4.03  0.001039206    2.397    0.583
        62 -10.7878    121.7847    223.2419   6.3467549101e+01   1.2909063469e+01    0.3545728    0.2648703  50.19  0.002109245    1.759    0.432
        63  -8.4024    119.3388    215.2699   6.2992757410e+01   1.4640780353e+01    0.1317104   0.08748359  -7.77 0.0005403796    1.602    0.376
        64  -9.3282    114.6113    211.4019   6.3591211397e+01   1.5924151537e+01    0.4843184    0.2475455  -5.40  0.001899668    3.224    0.690
        65  -8.7570    228.2998    214.0288   4.2121559188e+01   3.3823913481e+00    0.1523598    0.1013674 -22.25 0.0009050738    1.111    0.100
        66  -9.6067     63.5688    213.2501   7.6748722376e+01   2.1331115738e+01    0.3102625    0.2357182  40.53  0.001172675    1.217    0.178
        67 -10.2218     77.6903    211.3446   7.2834381480e+01   2.0207987912e+01    0.3476679    0.2422369   3.94  0.001870548    1.478    0.323
        68  -8.5306     77.9167    207.5073   7.2353546521e+01   2.0998553981e+01    0.2639022    0.1614988   8.73  0.001287494    1.714    0.417
        69 -10.0086     18.1515    213.1455   8.8946688328e+01   2.5577566600e+01    0.1904559    0.1742185 -14.84  0.001237984    1.267    0.211
        70  -9.4926    202.6304    210.8285   4.5678393596e+01   6.2086155160e+00    0.3137099     0.132449 -31.57  0.001697268    2.075    0.518
        71 -10.4223    212.0441    207.9271   4.3701917500e+01   5.6919075040e+00    0.3519997    0.2790448  -2.24  0.002725437    1.176    0.150
        72  -9.5150    213.3482    203.6470   4.2836941817e+01   6.1557734436e+00    0.3309779    0.1616826  31.39  0.001996135    2.253    0.556
        73  -7.8477    148.3971    210.6959   5.5890836981e+01   1.2083636750e+01     0.119049   0.09258794  49.31 0.0002720833    1.827    0.453
        74 -12.2211     14.4731    197.3161   8.9195567995e+01   2.9526446673e+01     1.628793    0.4451867 -54.97  0.004412628    4.170    0.760
        75 -10.3737     29.1976    175.3722   8.3332644564e+01   3.3744824263e+01    0.5982735    0.3144089  65.94  0.002529012    2.149    0.535
        76 -10.5029     23.8571    174.0156   8.4923849420e+01   3.4561962848e+01    0.7527782     0.316593  76.69  0.002714407    3.095    0.677
        77 -10.7305     28.9742    169.8173   8.2937122878e+01   3.5201218119e+01    0.5098405    0.3000898 -45.72  0.002320096    1.910    0.476
        78  -9.8987     11.4346    187.4902   8.9592073858e+01   3.2139526949e+01    0.2336521    0.2060897  39.85 0.0006319877    1.034    0.032
        79 -10.9488     20.6554    182.0897   8.6492985859e+01   3.2771389555e+01    0.5634248    0.3618906 -89.72  0.002839115    1.633    0.388
        80 -12.1163     12.1193    180.7194   8.9033049648e+01   3.3779686308e+01    0.9601494    0.7011849 -56.95  0.004088575    1.501    0.334
        81 -11.4049      5.1484    176.9734   9.0998376878e+01   3.5217676258e+01     0.571917    0.4609981 -77.62  0.002255139    1.284    0.221
        82 -11.6177      3.8674    169.1580   9.1040345556e+01   3.7312662287e+01    0.3673265    0.3363116  85.06            0    1.097    0.089
        83  -9.0103    236.8235    209.8085   4.0259147486e+01   3.1747858721e+00    0.1357071    0.1198286 -52.69  0.001068993    2.171    0.539
        84  -9.8661    130.2194    201.7632   5.8575723602e+01   1.5867867028e+01    0.4261713    0.3100742  71.93  0.002147804    2.560    0.609
        85 -10.8075    166.9727    198.7725   5.0267538375e+01   1.1929967077e+01    0.5738131    0.4817885  85.07  0.003354344    2.287    0.563
        86 -11.6545    176.0796    184.8759   4.6228083945e+01   1.3145599500e+01    0.5338454    0.4192623 -48.83  0.002275798    1.516    0.340
        87 -11.8406    178.4925    196.5751   4.7706771091e+01   1.0942608661e+01    0.8744735     0.469886 -22.85   0.00463471    1.941    0.485
        88 -11.4728    172.7897    195.6918   4.8643107920e+01   1.1752666087e+01    0.6708614    0.2616223 -39.05  0.002003912    2.345    0.574
        89 -10.2853      1.6932    197.2467   9.2819183922e+01   3.0456087436e+01    0.6411415    0.1920986  86.84  0.002285861    3.762    0.734
        90  -8.5551    212.8231    198.8811   4.2175854657e+01   6.8730580950e+00    0.1702128    0.1119185 -18.18 0.0004457798    1.231    0.187
        91  -8.5438    148.5295    198.5221   5.4016608847e+01   1.4199803239e+01    0.2034229    0.1239447 -59.61  0.001016887    2.328    0.570
        92  -8.6666    144.7968    198.1705   5.4767043021e+01   1.4724277854e+01    0.1882316    0.1335213 -16.13  0.001077608    1.381    0.276
        93  -9.7037    126.5351    196.6755   5.8668823045e+01   1.7303127328e+01    0.3186262    0.2157624  -2.35  0.001267682    1.593    0.372
        94  -9.1799    124.5279    192.9876   5.8580600168e+01   1.8283252775e+01    0.2285865    0.1725134  -5.49  0.001281404    1.329    0.248
        95  -8.7786    113.0149    194.2706   6.1576760635e+01   1.9514261991e+01    0.2285707    0.1810398 -24.80 0.0003442015    1.271    0.213
        96  -9.4350    105.1744    197.6003   6.4022918373e+01   1.9826094229e+01    0.2756073    0.2012413 -22.23 0.0009483306    1.463    0.317
        97  -8.8814     55.5222    197.0291   7.7395560804e+01   2.5813841816e+01    0.1939359    0.1388068 -73.61 0.0008403095    1.569    0.363
        98  -9.2168     38.6253    195.3447   8.2099481286e+01   2.7919425571e+01    0.4845009     0.159758 -52.88  0.001773794    3.295    0.697
        99  -8.8553    131.6634    194.9178   5.7204988674e+01   1.6987323474e+01    0.1793565    0.1609986 -21.94 0.0007576773    1.123    0.109
       100 -11.6259     98.0590    188.5385   6.4579424690e+01   2.2661996692e+01    0.6243861     0.396545  51.08  0.001475814    1.884    0.469
       101  -9.7814    104.0239    189.2100   6.3112924554e+01   2.1739333397e+01    0.3296982    0.1901179  21.16 0.0008534584    1.677    0.404
       102 -10.8633     94.1126    182.2385   6.4721712103e+01   2.4574754097e+01    0.4590462    0.3748552 -23.85  0.001345276    1.283    0.221
       103  -9.8258    185.8005    190.1868   4.5325556042e+01   1.1112787142e+01     0.241519    0.1640841  -4.92  0.000943299    1.438    0.304
       104 -10.3805    183.1405    185.6571   4.5051549598e+01   1.2154333423e+01     0.321662    0.2008314 -56.69  0.001618921    2.403    0.584
       105  -9.8603    197.0177    182.0022   4.2001187047e+01   1.1083097133e+01     0.250255    0.1864856  31.06  0.001340599    1.546    0.353
       106 -10.1880    204.0283    187.7850   4.1801911909e+01   9.4080004834e+00    0.2722065    0.2216648  40.99   0.00190325    1.764    0.433
       107  -8.7641    138.4385    189.2195   5.4754133282e+01   1.7197213214e+01    0.1998712    0.1265729 -47.10  0.001052593    1.618    0.382
       108  -9.0664     66.6827    194.6807   7.3988075983e+01   2.5127110690e+01    0.3752587    0.1681537  51.26  0.001400102    2.701    0.630
       109  -8.1826     87.3012    189.6022   6.7624882700e+01   2.3804201812e+01    0.1465383    0.1013194  60.00 0.0001789783    1.820    0.451
       110  -9.0269    155.1504    187.3588   5.0810351153e+01   1.5365011400e+01    0.2539106    0.1477158 -24.10 0.0009549674    1.861    0.463
       111  -9.2025    112.4313    197.8225   6.2238890728e+01   1.8865963725e+01    0.4032424    0.1801605  48.52  0.001510847    3.346    0.701
       112  -8.9620    148.7068    186.5503   5.2046175212e+01   1.6350029447e+01    0.2336246    0.1105619 -47.28  0.001084047    2.108    0.526
       113  -9.2725     61.1955    200.6016   7.6156718461e+01   2.4382523734e+01    0.3262464    0.1813703  46.11  0.001378149    1.773    0.436
       114 -10.0550    109.3096    184.9652   6.1107603608e+01   2.1943626037e+01    0.4474782     0.293945  27.97  0.002284748    1.413    0.292
       115  -8.6601    250.3815    184.8036   3.4607768487e+01   5.1243146532e+00    0.1550832   0.06872336 -29.34  0.000951737    1.734    0.423
       116  -9.3558    209.6570    184.6833   4.0384419986e+01   9.2454079398e+00    0.1956128    0.1394481   2.73  0.001340032    1.358    0.264
       117  -9.3957    212.6549    182.6716   3.9580963078e+01   9.2101240690e+00    0.1802799    0.1189243  -2.59   0.00094812    1.540    0.351
       118  -8.9324    228.2340    184.1538   3.7499818598e+01   7.3534591817e+00    0.1818396    0.1245466  -0.65  0.001085457    1.422    0.297
       119 -10.2121     45.9345    179.4620   7.8474485826e+01   3.1070620923e+01     0.921446    0.2313277 -69.39  0.002879701    4.034    0.752
       120 -10.4205    181.7946    179.9009   4.4316588251e+01   1.3259373152e+01    0.2731004    0.1508274 -46.13  0.001313927    1.831    0.454
       121  -9.7666    138.7316    180.2870   5.3204525021e+01   1.8875659440e+01     0.303874    0.2793968  87.38  0.001532952    1.490    0.329
       122 -11.3528    150.8378    174.9161   4.9590362037e+01   1.8227969871e+01    0.5287383    0.4202376   4.14  0.002030539    1.219    0.180
       123  -8.8982    103.9663    179.8380   6.1703444232e+01   2.3777819161e+01    0.2824523    0.1780161 -38.08   0.00135663    1.684    0.406
       124  -9.7864    105.3846    175.0939   6.0568413132e+01   2.4626596763e+01    0.3348188     0.226957  78.63  0.001254111    2.547    0.607
       125  -8.6689    112.4796    179.4936   5.9428361825e+01   2.2678031753e+01    0.2470855    0.1301103  16.00  0.001022133    2.245    0.555
       126  -8.4034    219.0387    177.9952   3.7830300145e+01   9.1865449755e+00    0.1372444    0.1010449 -24.07 0.0003919802    1.037    0.036
       127  -9.5068    158.4298    177.0157   4.8359058801e+01   1.6799864210e+01    0.3518774    0.1987268 -30.20  0.001282566    1.788    0.441
       128  -9.0462     89.0881    177.1859   6.5363888910e+01   2.6396986014e+01    0.3156953    0.2177428  64.71  0.001302968    1.934    0.483
       129  -9.5939     90.7485    172.3416   6.4154362988e+01   2.7294938313e+01    0.5371133    0.2458278  25.22  0.002128881    2.162    0.537
       130 -10.8151    204.1315    175.4689   3.9713559680e+01   1.1250613808e+01    0.3828519     0.269453   9.58  0.002523626    1.479    0.324
       131 -10.8261    207.0334    168.1829   3.7988062539e+01   1.2013869360e+01    0.4289885    0.2182544 -36.43   0.00242853    1.615    0.381
       132  -8.1955    240.4193    177.8631   3.4800269022e+01   6.9749202068e+00    0.1494435   0.07414319 -28.11 0.0005391354    1.603    0.376
       133  -9.0690     77.4545    175.9302   6.8524895420e+01   2.8226004816e+01    0.2923314    0.1723769  43.90   0.00101127    1.702    0.412
       134  -8.5367    193.2655    172.5511   4.1009313782e+01   1.3020563805e+01    0.1535403    0.1048195  11.22 0.0007288023    1.576    0.365
       135  -7.8715    223.9188    172.0000   3.6109224002e+01   9.5062971046e+00    0.1504948   0.06151441  35.48 0.0004461907    2.901    0.655
       136 -10.1819    177.6816    168.3632   4.3036405797e+01   1.5726914563e+01    0.3287139    0.2757141 -71.28   0.00201586    1.821    0.451
       137  -9.3659    121.5107    169.6405   5.5472557682e+01   2.3487669340e+01    0.3225252    0.2548996  73.68  0.001173534    1.834    0.455
       138  -8.5021     55.0691    169.5485   7.4507761542e+01   3.2562631079e+01    0.3000289    0.1393779  61.75  0.001014899    3.251    0.692
       139 -11.3881    217.5497    165.5217   3.5925712826e+01   1.1163348956e+01    0.4655616      0.32929  11.67  0.003100712    1.555    0.357
       140 -10.1232    159.3882    164.2470   4.5853836227e+01   1.9005374863e+01    0.3998266    0.1219382 -47.37  0.001453101    3.226    0.690
       141  -9.5298    200.0988    166.8195   3.8856648078e+01   1.3074703649e+01    0.1961863     0.140093 -21.62 0.0003845973    1.210    0.173
       142  -9.5568     98.2384    165.3042   6.0893688718e+01   2.7865923189e+01    0.5061284    0.2959015  65.61  0.001254068    3.119    0.679
       143  -8.7224     92.7887    160.2028   6.1575651695e+01   2.9860153912e+01    0.2990662    0.1907085  51.66  0.001331629    1.815    0.449
       144 -11.4887    150.7644    163.1415   4.7463035243e+01   2.0471995381e+01    0.6134712     0.409722 -16.56   0.00312919    1.730    0.422
       145  -8.9730     19.3952    166.3073   8.5797653628e+01   3.6941677562e+01    0.1934512    0.1290409  81.73 0.0007467906    1.545    0.353
       146  -9.3527    139.3056    165.3080   5.0417436666e+01   2.1747102151e+01    0.3340388    0.2457431  74.62   0.00148143    2.405    0.584
       147  -8.6424     80.8224    165.0227   6.5905038371e+01   3.0408117540e+01    0.2496264    0.1641628  70.35  0.001069902    2.142    0.533
       148  -9.5214     36.8821    164.1912   7.9804652520e+01   3.5922170445e+01     0.346512     0.255292  72.74  0.001735379    1.439    0.305
       149  -8.6604    217.7864    182.6346   3.8788632268e+01   8.6586559119e+00    0.1321705    0.1005439  32.12 0.0009440046    1.650    0.394
       150  -9.8228     15.6269    163.3757   8.6840952950e+01   3.8012175202e+01    0.2969221    0.2791944 -10.48  0.001745285    1.165    0.141
       151 -10.3178     24.6705    160.6834   8.3577493268e+01   3.7993684192e+01    0.6047408    0.2794234 -12.23  0.002033377    3.576    0.720
       152  -9.7181     21.2060    160.6089   8.4749349392e+01   3.8306706569e+01    0.3609122    0.2683693 -27.84  0.001385798    1.556    0.357
       153 -10.4802    247.4027    162.2212   3.1345222733e+01   8.3357315338e+00    0.3548288   0.08224192 -36.14   0.00152646    3.324    0.699
       154 -10.4451      8.9839    161.2618   8.8935071241e+01   3.9053769541e+01    0.5432178    0.1849953  78.06  0.001742997    3.719    0.731
       155  -8.9120    135.0257    171.5118   5.2533417273e+01   2.1131979687e+01    0.2047787    0.1285509  30.81 0.0006600167    1.566    0.362
       156  -9.6209     99.6460    159.6542   5.9516626806e+01   2.8967748860e+01    0.3531077     0.249425 -43.03   0.00123186    1.445    0.308
       157  -9.1087     60.5778    158.8927   7.1324490678e+01   3.4626643202e+01    0.4721391     0.237097  61.61   0.00166737    2.934    0.659
       158  -7.9427     66.3207    164.3015   7.0256578719e+01   3.2517631036e+01    0.1517751    0.1103061 -22.98 0.0004131002    1.627    0.385
       159  -9.9399    219.0232    158.8027   3.4534918838e+01   1.1974954227e+01    0.2545596    0.1783904  57.10  0.001583266    2.474    0.596
       160  -9.7535    167.5147    158.1934   4.3085138343e+01   1.8931904189e+01    0.3013369    0.2649905  10.58  0.001625235    1.150    0.131
       161 -10.5565    143.1768    158.4297   4.8242477753e+01   2.2532414672e+01    0.6705198    0.2437703  40.83  0.002554687    2.915    0.657
       162  -8.5596    128.3373    158.2096   5.1686514579e+01   2.4871225211e+01    0.3514891     0.134789 -58.87  0.001115941    3.978    0.749
       163  -9.2369    105.2779    157.7656   5.7604691827e+01   2.8547070286e+01    0.3169674    0.2341353  79.60 0.0009805673    1.993    0.498
       164  -9.1902    188.8167    157.8255   3.9109679551e+01   1.5992663438e+01    0.2776757    0.1456854 -59.95  0.001066061    4.209    0.762
       165  -8.9221    225.4727    157.5097   3.3399486094e+01   1.1398940938e+01    0.1140039   0.08610729 -26.21 1.322296e-05    1.008    0.008
       166 -10.1397    207.3740    142.8276   3.3321543817e+01   1.5871054850e+01    0.3627834    0.2236681 -43.79  0.002172084    1.454    0.312
       167 -10.5991    207.7701    156.4542   3.5783137116e+01   1.3716304927e+01    0.3932216     0.192917  43.27  0.002121245    2.567    0.610
       168 -12.0934    206.0394    150.4508   3.4947439431e+01   1.4867234202e+01     0.687037    0.5593718 -83.39  0.004338366    2.143    0.533
       169  -9.7129    157.9045    156.1836   4.4630468959e+01   2.0725174986e+01    0.1887909    0.1839497 -69.05 0.0006598745    1.270    0.213
       170  -9.2263     49.3817    154.8403   7.4496819369e+01   3.7044098227e+01    0.3421288     0.225828  65.84 0.0009178456    1.744    0.426
       171 -10.0881    134.3401    153.6812   4.9364434406e+01   2.4872188501e+01    0.4927007    0.3451236  68.04  0.001993609    2.347    0.574
       172  -9.7123     81.6928    154.1204   6.3852035182e+01   3.2961990061e+01    0.4230148    0.2708435  74.13  0.001559074    2.384    0.580
       173 -10.3063     68.5166    153.5474   6.7933850289e+01   3.4962637278e+01    0.5604406    0.3700449  88.90  0.002429001    1.996    0.499
       174  -9.0048     99.4156    152.2474   5.8232005352e+01   3.0735062802e+01    0.4066605    0.2581552 -82.82  0.001622329    2.589    0.614
       175 -10.2163    223.4707    148.5302   3.2081914376e+01   1.2936111587e+01        0.372    0.2963809 -19.37  0.001899746    1.113    0.102
       176 -10.1492    157.9989    145.5529   4.2507417315e+01   2.2711121147e+01    0.6436207     0.358297  -8.12  0.002159237    4.513    0.778
       177 -10.6389    148.7141    143.6042   4.4067214886e+01   2.4582899670e+01    0.8303221    0.4182792 -58.21  0.002841705    2.755    0.637
       178 -10.3100    190.1758    150.7285   3.7543079517e+01   1.6978152522e+01    0.2755909    0.2162755  42.68 0.0009916308    1.552    0.355
       179  -8.8047     88.7243    150.8943   6.1131670854e+01   3.2707772990e+01    0.3407662    0.1701555  29.46  0.001357421    1.968    0.492
       180  -9.5841     28.2008    149.0494   8.1233804660e+01   4.0822957699e+01    0.5680903    0.2288042  66.55  0.001765641    3.716    0.731
       181  -8.8765     22.8334    151.2454   8.3372381291e+01   4.0698723443e+01    0.2742279    0.1084891  53.72  0.000950641    2.796    0.642
       182  -8.7322    182.1866    149.7377   3.8731510821e+01   1.8282548955e+01    0.2880195   0.08456115 -47.27   0.00101594    3.602    0.722
       183  -9.9784     39.6173    146.6508   7.6846955396e+01   4.0337540696e+01     0.719178    0.3466994  71.84  0.002458316    3.092    0.677
       184  -8.9958    142.5626    147.4160   4.6209194928e+01   2.4828791600e+01    0.2877536    0.2163371 -13.89  0.001489454    1.498    0.333
       185  -9.6309      3.0463    142.5280   8.9902630005e+01   4.4505659374e+01    0.3478029    0.1727692  67.45  0.001443908    2.079    0.519
       186  -9.9915    195.1419    145.4453   3.5714281484e+01   1.7146107669e+01    0.3182257    0.1407151 -42.64  0.001479115    1.960    0.490
       187  -8.8995    119.5100    154.6415   5.3219969298e+01   2.7022269163e+01    0.2760727    0.2009724  89.77  0.001251361    2.223    0.550
       188 -10.1032     56.4694    145.5722   7.0727764725e+01   3.8638051972e+01    0.6518995    0.2796932  50.07  0.002065615    2.785    0.641
       189  -8.7778    195.2929    154.6454   3.7429006948e+01   1.5635077216e+01    0.1147317   0.09146168 -60.07 0.0004055097    1.685    0.406
       190  -8.6050    106.5631    138.2574   5.3419987355e+01   3.2836461578e+01    0.2034457    0.1961734 -62.93 0.0007697348    1.088    0.081
       191  -9.4452    117.3670    144.8860   5.1846305031e+01   2.9517909294e+01    0.5036761    0.2540814  56.11  0.001750419    3.325    0.699
       192  -9.0051    111.0088    141.9845   5.2958594891e+01   3.1231618051e+01    0.5598058    0.2513939  57.80  0.001410267    6.188    0.838
       193  -9.6929    107.2394    144.8789   5.4588760142e+01   3.1195678772e+01    0.5278631    0.3141784  66.11  0.001920388    3.120    0.679
       194  -8.9479     13.2821    146.1319   8.6386046599e+01   4.2850119251e+01    0.2879311     0.143151  46.72 0.0007271311    1.933    0.483
       195  -9.4085    190.7412    145.4256   3.6431194455e+01   1.7774329019e+01    0.1579538    0.1144139  20.11 0.0009092836    1.594    0.373
       196  -9.5901    125.3874    143.0287   4.9401685603e+01   2.8582138224e+01    0.5064633    0.3269984 -85.79  0.001871803    3.430    0.708
       197  -8.9765    165.5479    144.1504   4.0714938641e+01   2.1780281936e+01     0.220013    0.1595809  68.69  0.001112402    2.254    0.556
       198  -8.8610     88.0659    143.8100   6.0010234056e+01   3.4542633122e+01     0.327196     0.208505  66.55  0.001312923    2.311    0.567
       199 -10.8803     69.5641    139.5294   6.5206024177e+01   3.8433191894e+01    0.9930434    0.5033442 -80.01  0.003351342    3.151    0.683
       200  -9.4401    182.0024    141.9507   3.7237417113e+01   1.9641288436e+01    0.1903627    0.1535012 -67.64  0.001047528    1.677    0.404
       201  -9.9887    192.4997    133.5521   3.3808362883e+01   1.9471753915e+01    0.2283521    0.1656521 -54.99  0.001269393    1.551    0.355
       202 -11.1959    197.2883    136.3210   3.3602348223e+01   1.8314636297e+01    0.5774645    0.3701376  -8.62  0.003060611    2.162    0.538
       203 -10.3631    202.6958    136.1334   3.2738792040e+01   1.7566707229e+01    0.2843869    0.2164481  50.27  0.001326824    1.690    0.408
       204  -8.6734     47.9313    139.2178   7.2796013051e+01   4.1409007028e+01    0.2656671    0.1786416 -30.03  0.001163633    1.777    0.437
       205 -10.2507     40.9159    135.5020   7.4852852184e+01   4.3244061443e+01    0.4842174    0.3816594 -19.75    0.0016798    1.443    0.307
       206  -9.8820     45.7472    134.6595   7.2906311870e+01   4.2912957534e+01    0.4178469    0.2701223  87.11  0.001260096    1.855    0.461
       207 -10.4831     42.4558    129.4974   7.3355276979e+01   4.4718855823e+01    0.4518209    0.3485687  38.27   0.00110612    1.260    0.207
       208  -9.7631     23.5685    138.1088   8.1792332005e+01   4.4254615169e+01    0.6697765    0.2798937  67.19  0.002172893    3.359    0.702
       209  -9.9369     22.4841    131.0303   8.1430985779e+01   4.6323635657e+01    0.5703366    0.2391516 -35.32  0.001889362    3.269    0.694
       210  -9.9342    245.7914    137.3728   2.7306270195e+01   1.1826088303e+01    0.2701882    0.1049891 -45.46  0.001234488    2.396    0.583
       211  -9.3232    234.2873    136.6389   2.8540613734e+01   1.3301675239e+01    0.2494605    0.1706565 -15.18  0.001381529    1.530    0.346
       212  -8.4016    172.4113    138.2305   3.8208066197e+01   2.1768628765e+01    0.1883352    0.1124913 -50.68 0.0008347995    1.733    0.423
       213  -9.1120     81.7735    137.0331   6.0681556540e+01   3.7217259926e+01    0.3551435    0.1949964 -50.17   0.00146085    1.827    0.453
       214  -9.1186    161.7548    136.3713   3.9858133140e+01   2.3823776505e+01     0.291818    0.2021884  25.31  0.001543965    1.674    0.403
       215 -10.6095    187.4612    134.8331   3.4884582803e+01   2.0020698921e+01    0.3502499    0.1831142 -38.96  0.001794583    1.639    0.390
       216  -8.1513     96.0000    134.9948   5.5816400930e+01   3.5393120446e+01     0.242298   0.08585258 -54.46 0.0007140109    2.851    0.649
       217  -8.9067    179.5827    133.2048   3.5890599719e+01   2.1517706381e+01    0.3055895    0.1435772 -51.56  0.001335082    2.413    0.586
       218  -8.1050      3.6520    134.6996   8.9173827542e+01   4.6636932885e+01    0.1527194   0.09884077 -39.76 0.0007037777    1.687    0.407
       219 -10.6692    132.3646    130.8525   4.5071590152e+01   2.9958499711e+01    0.6685812    0.3486489 -58.52  0.002517914    2.411    0.585
       220 -10.4809    110.3711    129.9097   5.0548478692e+01   3.4089324903e+01     0.665163     0.514134  11.07  0.003245943    1.533    0.348
       221  -9.4218    110.5217    125.7784   4.9574426762e+01   3.4999837799e+01    0.4088423    0.2604929  28.24 0.0008301442    1.747    0.428
       222  -9.9548    105.4146    123.6242   5.0525427938e+01   3.6419858652e+01    0.4030524    0.2648968  27.12  0.001218418    1.697    0.411
       223  -9.8294    109.0178    120.9647   4.8877766128e+01   3.6365838576e+01    0.3176907    0.2251978 -49.00   0.00078858    1.394    0.283
       224 -10.6947    116.7328    124.9130   4.7683429236e+01   3.4060685680e+01    0.7157084    0.5599967 -57.39  0.003623963    1.328    0.247
       225 -10.0805    117.8704    118.7521   4.5935558233e+01   3.5201954114e+01     0.506196    0.2053107 -45.61  0.001847036    2.414    0.586
       226  -9.9389     83.8734    131.9639   5.8976130531e+01   3.8149458153e+01    0.4942376    0.3101913  63.60  0.001413984    2.230    0.552
       227  -8.9995    208.8202    132.0349   3.1048469441e+01   1.7337232502e+01    0.2448449    0.1691544  69.07  0.001401712    2.497    0.600
       228  -8.9234    143.1737    131.4287   4.2698211081e+01   2.7932953054e+01    0.2798151    0.2121862 -80.93 0.0009632187    1.934    0.483
       229 -10.1070     12.9169    129.1057   8.5061062533e+01   4.7612198843e+01     0.599813    0.2549491  63.35  0.002055604    2.839    0.648
       230  -9.3008    168.8410    129.7424   3.7098589126e+01   2.3865619412e+01    0.2536099    0.1643132 -62.60  0.001161622    2.113    0.527
       231  -9.3773    153.0987    128.9127   4.0011701475e+01   2.6694351998e+01    0.3861776    0.2302849 -62.27  0.001480373    2.369    0.578
       232 -10.2134     99.5394    128.1648   5.3278369157e+01   3.6411080756e+01    0.5806352    0.3770827  78.06  0.001842057    2.748    0.636
       233  -9.3314     73.2874    129.2724   6.1965498206e+01   4.0524867399e+01    0.3193887    0.2073238  65.14  0.001154671    2.048    0.512
       234  -8.4400    124.2783    136.3504   4.8269709159e+01   3.0212270303e+01    0.1493914    0.1099245 -17.75 0.0007009489    1.643    0.391
       235 -10.1913     59.9378    124.2189   6.5749201099e+01   4.3859296780e+01    0.7515925    0.3858572  67.54  0.002308656    3.748    0.733
       236 -10.4056     44.4900    122.9173   7.1469847510e+01   4.6283547612e+01    0.8557699    0.4261748  67.65  0.002783059    3.304    0.697
       237  -8.1544    208.5403    125.5181   2.9816430405e+01   1.8378378180e+01    0.1208461   0.09722815 -37.13 0.0001254068    1.047    0.045
       238 -10.3445    180.9043    121.3599   3.3183990842e+01   2.3334921797e+01    0.6269953    0.2511426 -31.63  0.002433958    2.963    0.663
       239 -10.3701     28.7469    123.0214   7.7878157433e+01   4.7994323038e+01    0.6738259    0.3028039  51.78  0.002427926    2.546    0.607
       240 -10.0546     28.9924    116.4189   7.6812909173e+01   4.9818647710e+01    0.5216956    0.1690313 -52.44  0.001708088    2.908    0.656
       241  -8.6073     24.4625    125.4671   7.9965101166e+01   4.7709742912e+01    0.1467636    0.1439203  87.70 0.0002783759    1.016    0.016
       242  -9.8413    188.9941    121.4881   3.1898345533e+01   2.1999108721e+01    0.2788354    0.1604629 -31.82  0.001225267    1.636    0.389
       243  -9.7396    158.8788    121.0262   3.7097795730e+01   2.7167901392e+01    0.4028704    0.2111349 -59.06  0.001624123    2.716    0.632
       244 -10.5000     30.3925    102.0964   7.3786915388e+01   5.3659849294e+01     0.926878    0.2204109  40.56  0.002518527    4.140    0.758
       245 -10.8781     23.2623    102.1036   7.7121065590e+01   5.4369565600e+01    0.9168063    0.3574792  56.04  0.002765211    3.848    0.740
       246  -9.9926     21.0799     92.4813   7.6522882512e+01   5.7234450476e+01    0.6034444    0.2594707 -40.15  0.002160956    2.634    0.620
       247 -10.5034     22.5553    110.9053   7.8809065016e+01   5.1971662059e+01    0.7013162     0.247067 -74.69  0.002325614    2.923    0.658
       248 -11.1762     15.0125    113.4768   8.2509895864e+01   5.1863245625e+01    0.8577098    0.4171605 -72.90  0.001447784    1.962    0.490
       249 -10.8903     16.5051    105.3021   8.0776888913e+01   5.4050552420e+01    0.6042318    0.4252235 -32.64  0.002888727    1.522    0.343
       250  -9.4557    172.7975    119.7286   3.4222900526e+01   2.4977930599e+01    0.4477982    0.1655829 -38.58  0.001790005    2.488    0.598
       251  -9.9110    141.6197    118.9767   4.0228310355e+01   3.0695473664e+01    0.5176708    0.2487167 -56.52  0.001586508    2.650    0.623
       252  -8.9232     98.4067    119.9765   5.1745899164e+01   3.8545620676e+01    0.2861511    0.2176728  -0.02  0.001308627    1.722    0.419
       253  -9.3481     70.9859    119.6961   6.0762591297e+01   4.3356865326e+01    0.3091426    0.2106761 -86.09 0.0008026678    1.955    0.489
       254  -9.8527    130.9586    118.2571   4.2519128223e+01   3.2836302734e+01    0.4893183    0.2712274 -63.01  0.001896836    2.599    0.615
       255 -10.1144    133.7514    108.3756   3.9462177097e+01   3.4312517056e+01    0.6976985    0.3023476 -37.20  0.002599217    2.542    0.607
       256 -10.5361      2.6564    115.0406   8.8115116925e+01   5.2199137576e+01      0.97264    0.3450396 -87.43  0.003318639    2.973    0.664
       257 -10.7180    107.8682    113.9972   4.7523338882e+01   3.8154692790e+01    0.8176247    0.5936697 -39.10  0.003906975    1.423    0.297
       258 -11.0184    184.8006    113.9914   3.0969959226e+01   2.3924635229e+01     0.408168    0.3167408 -87.76  0.002019542    1.822    0.451
       259  -9.9183     79.5491    112.8381   5.6166275049e+01   4.3654926494e+01    0.5007849     0.343875  79.20  0.001559399    2.140    0.533
       260  -9.9350     92.8418    112.4574   5.1658974074e+01   4.1345999634e+01    0.5184329    0.3435185 -80.80  0.001889655    2.282    0.562
       261  -8.4316    159.4702    111.9552   3.4917316018e+01   2.8730751652e+01    0.1941126    0.1089536 -60.62 0.0008085505    2.449    0.592
       262 -10.2338     66.2682    109.5216   6.0203213870e+01   4.6742519876e+01    0.6059253    0.3841401 -72.55  0.002521338    1.885    0.469
       263  -9.5442     59.4772    109.4948   6.2827471205e+01   4.7824797691e+01    0.2638777      0.15272 -60.09 0.0007143056    1.743    0.426
       264  -9.3588     61.5173    106.1307   6.1243827274e+01   4.8383695970e+01    0.2921453    0.2206743  30.89 0.0007832688    1.315    0.240
       265  -8.8458    247.9958    108.5003   2.1919091214e+01   1.5402064787e+01    0.1264284    0.1094643  54.69  0.001032802    1.589    0.371
       266  -9.3183    121.3969    107.8176   4.2325058938e+01   3.6863521566e+01    0.2127392    0.1352981 -36.13 0.0004985062    1.679    0.405
       267  -9.0590    197.2273    106.5477   2.7524119178e+01   2.3065089448e+01    0.1519388    0.1165719  31.10 0.0009352586    1.652    0.395
       268  -9.3621    122.1527    112.3709   4.3271935510e+01   3.5754405791e+01    0.2779533    0.2202623  80.11 0.0009031339    1.612    0.380
       269 -10.5705     45.9741    102.4403   6.6847053192e+01   5.1663054988e+01    0.9453973      0.44226  62.02  0.002737326    4.178    0.761
       270  -9.5075    139.8776    103.7772   3.6940015625e+01   3.4010022109e+01    0.4997173    0.2305513 -52.99  0.001935865    2.420    0.587
       271  -8.6649    248.6461    104.3124   2.1093726990e+01   1.5866304188e+01     0.107777   0.06671053 -55.47 0.0007044878    1.731    0.422
       272  -8.2670    166.5265    104.0180   3.1778832560e+01   2.8844024249e+01    0.1953972    0.1025642 -58.26 0.0008094249    2.495    0.599
       273  -9.2803    150.1988    103.0222   3.4599508805e+01   3.2126168235e+01    0.4155189    0.1965211 -54.54  0.001632076    2.517    0.603
       274  -8.9496     93.2575    103.8899   4.9342184655e+01   4.3276732103e+01    0.2925658     0.208986   5.20  0.001230513    2.084    0.520
       275  -9.5849      6.6932    102.9328   8.5107952675e+01   5.5384723833e+01    0.2079266    0.1847481 -83.95 0.0004305306    1.093    0.085
       276 -10.4920    129.0821    101.4494   3.8800958521e+01   3.6630587653e+01    0.4223171    0.3230209  39.02  0.001928623    1.408    0.290
       277 -10.5715    108.6697     98.8703   4.3383620235e+01   4.1328399580e+01    0.5628062    0.5086023  67.04  0.002314792    1.148    0.129
       278  -9.1507    108.3082     92.0034   4.1584752222e+01   4.2861979241e+01    0.5240465    0.2927724  26.63  0.001882612    2.948    0.661
       279  -8.1210    160.2991    101.6289   3.2330372445e+01   3.0433747081e+01    0.1418637    0.1002717 -67.76 0.0007030121    1.741    0.426
       280  -8.8729     82.2496     99.8486   5.1928937564e+01   4.6330746100e+01    0.3220986    0.2289398  76.65  0.001365431    1.965    0.491
       281 -10.0582     64.0054     95.9525   5.7702134991e+01   5.0572409373e+01    0.5492095    0.3452753  72.23  0.002024665    2.532    0.605
       282  -9.3424     95.0216     96.2672   4.6720605224e+01   4.4669123115e+01    0.4106881    0.2079308 -54.24  0.001234984    2.098    0.523
       283  -8.5638    119.1718     94.6124   3.9416596435e+01   4.0048531009e+01    0.2104986    0.1377392  36.18 0.0005761142    1.741    0.426
       284  -9.8052     44.4600     91.8585   6.5057539062e+01   5.4682332071e+01    0.5001727    0.2779422  10.98  0.001885934    2.391    0.582
       285  -9.7174    138.7235     90.2461   3.3699550305e+01   3.6807058569e+01    0.5917609    0.1863557 -41.66  0.002010812    3.003    0.667
       286  -8.7310    126.6053     83.8152   3.4610947950e+01   4.0581691754e+01    0.4457029    0.2735302  10.97  0.001332821    5.217    0.808
       287 -10.0897      4.7395     91.0085   8.4678158721e+01   5.8825229748e+01     0.561161    0.3238395  77.52  0.002444745    1.947    0.486
       288  -8.8059     12.4990     82.5075   7.9260888796e+01   6.0673024842e+01    0.2965406    0.2012824 -25.77  0.001408528    1.569    0.362
       289  -9.1889      7.7860     84.1881   8.2119484427e+01   6.0532049111e+01    0.4062433     0.213009 -45.08  0.001502017    1.856    0.461
       290  -8.7681      8.7379     80.6124   8.1028955320e+01   6.1449015208e+01    0.3067984    0.1750549  36.91 0.0008441619    1.798    0.444
       291 -10.0070     34.6913     88.9721   6.9009331054e+01   5.6734215602e+01    0.5761494    0.3251403 -87.05   0.00218847    2.495    0.599
       292  -9.7595     35.9965     81.5185   6.6527748096e+01   5.8532336078e+01    0.5610081    0.3123393 -18.87  0.002021273    2.843    0.648
       293  -9.6886     86.8957     86.5519   4.6559677751e+01   4.8487716729e+01    0.4811487    0.3217354  81.94  0.001643821    2.442    0.591
       294  -9.1257     64.5594     86.7928   5.4933549592e+01   5.2734623466e+01    0.3737532     0.224663  13.59  0.001379385    2.587    0.613
       295  -9.9405     48.4263     83.8360   6.1116091026e+01   5.6165290308e+01    0.5658603     0.343906  68.58  0.001809127    2.590    0.614
       296  -9.1655    116.8665     83.3030   3.6813115863e+01   4.2792469115e+01    0.2650312    0.2048645 -36.86 0.0002511832    1.349    0.259
       297 -11.1510    186.6536     79.9485   2.3063849356e+01   2.9005392980e+01    0.5370572    0.4046319  26.57  0.002372122    1.926    0.481
       298  -9.9758     24.5903     80.4523   7.2242115343e+01   6.0152351357e+01    0.4969891    0.2930508  78.85  0.001460618    2.410    0.585
       299  -9.5506     87.0817     80.3608   4.4601136090e+01   4.9805057889e+01    0.4669383    0.2560768  23.89  0.001549658    3.349    0.701
       300  -8.6930     74.7438     80.5309   4.9038536532e+01   5.2282114493e+01     0.259241    0.1923448 -79.89 0.0009704742    1.752    0.429
       301  -9.7197    124.8278     90.9169   3.7007245051e+01   3.9597614768e+01     0.496443    0.3135874 -71.65  0.001591349    2.364    0.577
       302  -8.7791    104.7923     76.8005   3.8061319415e+01   4.6715596648e+01    0.2464339    0.1682752   8.03 0.0009499929    2.804    0.643
       303  -9.3009     49.7129     76.7799   5.8451749004e+01   5.7714592223e+01    0.3265133    0.2407185  14.24 0.0009380682    1.541    0.351
       304  -8.9354    128.0440     75.0752   3.1779042299e+01   4.1870901302e+01    0.3429839    0.1738501 -58.98  0.001300159    2.615    0.618
       305  -9.9043     10.6936     74.2577   7.8776457830e+01   6.3031436588e+01    0.3974697    0.2166671  19.71   0.00136017    1.821    0.451
       306  -8.0998    140.3358     74.6651   2.9127112576e+01   3.9239848863e+01    0.1494995    0.1032008 -72.30 0.0007052026    1.743    0.426
       307  -9.4796     82.4876     72.4969   4.3625278766e+01   5.2444641322e+01    0.4282787    0.2861923 -74.96  0.001727853    2.187    0.543
       308  -9.9424     27.9712     71.0143   6.8007100899e+01   6.2238551864e+01    0.7382642    0.3506784 -11.17  0.002086587    4.857    0.794
       309  -8.2082    115.6977     72.3431   3.3824829627e+01   4.5127931417e+01    0.1526728    0.1109803 -76.03 0.0006626734    1.679    0.405
       310  -8.8244    106.3669     72.1242   3.6160717651e+01   4.7269548079e+01    0.2174529    0.1308755 -54.18  0.000936082    1.787    0.440
       311  -9.1148     95.0831     70.9121   3.9001792894e+01   5.0026803454e+01    0.3603067    0.1930568 -59.44  0.001366731    2.448    0.591
       312  -9.5844    104.7924     82.9398   3.9935079158e+01   4.5485567834e+01    0.4651515    0.3002199 -73.06  0.001618136    2.284    0.562
       313  -9.7900     51.4235     69.1640   5.5197415295e+01   5.9245070843e+01    0.5486862    0.2821712 -71.13  0.001828298    3.408    0.707
       314  -8.1780    162.4800     70.5170   2.4186526421e+01   3.5199535456e+01    0.1329179    0.1187279 -56.33 -6.937202e-05    1.024    0.023
       315  -9.0260     16.4657     69.5005   7.4326150436e+01   6.3826915575e+01    0.3487166    0.2228474  76.13  0.001541668    2.048    0.512
       316  -8.8524    129.4227     68.8103   2.9640331593e+01   4.2659016509e+01    0.1933548    0.1365349 -28.00 0.0008130256    1.640    0.390
       317  -9.4899      2.1857     68.9530   8.2979288120e+01   6.4964340190e+01    0.3250287     0.193136   3.11  0.001519108    1.746    0.427
       318  -8.5009    146.7878     68.0423   2.6092516775e+01   3.8931745414e+01    0.1851225    0.1036473 -39.95 0.0006820541    1.675    0.403
       319  -8.8890    193.6364     67.1836   1.9257918147e+01   2.9560703208e+01    0.1723396    0.1044826 -30.20 0.0009435717    1.647    0.393
       320  -8.2355    188.3661     66.8434   1.9789085864e+01   3.0597409499e+01    0.1763667    0.1077192 -28.18 0.0006854867    1.737    0.424
       321  -8.7854    106.2153     67.0006   3.4553884792e+01   4.8261359700e+01    0.2309129     0.175928  -1.36 0.0008832045    1.985    0.496
       322  -8.5720     44.2902     67.3441   5.8096305006e+01   6.0861282145e+01    0.1544267    0.1132878 -21.28 0.0004775639    1.654    0.396
       323  -8.5847    138.6809     66.3818   2.7092593316e+01   4.0989630282e+01    0.1530948   0.09937656 -68.27 0.0007021563    1.827    0.453
       324  -9.3440     83.5385     64.7395   4.0600288816e+01   5.3796283880e+01    0.4313951    0.2759703  12.04  0.001529796    3.327    0.699
       325  -8.2787    121.3460     65.6817   3.0440538413e+01   4.5030638664e+01    0.1525872    0.1077058 -77.01 0.0007048863    1.726    0.421
       326  -8.5057    158.7011     64.2989   2.3129159893e+01   3.6949101240e+01    0.1374173   0.09258603 -66.19 0.0002285361    1.577    0.366
       327  -9.0167     95.4007     63.7677   3.6501631984e+01   5.1326858821e+01    0.2054894    0.1432426 -29.93 0.0009457422    1.693    0.409
       328  -8.9709     37.4589     63.7138   6.0488781632e+01   6.2778497027e+01    0.3255947    0.2276708  71.62  0.001310863    2.029    0.507
       329  -8.6645    110.0839     63.0839   3.2277327749e+01   4.8076277288e+01    0.2376368    0.1711712 -76.96  0.001034677    1.692    0.409
       330  -9.9989     18.4088     61.6036   7.1103924270e+01   6.5671490225e+01    0.3805097    0.2376969 -27.19  0.001100861    1.778    0.437
       331  -8.7293     51.3927     61.7576   5.2610222630e+01   6.0936669912e+01    0.2157753      0.13584 -39.87 0.0009438219    1.725    0.420
       332  -8.3367    122.3446     61.3206   2.8860568613e+01   4.5539483944e+01    0.1427246    0.1129182  22.56 0.0007049743    1.728    0.421
       333  -9.0433    100.2976     59.9524   3.3790113560e+01   5.0897528473e+01    0.2435005    0.1000317 -56.88 0.0004365763    4.197    0.762
       334  -9.4264     73.3507     59.2312   4.2238056261e+01   5.7099373139e+01    0.3817331    0.2450928 -65.43  0.001128774    2.092    0.522
       335  -8.4904    164.5256     59.5110   2.1017615927e+01   3.6427123411e+01    0.1328089    0.1136307 -60.63 0.0001089747    1.022    0.022
       336  -8.6005    111.0010     58.7659   3.0627307177e+01   4.8608555330e+01    0.2324681    0.1617829  30.56 0.0009518574    1.959    0.489
       337  -9.2630     39.0036     57.6673   5.7512399164e+01   6.3954570709e+01    0.2530848    0.1999399 -34.88  0.001075105    1.328    0.247
       338 -10.9130      7.3613     54.7441   7.6646154299e+01   6.8344727706e+01     0.932339    0.2237854 -63.65  0.003087782    3.374    0.704
       339  -9.6025      1.8939     56.3305   8.0844386212e+01   6.8278461701e+01    0.3314082    0.2341958  63.66  0.001563759    1.677    0.404
       340  -8.9256     44.0091     55.0377   5.3804273106e+01   6.3718011016e+01    0.3346547    0.2118658 -72.32  0.001370725    2.336    0.572
       341 -11.4067     45.5456     48.9144   5.0508621202e+01   6.4750278125e+01    0.3412124    0.2871742 -39.07 0.0004093522    1.243    0.196
       342  -8.2100    119.3110     55.6612   2.7709798141e+01   4.7172198400e+01     0.151081    0.1040397 -71.58 0.0007045216    1.690    0.408
       343  -9.2784     62.9647     54.5565   4.4586666918e+01   6.0214599783e+01    0.2675986    0.2073449 -66.77 0.0006404074    1.538    0.350
       344  -9.4727     25.9486     54.6004   6.4136630432e+01   6.6532983456e+01    0.2992677    0.1832068   0.75   0.00128616    2.086    0.521
       345  -8.3850    100.4998     54.4569   3.1813848802e+01   5.1804850956e+01     0.144716    0.1365643  74.88 8.982069e-05    1.028    0.027
       346  -8.6812     54.3894     54.1628   4.8265830317e+01   6.2007669824e+01    0.2866796    0.1388127 -55.96  0.001088371    2.512    0.602
       347  -9.6043     53.8459     47.0191   4.5549396764e+01   6.3546964067e+01    0.5062465    0.2027229 -33.46  0.001576903    4.032    0.752
       348  -9.5232     72.7512     53.2732   4.0170222306e+01   5.8377561697e+01    0.3244443    0.2183524 -10.94  0.001331668    2.510    0.602
       349  -9.0088     20.5714     52.8273   6.7014451148e+01   6.7601355702e+01    0.1923515    0.1389216 -81.66 0.0009381507    1.725    0.420
       350  -9.3728     31.1794     51.1347   5.9608285858e+01   6.6624752784e+01       0.3177    0.2175454  75.78  0.001120972    2.340    0.573
       351 -10.3673    247.2391    248.2663   4.4179902526e+01  -2.1327383058e+00    0.2535113    0.1662866   4.96  0.001093321    1.314    0.239
       352  -8.8376     81.9803     46.5623   3.4277269720e+01   5.7484347444e+01    0.2257114    0.1899743 -44.39 0.0006089596    1.252    0.201
       353  -9.0113     64.2358     46.8471   4.0883822978e+01   6.1422492181e+01    0.2946083    0.1854692  25.82  0.001243198    2.167    0.539
       354  -8.6958    130.4395     45.8128   2.2379234626e+01   4.6044828264e+01    0.1809174     0.134908 -19.37  0.000563098    1.685    0.407
       355  -8.5953      1.4822     45.9969   7.8782674837e+01   7.0899903717e+01    0.1918423    0.1286033 -66.00 0.0003248567    1.466    0.318
       356  -9.1571    150.2442     44.4865   1.8881244238e+01   4.1657240811e+01    0.2849417     0.121443 -44.43  0.001014075    2.099    0.524
       357  -9.5054     16.3064     42.4205   6.6282938052e+01   7.0516754282e+01     0.602871    0.1838978 -50.09  0.002164823    2.973    0.664
       358  -9.9786      5.0484     40.8507   7.4486881744e+01   7.1917471542e+01     0.507531    0.2556998  87.80  0.001928078    3.394    0.705
       359  -9.1360     57.9987     42.0203   4.1434902630e+01   6.3630281779e+01    0.2279647    0.1792036 -87.49  0.001132246    1.698    0.411
       360  -9.0322    113.9914     41.1094   2.3931550292e+01   5.0651138017e+01    0.2054108    0.1901746  72.55 0.0003302325    1.089    0.082
       361  -8.7905     69.0434     41.0496   3.6482947761e+01   6.1381911872e+01    0.2291845     0.174342 -85.20 0.0009366671    1.710    0.415
       362  -9.1582    123.6827     40.0827   2.1723244464e+01   4.8456478804e+01    0.2468672    0.1839444  59.45 0.0004181223    1.337    0.252
       363  -8.6521     84.0515     39.9238   3.0934690150e+01   5.8071286315e+01    0.2276583    0.1698738  27.74  0.001120379    1.686    0.407
       364  -8.4848     37.0690     40.5570   5.1548608806e+01   6.7953393656e+01    0.1952885    0.1146249  57.17 0.0008047277    2.350    0.574
       365  -8.8705    106.0139     37.0193   2.4148190683e+01   5.3169741616e+01    0.2186173    0.1650955  33.77 0.0006326164    1.655    0.396
       366  -9.2528     22.3310     46.8972   6.3708476237e+01   6.8783585025e+01    0.3507026    0.2191099  -0.54  0.001577766    1.977    0.494
       367  -8.8487     26.1139     36.2983   5.6582508454e+01   7.0581702767e+01    0.2295901    0.1860961 -73.84  0.001241946    1.585    0.369
       368  -8.9280     70.7647     35.4112   3.3341265038e+01   6.1900476559e+01    0.2143289    0.1212259  45.32  0.000951204    1.718    0.418
       369  -8.6303     38.2049     35.5310   4.8463500249e+01   6.8732121350e+01     0.196399     0.127056  27.10 0.0004831493    1.632    0.387
       370  -8.7609    111.4343     34.2048   2.1996474869e+01   5.2224634142e+01    0.1998012    0.1179652 -47.76 0.0008180056    1.701    0.412
       371  -9.7980    196.0685    248.3633   5.2090111235e+01   1.7576957091e+00    0.2244582    0.1470217  11.93  0.001014927    1.282    0.220
       372  -8.4171     60.7473     32.6042   3.5850610510e+01   6.4625000567e+01    0.2018692    0.1285058  62.19 0.0006978849    1.645    0.392
       373  -9.2378     12.7797     30.7669   6.4169503140e+01   7.3494042276e+01    0.2559136    0.1934304 -71.44  0.001012967    1.636    0.389
       374  -8.3042    127.7265     30.6539   1.7924821062e+01   4.8714187576e+01    0.1277409    0.1033732  30.87 0.0004340761    1.624    0.384
       375  -9.7359      6.3834     33.6978   7.0875000333e+01   7.3477117458e+01    0.2977022    0.2139434 -13.58  0.001048916    1.374    0.272
       376  -9.4192     27.8107     28.0689   5.1207434213e+01   7.1936218362e+01    0.4099753    0.1628297 -34.80  0.001436258    3.576    0.720
       377 -11.3718    164.9872    232.6413   5.5633211390e+01   6.7792307081e+00     0.838246    0.3594202  31.37  0.004449088    2.230    0.551
       378  -8.4455     81.5245     27.4669   2.6348464615e+01   6.0475252994e+01    0.1415931    0.1261581  83.83   0.00080782    1.085    0.079
       379  -8.1566     91.6902     26.3469   2.3229496312e+01   5.8117332765e+01     0.146982   0.09943689 -69.48 0.0007044916    1.707    0.414
       380  -9.6451     44.3754     25.2015   3.9559054115e+01   6.9326292630e+01    0.2512446    0.2007347  35.32 0.0003574296    1.180    0.153
       381  -8.7718    110.5079     24.4278   1.8595586680e+01   5.3677162291e+01      0.19865    0.1379699 -11.27 0.0005274556    1.947    0.486
       382  -8.8667    221.9914     32.2321   9.1223075173e+00   2.8835011296e+01    0.1264933   0.08499514  85.84 0.0006923422    1.618    0.382
       383  -9.2043     66.9737     23.6929   2.9113612177e+01   6.4484617913e+01    0.1955029    0.1703117  61.51 0.0003886677    1.042    0.040
       384  -8.7480     63.7682     20.9771   2.8860663234e+01   6.5600628598e+01    0.3128332    0.1767428  82.71  0.001234922    2.806    0.644
       385  -8.7311      1.9460     27.7610   7.2578971687e+01   7.5167494738e+01    0.2613034     0.152483   8.07 0.0007199763    1.667    0.400
       386  -8.4468     58.6455     22.1766   3.1407631302e+01   6.6637315513e+01    0.1754295    0.1323854 -14.65 0.0002033232    1.618    0.382
       387  -9.9762     13.0503     21.0107   5.8897765636e+01   7.5461542519e+01    0.2940665    0.2261333  26.90 0.0007883724    1.215    0.177
       388  -8.6031     40.8732     21.1799   3.9119159645e+01   7.0671422999e+01    0.1849515    0.1464199  24.56            0    1.306    0.234
       389  -9.4937    189.0422     20.1783   8.5724667709e+00   3.6277964284e+01     0.162829    0.1565534 -77.09  0.001226382    1.307    0.235
       390  -8.4548     73.4934     18.9952   2.4724667759e+01   6.3505748157e+01     0.199432    0.1001525 -53.80 0.0008106297    2.591    0.614
       391  -9.5837     29.9370     18.7806   4.4271129011e+01   7.3184700482e+01    0.2623891    0.1802535  55.65  0.001360732    1.649    0.394
       392  -8.7607     84.7327     21.1768   2.2701445913e+01   6.0475823344e+01    0.2388672    0.1724783  78.74 0.0006529156    1.345    0.257
       393  -8.7451     50.5898     15.3101   3.0894595745e+01   6.9382511812e+01    0.2411927    0.1388351  40.51 0.0005712475    1.730    0.422
       394  -8.6369    148.1478    248.7552   6.1018307184e+01   6.0222896785e+00    0.1727454    0.1109091  50.44 0.0009529181    2.855    0.650
       395  -8.4295     80.5042     12.4645   1.9743935840e+01   6.2495237245e+01    0.1368466    0.1194713  82.39 2.252902e-05    1.055    0.052
       396  -8.4041     31.5415     11.5123   3.8397661584e+01   7.3970106623e+01    0.1328414    0.1170634  34.59 9.805526e-05    1.006    0.006
       397  -9.9194    107.2385    246.9920   6.9490895704e+01   1.0324183278e+01    0.3215499    0.2492515  89.64  0.001374673    2.083    0.520
       398 -11.0494     73.4870    244.6904   7.7046466784e+01   1.4073143517e+01    0.2783971    0.2176095  13.47 0.0005727042    1.107    0.097
       399  -9.7348    250.4392    241.6974   4.2865636630e+01  -1.6367464261e+00    0.2285264    0.1041788 -35.27  0.001105874    1.835    0.455
       400  -9.2023    249.0079    237.5178   4.2497905428e+01  -1.0726840010e+00    0.1888905    0.1175666 -17.80  0.001384975    1.074    0.069
