#   1 NUMBER                 Running object number                                     
#   2 MAG_AUTO               Kron-like elliptical aperture magnitude                    [mag]
#   3 X_IMAGE                Object position along x                                    [pixel]
#   4 Y_IMAGE                Object position along y                                    [pixel]
#   5 X_WORLD                Barycenter position along world x axis                     [deg]
#   6 Y_WORLD                Barycenter position along world y axis                     [deg]
#   7 A_WORLD                Profile RMS along major axis (world units)                 [deg]
#   8 B_WORLD                Profile RMS along minor axis (world units)                 [deg]
#   9 THETA_WORLD            Position angle (CCW/world-x)                               [deg]
#  10 FWHM_WORLD             FWHM assuming a gaussian core                              [deg]
#  11 ELONGATION             A_IMAGE/B_IMAGE                                           
#  12 ELLIPTICITY            1 - B_IMAGE/A_IMAGE                                       
         1 -16.4788     72.4408    192.8591   1.3354353081e+02   2.6162635562e+01     2.762772     1.871808  63.91   0.01453577    1.357    0.263
         2 -16.6040    139.5930    111.3195   1.0205436960e+02   3.2440390744e+01     4.608746     3.096552 -69.01   0.01908892    2.057    0.514
         3 -13.0068    249.6413     52.9823   6.7189894306e+01   1.6802821067e+01     1.619355    0.2103929 -32.64  0.004197859    5.999    0.833
         4 -15.5284    135.3468     74.2982   9.2457676202e+01   4.0797496799e+01     2.803791      1.82614  28.31   0.01193503    1.928    0.481
         5 -14.4530     12.4397      6.6778   1.1022998019e+02   7.2490851320e+01     1.367422    0.6748911 -26.13  0.007952787    1.816    0.449
         6 -13.9287      3.4327      5.5222   1.1467402982e+02   7.3404031928e+01     1.714078    0.3227091 -48.09  0.006640573    4.305    0.768
         7 -13.6920    182.2344     13.0239   6.4563613657e+01   3.7778136621e+01     1.233541    0.4904318  67.09  0.005070103    2.250    0.556
         8 -12.9040    160.0503      6.3946   6.5438431836e+01   4.4010339427e+01     0.709323    0.5245249 -71.12  0.003877811    1.476    0.323
         9 -10.7917     61.3465    248.6565   1.4074180866e+02   1.6995869508e+01    0.1841885   0.09495376  63.98  0.001118159    1.692    0.409
        10 -11.0498    122.2293    209.8312   1.2530312963e+02   1.5129781323e+01    0.4289373    0.1845951 -45.07  0.001839554    3.002    0.667
        11 -11.5797    205.2114    184.3581   1.0430632509e+02   4.8019554032e+00    0.3568476    0.2942882 -20.49  0.002100173    1.209    0.173
        12 -12.3870     42.0151    187.2636   1.3938065454e+02   3.1199274859e+01     0.256526    0.2090981  71.17  0.001388878    1.081    0.075
        13 -11.4592     38.4960    186.4726   1.4004237639e+02   3.1765018472e+01    0.2351378    0.1906546  88.25   0.00133937    1.076    0.071
        14 -11.5470      9.7357    186.4763   1.4586832351e+02   3.4642105339e+01    0.3570296     0.231183  67.43   0.00244015    1.272    0.214
        15 -10.8017    129.9910    184.5773   1.1986126574e+02   1.8709470929e+01     0.423056    0.1867912  47.76  0.001748532    2.165    0.538
        16 -11.1185    131.4605    178.6704   1.1853915181e+02   1.9645820416e+01    0.3340614    0.2371573 -29.37  0.001643867    1.889    0.470
        17 -14.8733     96.1746    192.4249   1.2840608066e+02   2.2760531470e+01     1.452146    0.8510877 -74.89  0.007268853    1.937    0.484
        18 -11.7778    102.7165    177.5733   1.2482384018e+02   2.4857683189e+01    0.2940719    0.2268357 -10.32  0.001493922    2.102    0.524
        19 -12.6827     96.6407    173.8194   1.2563673544e+02   2.6658708417e+01    0.4908139    0.2772256 -49.88  0.002339415    1.918    0.479
        20 -12.2960    150.4416    210.1288   1.1963830597e+02   1.0296707282e+01    0.4145478    0.3077588  43.51  0.002421231    1.178    0.151
        21 -11.4011    109.3954    173.3748   1.2263197772e+02   2.4648629509e+01    0.2822737    0.1950699  50.63  0.001069173    1.378    0.274
        22 -11.8589    106.8458    170.1042   1.2268281533e+02   2.5791864665e+01    0.3995884    0.1830133  40.98  0.001686525    2.112    0.527
        23 -11.2204     30.1732    213.9666   1.4382396177e+02   2.7049530322e+01    0.1954738    0.1371733  56.01  0.001105654    1.229    0.187
        24 -10.1450    170.7539    171.9700   1.0876427043e+02   1.3510059157e+01    0.1796187    0.1214717 -41.94 0.0006121448    1.552    0.356
        25 -10.8249    215.4547    168.7954   9.9260459509e+01   5.4386193413e+00    0.2706031    0.2013227 -56.86  0.001397782    1.820    0.450
        26 -11.6328    151.5841    167.4760   1.1201083559e+02   1.8132012877e+01    0.5159668     0.286499  52.70  0.002219492    1.919    0.479
        27 -11.9962     50.3461    168.8192   1.3564299228e+02   3.4276299099e+01    0.2307034    0.1728825 -47.61 0.0008888577    1.632    0.387
        28 -11.2478     38.7606    198.4512   1.4102346127e+02   2.9217475961e+01    0.2180613    0.1393656 -81.59 0.0009644253    1.372    0.271
        29 -11.9264     90.6944    163.7373   1.2545533647e+02   2.9846362484e+01    0.3348346    0.1712019  52.15  0.001342914    2.030    0.507
        30 -10.5067    189.3100    197.6420   1.0984782525e+02   5.5235323961e+00    0.1273332    0.1065255  81.61 0.0007042405    1.736    0.424
        31 -11.9808     59.7409    159.4989   1.3227136121e+02   3.5235234748e+01    0.3645533    0.2338831 -86.90  0.001935677    1.567    0.362
        32 -10.9376     51.1544    156.2805   1.3391948572e+02   3.7037202662e+01    0.2523556     0.144573  80.32  0.001009197    2.013    0.503
        33 -13.3682    126.9062    152.0133   1.1461331097e+02   2.6159840918e+01    0.8420942    0.4802208 -26.28  0.002998968    3.316    0.698
        34 -12.0066     18.4781    153.6797   1.4140023985e+02   4.1002789116e+01    0.4510059     0.216695 -81.31  0.002376749    1.786    0.440
        35 -14.2712    105.5872    148.5141   1.1913904337e+02   3.0837611387e+01     1.228321    0.6236938  27.38  0.004641031    2.885    0.653
        36 -14.7063    104.1718    142.4367   1.1830851223e+02   3.2474642721e+01     1.086994    0.9281321 -69.01  0.005965306    1.139    0.122
        37 -11.9733     82.9908    141.2041   1.2353767181e+02   3.6238135858e+01    0.3532994    0.2398451 -30.63  0.001662563    2.081    0.519
        38 -13.1779    117.7616    152.9169   1.1699584708e+02   2.7667813672e+01    0.6237759     0.395625 -78.78  0.002647127    2.232    0.552
        39 -11.2040    118.6085    142.7741   1.1474182269e+02   2.9779612009e+01    0.2620095    0.1867133 -62.71   0.00100215    1.465    0.317
        40 -10.0348     53.6831    141.7035   1.3126085864e+02   4.0132507824e+01    0.1272435   0.09570754 -39.76  0.000545653    1.609    0.378
        41 -10.6972     73.8291    244.2863   1.3824671778e+02   1.6122456721e+01    0.1946393    0.1082978  56.89  0.001203615    1.451    0.311
        42 -13.1263    189.4454    115.1180   9.1960129703e+01   2.0408694220e+01     1.048122     0.668403  21.62  0.004200432    2.314    0.568
        43 -11.6112    140.0945    189.3402   1.1846825709e+02   1.5955817499e+01    0.3924087    0.2644222 -47.30  0.002040252    1.625    0.385
        44 -10.1715     64.3094    115.6661   1.2378502737e+02   4.4949136035e+01    0.1404363    0.1016854  80.85 0.0004028037    1.675    0.403
        45 -12.9376     40.9650    110.5198   1.2969849595e+02   4.8923190925e+01    0.3628054     0.248753  -2.11  0.001935232    2.149    0.535
        46 -12.0008    191.3834    108.4463   8.9877144466e+01   2.1201953859e+01    0.5519939    0.4523678 -81.39  0.002711674    1.515    0.340
        47 -11.3404    242.1095    108.8595   8.1311506285e+01   1.0017820815e+01    0.3219147    0.2198198 -40.23  0.001665611    1.332    0.249
        48 -11.1557    116.4635    137.8404   1.1423520155e+02   3.1294030567e+01    0.3549364    0.2567913  -3.91  0.001535904    2.272    0.560
        49 -12.5448     18.9470     94.8978   1.3374803685e+02   5.4506114048e+01     1.079965    0.3941548 -74.89  0.004329417    2.994    0.666
        50 -12.4410     24.4849     91.3184   1.3131891979e+02   5.4894340771e+01    0.5923106    0.2179756 -46.23   0.00259498    2.508    0.601
        51 -11.8347    210.0905     94.1623   8.2796528374e+01   1.9406324515e+01    0.5353788    0.2903318 -50.00  0.002202876    1.995    0.499
        52 -11.8331    197.1737     94.0360   8.5026776450e+01   2.2441017346e+01    0.5411783    0.3769507 -54.71  0.002495885    1.566    0.362
        53 -10.3729     97.7498    121.4113   1.1553838159e+02   3.8451838669e+01    0.1948648    0.1436213  26.61 0.0009426146    1.609    0.379
        54 -10.7161     56.5471     95.4696   1.2177609083e+02   5.0658214468e+01     0.135781    0.1188403 -56.57 0.0001151378    1.016    0.015
        55 -12.3963    151.7564     91.8849   9.3787213378e+01   3.3641774637e+01    0.4715618    0.3759356 -59.74  0.002261693    1.383    0.277
        56 -13.0966    104.0352     86.1215   1.0455384733e+02   4.5150096220e+01    0.6402155    0.5598674  22.69  0.003325672    1.224    0.183
        57 -12.0740     50.3779     84.4831   1.2116309355e+02   5.3893031936e+01    0.4731462    0.3304753 -40.23  0.001891893    1.342    0.255
        58 -10.9081    186.0097     81.3123   8.3633497582e+01   2.7329838722e+01    0.2789792    0.1612397 -35.18  0.001173369    1.694    0.410
        59 -13.0885     19.5857     69.7063   1.2853534185e+02   6.0093528410e+01     1.497444    0.5435797 -41.02  0.006580752    2.675    0.626
        60 -10.9266    210.6991     78.0288   7.8512194013e+01   2.1933822282e+01    0.2137659    0.1899071 -37.54 0.0008492635    1.078    0.072
        61 -10.5969    233.1545     79.1080   7.5466793802e+01   1.6613664221e+01      0.21631    0.1954803   0.48  0.001023355    1.258    0.205
        62 -12.6770    104.7660     75.5188   1.0109761142e+02   4.7167145943e+01    0.5964832      0.45719  29.50  0.003007582    1.407    0.289
        63 -13.0527    100.8102     69.8793   1.0045333937e+02   4.9049315576e+01      1.19424    0.7938162  21.14  0.005404069    1.928    0.481
        64 -12.8352    176.5710     71.7173   8.2687965397e+01   3.1275859169e+01    0.5748981    0.3601032 -66.12  0.002307332    2.240    0.553
        65 -12.9349    176.7498     64.7875   8.0636466918e+01   3.2364701757e+01    0.6870914    0.5309979  74.09  0.003074022    1.397    0.284
        66 -10.1716    201.6549     72.3301   7.8445254194e+01   2.5011974185e+01     0.158982    0.1097789 -67.36 0.0007050363    1.755    0.430
        67 -11.1787    165.7125     72.0489   8.4925302353e+01   3.3904687263e+01    0.3490117    0.2273244  76.15   0.00145261    2.006    0.501
        68 -11.9365     81.5124    145.9758   1.2476848803e+02   3.5346608640e+01    0.3526309    0.2445854 -84.64  0.001340523    1.586    0.369
        69 -12.7330    122.7413    237.7719   1.2870572441e+02   1.0144152300e+01    0.4283058    0.3786619 -38.09  0.003025123    1.491    0.329
        70 -10.4018    216.4724     72.9919   7.6317441788e+01   2.1372325049e+01    0.2278358     0.135587 -34.29  0.001031413    1.590    0.371
        71 -10.2776    231.4609     63.4957   7.1841389570e+01   1.9342104780e+01    0.1398801    0.1258536 -52.51 0.0001471122    1.005    0.005
        72 -14.0082    182.8381    112.3316   9.2577735056e+01   2.2443523698e+01     1.260114    0.8525957 -12.00   0.00527667    2.050    0.512
        73 -10.5074    213.8425     57.1647   7.2571734478e+01   2.4384390367e+01    0.1971408    0.1741789  16.44  0.001089271    1.361    0.265
        74 -10.6126    205.8503     50.8717   7.2010849059e+01   2.7224343171e+01    0.2127398    0.2032302  16.59  0.001069668    1.192    0.161
        75 -11.4072    220.6948     48.7699   6.9497627226e+01   2.3939048308e+01    0.4403537    0.1436982 -23.16   0.00123055    5.120    0.805
        76 -11.9269     53.7384     44.0706   1.0743909857e+02   6.1721397147e+01     0.331384    0.2358934 -13.11  0.001888446    1.457    0.313
        77 -13.0070     13.4103    228.3647   1.4761042889e+02   2.6059198694e+01    0.6337522    0.3670075  55.78  0.004524815    1.347    0.258
        78 -11.8646     75.8856     45.3054   9.9769316067e+01   5.8093575132e+01    0.2397154    0.1763566 -42.17  0.001063116    1.382    0.276
        79 -11.5460    124.5037     41.8847   8.4259646591e+01   4.8667667943e+01     0.474308    0.2975313  62.14  0.002185947    1.731    0.422
        80 -10.4714    113.1324     42.3146   8.7295055325e+01   5.1190317496e+01    0.2536365    0.1955252  -8.88  0.001243314    1.391    0.281
        81 -11.9374     67.1108     39.3137   1.0054219739e+02   6.0551267354e+01    0.3070288    0.1961646 -10.99  0.001534435    1.861    0.463
        82 -11.6198     49.4585     48.3681   1.1068623110e+02   6.1496770737e+01    0.2859664     0.202065 -13.06  0.001625409    1.512    0.339
        83 -11.2356    153.7025     34.4368   7.5503758799e+01   4.2565309460e+01       0.2838    0.1407921  67.30  0.001143447    2.118    0.528
        84 -10.2142     35.3089    231.3325   1.4404493308e+02   2.3190115918e+01   0.09247877   0.08143454 -59.38  0.000704172    1.670    0.401
        85 -10.7374    206.6559    229.6761   1.1201308973e+02  -2.1180755317e+00    0.1275907   0.08186793  11.90 0.0007050471    1.736    0.424
        86 -12.1563     55.4088    226.5996   1.4012930946e+02   2.1682137586e+01    0.4201381    0.2209158  55.74  0.002515217    1.559    0.359
