#   1 NUMBER                 Running object number                                     
#   2 MAG_AUTO               Kron-like elliptical aperture magnitude                    [mag]
#   3 X_IMAGE                Object position along x                                    [pixel]
#   4 Y_IMAGE                Object position along y                                    [pixel]
#   5 X_WORLD                Barycenter position along world x axis                     [deg]
#   6 Y_WORLD                Barycenter position along world y axis                     [deg]
#   7 A_WORLD                Profile RMS along major axis (world units)                 [deg]
#   8 B_WORLD                Profile RMS along minor axis (world units)                 [deg]
#   9 THETA_WORLD            Position angle (CCW/world-x)                               [deg]
#  10 FWHM_WORLD             FWHM assuming a gaussian core                              [deg]
#  11 ELONGATION             A_IMAGE/B_IMAGE                                           
#  12 ELLIPTICITY            1 - B_IMAGE/A_IMAGE                                       
         1 -10.4151     95.0587     52.3964   9.3834309772e+01   5.3023577888e+01    0.2546501    0.2156165 -19.82 0.0006089929    1.159    0.137
         2 -12.7098    126.9190    187.7772   1.1917084561e+02   1.7842393589e+01    0.7089529    0.5609378 -74.75  0.003671844    1.337    0.252
         3 -10.0143    133.0000    172.9744   1.1500795579e+02   2.0024802510e+01    0.2488735   0.08556743 -51.77 0.0005309112    2.950    0.661
         4 -10.8099     94.3280    168.6418   1.2355657158e+02   2.8133096571e+01    0.2395653    0.1643342  76.52  0.001116263    1.720    0.419
         5 -10.3199     99.4957    162.4839   1.2117115346e+02   2.8727029213e+01    0.1474159     0.136529 -85.25 0.0008104201    1.014    0.014
         6 -11.2431    117.0660    156.8860   1.1568143602e+02   2.6867028616e+01     0.287467    0.2190099  37.99  0.001395198    1.387    0.279
         7 -10.2321    136.5980    152.7882   1.0997899416e+02   2.3949200132e+01    0.2273654    0.1462494 -61.66  0.000955585    1.708    0.415
         8 -11.7846    114.3278    147.6624   1.1445411701e+02   2.9576142269e+01    0.4444186    0.2419718  56.82  0.001724203    2.227    0.551
         9 -12.8132     98.3456    148.3082   1.1872598737e+02   3.2332808400e+01    0.7266229     0.394026  62.22  0.002740641    2.648    0.622
        10 -11.3584     79.6191    149.5750   1.2386720203e+02   3.5088679099e+01    0.3105861    0.2302667 -19.72  0.001497063    1.989    0.497
        11 -10.8900     79.2852    141.3423   1.2239504812e+02   3.7128284340e+01    0.4984763    0.3057206 -13.95   0.00177371    3.827    0.739
        12 -12.9091    132.3134    134.4478   1.0687732508e+02   2.9072835802e+01    0.8223731    0.3910617  56.39   0.00281338    2.716    0.632
        13 -12.4058    123.1303    133.8362   1.0908558873e+02   3.1102175670e+01    0.6463464    0.2758987 -44.76  0.002290453    2.373    0.579
        14 -10.8606    180.4341    141.7582   9.7306658683e+01   1.6881409418e+01    0.3164018    0.1479977 -47.63  0.001155705    2.155    0.536
        15 -13.1386    106.8030    130.7151   1.1267864390e+02   3.5001464875e+01    0.6334373    0.5050356  31.59  0.003168859    1.386    0.278
        16 -10.5828     60.2371    130.5055   1.2552842386e+02   4.2412292104e+01    0.3325234    0.1912308  82.68  0.001298025    3.070    0.674
        17 -10.8588     83.6588    128.3307   1.1851402325e+02   3.9560990604e+01    0.2301642     0.170877  80.35  0.001110596    1.706    0.414
        18 -12.4969     92.9315    123.7411   1.1488394373e+02   3.9113913951e+01    0.4121251    0.3919362  44.94  0.002338487    1.118    0.105
        19 -11.6557    180.3329    121.5468   9.2463606731e+01   2.1137028515e+01    0.5271739    0.2025923 -42.58  0.001766715    2.554    0.608
        20  -9.5877    199.3303    119.3311   8.8069803911e+01   1.7193750241e+01     0.155067    0.1232225   6.70 0.0007051883    1.719    0.418
        21 -12.5727    161.6278    118.7301   9.5886123284e+01   2.6066754037e+01    0.5586551    0.4252608 -78.30  0.002498848    1.647    0.393
        22  -9.6752    193.3134    120.3518   8.9499153411e+01   1.8373961220e+01    0.1570041      0.12442   3.08 0.0007045864    1.728    0.421
        23 -11.2785    142.0377    114.5482   9.9485925572e+01   3.1417467882e+01    0.3630975     0.197211 -60.67  0.001296198    2.482    0.597
        24 -12.5206    102.1821    112.6225   1.0958215611e+02   4.0026185264e+01    0.5070283    0.3852345  64.16  0.002458408    1.583    0.368
        25 -10.2342     75.5154    114.4840   1.1774750238e+02   4.4052762202e+01    0.1423221    0.1290778 -48.13 0.0002370138    1.026    0.026
        26  -9.5506     65.3171    114.3324   1.2073015125e+02   4.5538158000e+01    0.1439033   0.09944692 -29.63 0.0007047458    1.689    0.408
        27 -13.2461    133.0070    109.9925   1.0057002797e+02   3.4388328450e+01    0.9347263    0.4736616  33.93  0.003362405    2.523    0.604
        28 -10.9206     71.2909    104.9845   1.1675753085e+02   4.6829983524e+01    0.2313857    0.1854271 -29.27  0.001272014    1.294    0.227
        29 -12.6677    118.6538    100.1280   1.0169898920e+02   3.9533198957e+01    0.6242317    0.3736462  27.91  0.002517306    2.185    0.542
        30  -9.5179     58.6804    112.6794   1.2234691639e+02   4.6787299932e+01    0.1408163   0.09619336 -30.94 0.0004306143    1.667    0.400
        31 -11.5849    185.5114    102.5061   8.6610620943e+01   2.3730512205e+01    0.3220216    0.2406087 -77.55  0.001464615    1.628    0.386
        32 -10.9666    165.6893     91.5993   8.7857405833e+01   3.0585247082e+01    0.3390632    0.2164876  22.29  0.001273848    2.625    0.619
        33 -10.2353    133.0000     99.9605   9.7867603652e+01   3.6507373677e+01    0.2571239     0.086976 -43.22 0.0008028805    2.946    0.661
        34 -11.5270    141.8179    101.6702   9.6118633244e+01   3.4185772082e+01    0.3173267    0.2491773 -33.24  0.001516168    1.344    0.256
        35  -9.8327     83.6809     96.3357   1.1075994226e+02   4.6825915776e+01     0.140988     0.113107  88.29 0.0005364763    1.702    0.412
        36 -12.3189    184.8336     87.6207   8.2911064915e+01   2.6692286307e+01    0.5620328    0.3493666 -75.34  0.002177828    2.448    0.592
        37 -10.5144     97.8206     92.0270   1.0533294925e+02   4.5287504390e+01    0.2513854    0.1652917 -21.13  0.001102903    1.984    0.496
        38 -10.8461    162.8389     84.8467   8.6632310816e+01   3.2534048107e+01    0.2214763    0.1839174 -78.98 0.0009810013    1.345    0.257
        39  -9.6528    109.6720     82.3319   9.9099394604e+01   4.4953022531e+01    0.1464804     0.117911 -85.66 0.0007051604    1.715    0.417
        40  -9.5473    125.6618     80.6706   9.4265055252e+01   4.1918600404e+01    0.1550768    0.1166636   9.37 0.0007051898    1.735    0.424
        41 -11.8091    184.2316     77.6786   8.0427446898e+01   2.8604024737e+01    0.4757454    0.2226711  58.29  0.001568239    2.113    0.527
        42 -10.2312    160.4953     74.4909   8.4256514302e+01   3.4948805840e+01    0.1495986    0.1430022  76.67 -0.0001288613    1.008    0.008
        43 -12.2663     59.5267     69.1425   1.1082838968e+02   5.5904264990e+01      0.57611      0.28942 -30.78  0.002606973    2.209    0.547
        44 -10.6662    173.2980     70.9927   8.0706091427e+01   3.2421084293e+01    0.3240607    0.1920232  87.77  0.001195496    2.771    0.639
        45 -10.5757    168.4974     57.9753   7.8043085139e+01   3.5685128185e+01    0.2214139    0.1435881 -36.82  0.001043183    1.621    0.383
