#   1 NUMBER                 Running object number                                     
#   2 MAG_AUTO               Kron-like elliptical aperture magnitude                    [mag]
#   3 X_IMAGE                Object position along x                                    [pixel]
#   4 Y_IMAGE                Object position along y                                    [pixel]
#   5 X_WORLD                Barycenter position along world x axis                     [deg]
#   6 Y_WORLD                Barycenter position along world y axis                     [deg]
#   7 A_WORLD                Profile RMS along major axis (world units)                 [deg]
#   8 B_WORLD                Profile RMS along minor axis (world units)                 [deg]
#   9 THETA_WORLD            Position angle (CCW/world-x)                               [deg]
#  10 FWHM_WORLD             FWHM assuming a gaussian core                              [deg]
#  11 ELONGATION             A_IMAGE/B_IMAGE                                           
#  12 ELLIPTICITY            1 - B_IMAGE/A_IMAGE                                       
         1 -11.7756     76.1481     21.4221   8.6377521244e+01   6.0632658550e+01     0.501352     0.278969  42.17  0.002215479    1.568    0.362
         2 -10.9536     13.6512     16.0042   1.0913143207e+02   6.9682874507e+01    0.3557575    0.1636294  25.02  0.002064801    2.144    0.534
         3 -11.4689     40.2706     18.7662   9.8402428293e+01   6.6468587823e+01    0.4791583    0.3450347  12.94  0.002412536    1.154    0.133
         4 -10.9818     22.4724      9.1963   1.0207767702e+02   6.9709056990e+01    0.3657515     0.185224  11.28  0.002132348    2.051    0.512
         5 -11.7746     30.4048      7.5520   9.7767376168e+01   6.9005597674e+01     0.325027    0.2320472  17.48  0.001218887    1.198    0.166
         6 -11.5906     35.0123     12.7540   9.8059407958e+01   6.7851123520e+01    0.3048412    0.2645088 -18.71  0.001593185    1.466    0.318
         7 -10.3099     26.4941     16.3893   1.0334227028e+02   6.8388278264e+01    0.2398334    0.1987084  10.64  0.001645036    1.324    0.244
         8 -10.7280    100.2407     18.9372   7.8543611153e+01   5.6232906630e+01    0.3352056    0.2288075 -50.83  0.001826592    2.081    0.519
         9 -10.2212     57.7476     17.7247   9.1177325412e+01   6.4114333274e+01    0.3783802    0.1603335 -45.24  0.001508886    4.644    0.785
        10 -11.5132     92.2885      9.0337   7.7021927502e+01   5.8773183892e+01    0.3667842    0.3311544  15.03  0.001744714    1.166    0.143
        11 -10.7685     87.7976     12.1277   7.9373603895e+01   5.9385987361e+01    0.3544024    0.2551056  63.74   0.00159895    1.634    0.388
        12 -11.4571    156.2034     13.5946   6.5642211411e+01   4.4055546681e+01    0.4458688    0.2620441  43.06  0.002308599    1.794    0.442
        13 -10.5549    119.3230     12.1301   7.1805152220e+01   5.2762930639e+01    0.2566866     0.164123  65.67 0.0002636374    1.474    0.321
        14 -11.7060    150.8998      7.4855   6.4767288447e+01   4.5881655679e+01    0.3995902    0.2863691  30.82   0.00194502    1.657    0.397
        15 -12.2706     56.4615      5.6451   8.6582948381e+01   6.5551647561e+01    0.5307975    0.3542369   3.05  0.003007848    1.393    0.282
        16  -9.8565     50.1286      1.9133   8.7252845615e+01   6.6880414475e+01    0.2783964    0.1249188  40.43  0.001558967    1.882    0.469
        17 -10.1166     10.2009      1.5899   1.0455666169e+02   7.1818096353e+01    0.1559131    0.1162519  -8.83 0.0007378729    1.143    0.125
        18 -11.5968     10.9959      6.7579   1.0649277898e+02   7.1121393900e+01    0.4752194    0.3386904  37.37  0.003387241    2.211    0.548
        19 -10.5960      2.9537      2.8036   1.0880942199e+02   7.2283846327e+01    0.2004566    0.1230624   6.60 0.0008278147    1.380    0.275
        20 -11.4300      4.4401      9.8081   1.1108089871e+02   7.1263836039e+01    0.2762403    0.1767774  17.13  0.000589876    1.548    0.354
        21 -10.8535      2.4939      6.4594   1.1064957186e+02   7.1852075444e+01    0.1830357    0.1324715   0.35 0.0006025776    1.203    0.168
        22 -10.8065    210.0668      7.5123   5.7586536142e+01   3.1911337308e+01    0.1855828    0.1521937 -63.39  0.001235851    1.208    0.172
        23 -10.1509    140.5332      7.9788   6.6562996657e+01   4.8275026059e+01    0.1693094   0.09753593  22.80 0.0008087783    2.473    0.596
        24 -11.5342     71.1591      6.2035   8.1936205582e+01   6.3021313178e+01    0.8623843    0.1875927  48.28  0.003335699    3.479    0.713
        25 -11.8590     80.2361      1.9396   7.7572568660e+01   6.1706357645e+01    0.3666648    0.1658664  51.11  0.001930687    1.820    0.451
        26  -9.1076     49.3275      7.2484   8.9888707157e+01   6.6496031331e+01     0.116298   0.06866421  18.01 0.0005076922    1.543    0.352
        27 -11.7891    194.8562      5.1580   5.8600499085e+01   3.5677299468e+01    0.6311635    0.3186952  69.24  0.003311903    1.624    0.384
        28 -10.9729    159.9735      2.4456   6.2100293885e+01   4.4172631998e+01    0.2904095    0.2297646 -77.61  0.001842438    1.300    0.231
        29 -11.2645    130.2304      3.3970   6.6962485785e+01   5.1034637418e+01    0.2570154    0.1837695  57.43  0.001168965    1.129    0.115
        30 -10.5650    120.7417      4.1257   6.8938545794e+01   5.3119711087e+01    0.2682683    0.1428511  51.60 0.0003581112    1.497    0.332
        31 -10.0458     16.6971      3.3220   1.0215958080e+02   7.0994317308e+01    0.1792774    0.1057432 -29.21   0.00033148    1.545    0.353
        32 -10.6411     19.9353      2.5083   1.0024030268e+02   7.0751162426e+01    0.2153037    0.1405927   7.30 0.0006863719    1.210    0.174
        33 -10.0249    230.5262      3.4898   5.4963969225e+01   2.7758993267e+01    0.1221141    0.0923967 -82.08 0.0001142301    1.011    0.011
        34 -10.4255    172.1544      2.8460   6.0633508401e+01   4.1251620934e+01     0.187985    0.1465369 -85.74 0.0003857496    1.192    0.161
        35  -9.7993    176.2401      2.5646   6.0070949600e+01   4.0309237237e+01    0.2609999    0.1621605  62.71  0.001493523    1.359    0.264
        36  -9.5401    113.6341      3.3122   7.0085260922e+01   5.4753686953e+01    0.1205724   0.09125949 -80.87 0.0007038641    1.762    0.433
        37 -10.1964     38.6556      2.2094   9.1849279082e+01   6.8509024412e+01    0.2276959     0.121748 -15.06  0.001390485    1.816    0.449
        38  -9.7374    100.0037      1.6506   7.2468540042e+01   5.7791063859e+01     0.175364    0.1317059  50.45 0.0004662312    1.101    0.091
        39 -10.1248    235.5181      4.0665   5.4679237758e+01   2.6614614819e+01    0.1630393    0.1090127 -42.10  0.001030813    1.596    0.373
        40  -9.5494     67.6458      1.4332   8.1082487217e+01   6.4044495673e+01    0.1633464   0.08536369  39.19 0.0009368359    1.527    0.345
        41 -12.0916     40.1848      8.4945   9.4036879949e+01   6.7660891885e+01    0.4312378    0.2549691   3.74   0.00111907    1.655    0.396
        42  -9.2328     35.4420    130.5186   1.3112241599e+02   4.5359120801e+01    0.1336228    0.1091089 -56.28 0.0001010387    1.092    0.084
        43 -11.8194     17.5612    249.1270   1.4710485027e+02   2.0541779050e+01    0.2649017    0.1636592  33.07  0.001580567    2.094    0.523
        44 -12.3847      5.4329    240.8259   1.4865784676e+02   2.3456933455e+01    0.4941734    0.2145814  57.18  0.002920314    1.841    0.457
        45 -10.8627      1.6959    248.6890   1.4968923227e+02   2.2310906307e+01    0.3449191    0.1257288 -76.91  0.001911496    2.306    0.566
        46 -12.7210      8.6290    246.1155   1.4842045226e+02   2.2091594309e+01    0.4896778    0.4082476  -3.92  0.003453696    2.506    0.601
        47 -11.7960     23.1398    121.0781   1.3313549769e+02   4.8683459594e+01    0.5465387    0.3068067  79.52 0.0009324886    2.670    0.625
        48 -10.4650      3.4788    118.7573   1.3843904895e+02   5.0600902819e+01    0.1818234    0.1712748   9.14 0.0008583076    1.349    0.259
        49 -10.5968     65.6094    111.4243   1.1826679423e+02   4.6337708563e+01    0.4652927    0.1664389 -49.89  0.001750345    2.451    0.592
        50 -10.5898      4.3296    113.6965   1.3749084343e+02   5.1692500768e+01    0.2838252    0.1397856  -2.35  0.001412992    3.114    0.679
        51  -9.9153    249.4148    111.7756   7.5290121861e+01   7.7715235707e+00    0.1935921    0.1218841 -33.19 0.0009467103    1.623    0.384
        52 -11.0545     57.6248    108.3962   1.2008619766e+02   4.8081101355e+01     0.309454    0.2137089 -17.05   0.00155284    1.820    0.451
        53 -11.0730      4.2400    109.0749   1.3684150133e+02   5.2733530476e+01     0.285092    0.1800837  16.56  0.001762388    1.994    0.499
        54 -10.3414     13.0154    108.4761   1.3410670595e+02   5.2318859975e+01    0.1587995    0.1223898  11.04  0.001033696    1.599    0.375
        55  -9.6281     93.4008    104.7960   1.0802964825e+02   4.3467074792e+01     0.222075    0.1309838 -38.63 0.0009556849    1.736    0.424
        56  -9.9183     89.4677    105.4868   1.0940596582e+02   4.4000301691e+01    0.1462628    0.1381406 -30.91 0.0001045001    1.009    0.009
        57  -9.9998     40.7853    105.4094   1.2481008877e+02   5.0677289632e+01     0.163966     0.122779  -3.05 0.0004034966    1.592    0.372
        58  -9.7635    113.5295    102.5268   1.0150632174e+02   4.0125459109e+01    0.1506584     0.147017  -8.11  0.000125937    1.013    0.013
        59 -11.1310     57.1462    101.6088   1.1865788790e+02   4.9674650258e+01    0.3007625    0.2584993  35.85  0.001447814    1.303    0.233
        60 -11.9802     19.0554     95.8813   1.2994020395e+02   5.4695723070e+01    0.4984855    0.2646145 -86.05  0.002182645    3.135    0.681
        61  -9.4204    129.5102     97.5133   9.5727575743e+01   3.7782457443e+01    0.1522981    0.1498988  31.59 0.0008104582    1.002    0.002
        62  -9.3683    101.5369     96.5369   1.0334078156e+02   4.3754416872e+01    0.1482401    0.1402028 -10.65 6.886476e-05    1.036    0.035
        63 -10.7617     78.9462     94.9568   1.0989522998e+02   4.8035152270e+01    0.2123348    0.1922373 -23.98 0.0003278079    1.043    0.041
        64 -10.9674     27.2634     90.9576   1.2617950179e+02   5.5127390163e+01    0.4593995    0.3143344  48.72  0.002651992    1.945    0.486
        65 -10.2442     25.5525     85.1284   1.2547436801e+02   5.6513187205e+01    0.2004942    0.1749919 -52.98 0.0009959601    1.133    0.117
        66 -10.8060     58.6731     91.2733   1.1557466752e+02   5.1739674860e+01    0.2890837    0.2089081 -27.14 0.0002681614    1.399    0.285
        67 -10.8209      1.8528     90.0543   1.3451437770e+02   5.7021851847e+01    0.2580826    0.1270212 -63.93            0    1.601    0.375
        68 -11.4290     11.1235     87.8292   1.3101307151e+02   5.6970248817e+01    0.5681137    0.2092718 -61.96   0.00239639    2.173    0.540
        69  -9.6653    118.6563     90.3411   9.6644999120e+01   4.1577902180e+01    0.1552126    0.1217489 -88.83 0.0007047923    1.781    0.439
        70 -11.7977     76.5442     89.3147   1.0911806877e+02   4.9603604136e+01    0.2710714    0.2513674  -9.94 0.0005312649    1.040    0.038
        71 -11.3814     98.9109     89.2230   1.0205347298e+02   4.5761373078e+01    0.2870508    0.2060257  19.00  0.001365585    1.626    0.385
        72 -10.0211     43.6482     89.3311   1.2019340428e+02   5.3923839850e+01    0.2206047     0.119812  38.46 0.0009210861    2.157    0.536
        73 -10.2255     17.6315     88.4581   1.2892920369e+02   5.6404466030e+01    0.3582872    0.1926979 -24.75  0.001306987    2.154    0.536
        74 -10.8439     54.4630     84.8792   1.1531988731e+02   5.3618437179e+01     0.385479    0.2108095 -47.80  0.001900877    1.622    0.384
        75  -9.5280    124.1385     86.8205   9.4127753564e+01   4.1088947838e+01      0.21047    0.1791494   9.64 0.0006362157    1.316    0.240
        76  -9.8289     72.0690     84.4183   1.0921011305e+02   5.1298302795e+01     0.332298     0.154425 -33.01  0.001297556    2.582    0.613
        77 -10.5266     77.6732     83.3816   1.0705821381e+02   5.0638688213e+01    0.2761225    0.2092517  34.05 0.0005655115    1.363    0.266
        78  -9.2198    129.2901     83.7310   9.1862541232e+01   4.0539343715e+01    0.1438001    0.1193572  89.88 0.0001678178    1.507    0.336
        79 -10.5057      3.7241     82.7617   1.3255206421e+02   5.8465695416e+01    0.2027664    0.1811937 -44.81  0.000987919    1.160    0.138
        80  -9.6754    100.4682     81.3507   9.9266690932e+01   4.7019541735e+01    0.3269594    0.1393024 -40.35  0.001246271    2.368    0.578
        81 -11.4549     64.0484     79.7490   1.1058532432e+02   5.3404065111e+01    0.5325829    0.3535523 -42.45  0.002833454    1.381    0.276
        82 -10.1223     89.2650     80.2986   1.0240900548e+02   4.9294621834e+01    0.2712385    0.1917586 -53.19 0.0007958297    1.588    0.370
        83  -9.4941    250.4702     80.5480   6.8567557753e+01   1.2873507419e+01    0.1342519    0.1137034 -64.32 0.0001686894    1.006    0.006
        84  -9.5122    124.4016     79.1488   9.1807142030e+01   4.2476982188e+01    0.2002517    0.1386692 -52.86 0.0004054099    1.647    0.393
        85  -9.4497     23.8246     79.1624   1.2470491205e+02   5.7897413082e+01    0.1809032    0.1177143 -35.27  0.001076355    1.350    0.259
        86 -10.5733    176.4948     77.3484   7.9366079153e+01   3.0451016922e+01    0.3216445    0.2551723  34.77  0.001598523    1.471    0.320
        87 -10.0907     75.0333     75.9118   1.0571882323e+02   5.2525076362e+01    0.1976126    0.1800819  -9.80 0.0002999393    1.022    0.021
        88 -11.7782     56.2294     75.3877   1.1205249436e+02   5.5316371800e+01    0.4474917    0.2764501  17.32  0.002304575    1.825    0.452
        89 -10.3873     15.2261     75.7087   1.2700683996e+02   5.9235044989e+01    0.1801947    0.1432041  15.08 0.0008690715    1.463    0.316
        90  -9.3577    160.2691     74.9856   8.2023380001e+01   3.4825776708e+01    0.1814537    0.1323702 -39.88 0.0008635288    1.433    0.302
        91 -11.0898     35.2146     72.7138   1.1891704313e+02   5.8206772873e+01    0.4576384    0.3481727  11.27  0.001897398    1.399    0.285
        92  -9.4445    224.1311     74.1846   7.0679683301e+01   1.9623517840e+01    0.1910171    0.1457446 -77.70 0.0003691004    1.295    0.228
        93  -9.5407    136.5027     74.4967   8.7329766707e+01   4.0573938858e+01    0.1489038    0.1416661  43.98 0.0001345116    1.007    0.007
        94 -11.2020      4.4718     73.7317   1.3046955419e+02   6.0286355182e+01    0.3761424    0.1783267  19.89  0.002117993    2.472    0.595
        95  -9.1049     95.6874     73.2932   9.8262916468e+01   4.9440216842e+01    0.1335159    0.1152288  86.19 0.0003310434    1.593    0.372
        96 -10.9656    106.3064     71.7816   9.4611906580e+01   4.7638185485e+01    0.3153608    0.2446553  47.20 0.0009412926    1.298    0.229
        97  -9.3990     92.4906     72.4692   9.8997386511e+01   5.0185594709e+01    0.1394785    0.1312126   2.95 0.0001268271    1.041    0.040
        98  -9.6033     80.6842     72.3205   1.0273941122e+02   5.2286630647e+01    0.1296886    0.1126764  87.87 0.0003478244    1.658    0.397
        99  -9.5886     45.9340     68.8982   1.1388031251e+02   5.7824197131e+01    0.2335384    0.1801353 -86.93   0.00126692    2.271    0.560
       100  -9.2232    122.4278     68.5510   8.9135245741e+01   4.4784029902e+01    0.1435203    0.1368994  35.28 0.0001082259    1.025    0.024
       101 -10.6739    114.3065     66.7617   9.0775652919e+01   4.6847004565e+01    0.2386906    0.2097928  74.22 0.0002901878    1.355    0.262
       102 -11.1988     34.3452     64.9112   1.1706833122e+02   5.9807677566e+01    0.2985069     0.202336 -31.85 0.0006365314    1.263    0.209
       103 -11.4201     39.3961     62.4102   1.1440511541e+02   5.9766333316e+01    0.7380182    0.2486461 -34.64  0.002587217    3.528    0.717
       104 -10.3088     15.5257     64.4781   1.2417652464e+02   6.1449841065e+01    0.2952519    0.2689065  83.28  0.002141066    1.549    0.354
       105 -10.4586    131.6240     64.5786   8.5575743316e+01   4.3372699712e+01    0.3821605    0.2704451  56.18  0.001878641    1.382    0.276
       106 -10.2026     72.4179     63.1460   1.0260154772e+02   5.5285416584e+01    0.2388177    0.1603351 -51.87 0.0007985662    1.785    0.440
       107 -11.5323      4.1435     61.6125   1.2786232941e+02   6.2702369257e+01    0.3821628    0.2709598  71.63  0.001759374    2.491    0.599
       108 -11.1657      9.8143     60.2712   1.2531993733e+02   6.2632293386e+01    0.3670754    0.1870538 -41.49 0.0002193962    1.515    0.340
       109 -10.6022     62.6161     62.0680   1.0568748289e+02   5.6946799335e+01    0.2758188    0.1884996 -34.47  0.001107667    1.352    0.260
       110 -10.2914     60.4611     57.9067   1.0510325065e+02   5.7980114126e+01    0.2246613    0.2107257  11.04  0.000708161    1.227    0.185
       111  -9.8462    101.0325     61.9798   9.3053064401e+01   5.0374650401e+01    0.2099065    0.1766881 -83.67 0.0007944961    1.701    0.412
       112 -11.2056     54.0933     57.9720   1.0746235808e+02   5.8832584327e+01    0.4676297     0.364084 -49.36   0.00284199    1.477    0.323
       113 -10.3890     25.4867     57.8813   1.1847268444e+02   6.1932252778e+01    0.2608377    0.1742912 -55.95  0.001139646    1.580    0.367
       114 -11.6412      4.8797     51.8410   1.2509357400e+02   6.4502078454e+01    0.6527041    0.1930543 -32.90  0.002720326    3.559    0.719
       115 -10.7942     19.8260     51.5764   1.1888748402e+02   6.3543003829e+01    0.3128305     0.165755 -30.66   0.00173359    1.660    0.397
       116 -10.5772     11.6467     48.0734   1.2123323864e+02   6.4765033451e+01    0.2745845    0.1585122  29.33  0.001364154    2.089    0.521
       117 -11.3718     17.2549     45.1369   1.1798167756e+02   6.4875686795e+01    0.5033217    0.3955253 -17.43  0.003652654    1.088    0.081
       118  -9.4641     66.9510     60.5500   1.0365451881e+02   5.6579280614e+01    0.1867511     0.122327  30.21 0.0004782261    1.517    0.341
       119  -9.4937    118.6956     59.3009   8.7245293092e+01   4.7115299129e+01     0.136499    0.1135998 -84.78 0.0002223023    1.592    0.372
       120 -10.1745     83.5013     56.9531   9.6841173716e+01   5.4483333524e+01    0.2089328    0.2005375  69.32 0.0009377324    1.354    0.262
       121 -11.9560     87.9821     53.6099   9.4274785371e+01   5.4210626270e+01    0.4703255    0.3130726  39.96  0.001621092    1.434    0.303
       122  -8.9498     71.6510     57.2748   1.0092678147e+02   5.6413287348e+01    0.1195697    0.1065993  69.89 0.0003480054    1.633    0.388
       123 -10.4597    224.9491     55.2184   6.6330835057e+01   2.2402208281e+01    0.3298412    0.2693319   5.51  0.001803359    1.987    0.497
       124 -10.4137     99.8459     56.1742   9.1505370136e+01   5.1543556549e+01    0.1880398    0.1825351  -6.81 0.0004653037    1.140    0.123
       125 -11.5174    114.5898     53.8955   8.6612314580e+01   4.8836804344e+01    0.3384914    0.2654166  39.55 0.0008533801    1.176    0.149
       126  -8.9233    165.5113     54.4295   7.5298094297e+01   3.6822179675e+01    0.1444256    0.1302698  69.23 0.0001013423    1.011    0.011
       127 -10.1652     34.3544     53.4992   1.1361411343e+02   6.1899988138e+01    0.2679715    0.1554393 -26.09  0.001079527    1.627    0.385
       128 -10.0405    105.9930     52.9652   8.8669864048e+01   5.0791392226e+01    0.2136811    0.1949319  36.71 0.0006518143    1.077    0.072
       129 -12.1179     66.1500     52.5701   1.0125819099e+02   5.8042069726e+01    0.4852038    0.2101462  32.80  0.001337375    2.347    0.574
       130  -9.4378    169.5845     52.5581   7.4039026726e+01   3.6093918386e+01    0.1418314     0.129155  74.16 3.979693e-05    1.010    0.010
       131 -11.2299     77.3868     47.3722   9.5566081136e+01   5.7042445733e+01    0.4757946    0.3040267 -10.89  0.002436285    1.828    0.453
       132  -9.5481     38.0871     49.0869   1.1068953086e+02   6.2272685254e+01    0.1831385    0.1305014 -17.20 0.0005067504    1.236    0.191
       133  -8.9951    211.9671     48.7933   6.6551639583e+01   2.6348767431e+01    0.1700669   0.09977245  67.09            0    1.591    0.372
       134 -10.5072    102.9011     47.5107   8.7728335007e+01   5.2225159101e+01    0.3398615    0.1608068  36.16 0.0007876595    2.207    0.547
       135  -9.3452     87.5027     48.4961   9.2674440285e+01   5.5077816118e+01    0.1349358    0.1174604  13.21 7.354051e-05    1.016    0.016
       136 -12.5123     20.6408     57.7122   1.2034785274e+02   6.2359240577e+01    0.4011231     0.257121 -55.53  0.002438121    1.552    0.356
       137  -9.3609     47.2924     47.3221   1.0646035633e+02   6.1496110772e+01    0.1278432   0.08181307 -12.38 0.0003970423    1.611    0.379
       138  -9.6877     65.0283     46.2627   9.9454196430e+01   5.9209051048e+01    0.1744606    0.1425892  17.79  0.000327864    1.125    0.111
       139  -9.5326     36.1734     41.2074   1.0875593257e+02   6.3774702662e+01     0.391418    0.1986611  -2.59  0.001771883    2.996    0.666
       140 -10.1777     30.5485     45.5257   1.1255521203e+02   6.3649442629e+01    0.2383352    0.1910993  -8.36 0.0008759545    1.094    0.086
       141 -10.8474     25.9481     43.9842   1.1395064264e+02   6.4342230593e+01    0.2626773    0.2194335   9.95  0.001319104    1.290    0.225
       142  -9.4261     91.1673     44.7859   9.0250432829e+01   5.4928764481e+01     0.180925    0.1408003   9.93 0.0005377575    1.284    0.221
       143 -10.5497     70.1308     41.9926   9.6118846817e+01   5.9042710190e+01    0.2650193     0.233346  10.25  0.001543753    1.096    0.088
       144  -9.6561      2.9698     42.0000   1.2313997330e+02   6.6370661622e+01    0.2034162    0.1105104  -6.74 0.0009875452    1.918    0.479
       145 -10.1707      5.7758     39.3797   1.2113035037e+02   6.6656597426e+01    0.1887126   0.08949593 -35.93  0.001115227    1.634    0.388
       146  -9.5034    159.9691     40.6624   7.2511674105e+01   4.0085670709e+01    0.1980139    0.1658969  65.33 0.0005270122    1.061    0.057
       147 -10.9102    139.0960     40.3997   7.6517486897e+01   4.5142818334e+01     0.306665    0.2222104  73.16  0.001598027    1.469    0.319
       148  -9.4828     95.0379     42.5060   8.8295028781e+01   5.4498193725e+01    0.1903182    0.1205093  44.31 0.0006367546    1.453    0.312
       149  -9.1208    181.2601     40.6457   6.8948336838e+01   3.4873103206e+01    0.1412622   0.09644599 -68.52 0.0006974156    1.615    0.381
       150 -11.5608    133.5700     35.1834   7.6100349140e+01   4.7089640562e+01    0.5912375     0.396895   4.87 0.0005302002    2.088    0.521
       151 -12.2292    121.8516     37.0709   7.9338682948e+01   4.9540293306e+01     0.525029    0.3979954  56.77  0.001718362    1.232    0.188
       152  -9.5030     42.9868     40.5519   1.0576136204e+02   6.3097398828e+01    0.1636742    0.1067802  22.19 0.0004527199    1.480    0.324
       153 -10.4196     12.8420     38.1819   1.1765000754e+02   6.6383776744e+01    0.3029607    0.1272434 -49.14  0.001554785    2.067    0.516
       154  -9.3298    101.5115     39.4776   8.5387075572e+01   5.3606968168e+01    0.1370417    0.1153895  25.55 4.799198e-05    1.073    0.068
       155 -11.1648     20.0433     31.6302   1.1220640377e+02   6.6857516193e+01    0.5852146    0.2546234   5.07  0.002659531    3.419    0.708
       156 -10.4471     22.7252     38.5788   1.1348929656e+02   6.5522587621e+01    0.1939351    0.1825235 -30.29 0.0007790117    1.457    0.314
       157 -11.2545     26.5200     35.3122   1.1070689218e+02   6.5692238720e+01    0.4552245    0.2080014 -25.57  0.002313788    2.276    0.561
       158  -9.1143    236.6977     37.6844   6.1250619985e+01   2.2257755554e+01    0.1137908   0.09889244  43.32 0.0003237293    1.618    0.382
       159 -10.2835     70.4435     35.6435   9.3676829216e+01   5.9878117388e+01    0.3987193    0.2004387 -13.53  0.001697085    2.967    0.663
       160 -10.5626      1.9948     35.8622   1.2171425460e+02   6.7475623158e+01    0.2656227    0.1515737 -33.36  0.001772506    1.323    0.244
       161 -10.8235      3.3229     32.6567   1.2009442730e+02   6.7928926712e+01    0.2240476    0.1916307 -89.29  0.001626442    2.145    0.534
       162  -9.0684     38.5275     35.4896   1.0571595725e+02   6.4394565065e+01    0.1202995   0.09398065  -9.34 0.0001048266    1.014    0.014
       163  -9.6190     99.1370     35.6511   8.4727010470e+01   5.4579772173e+01    0.1944306    0.1012239  39.41            0    1.762    0.432
       164  -9.4899     54.8437     34.4050   9.8852141853e+01   6.2447425502e+01    0.2188907    0.1009745  25.88 0.0007456174    2.336    0.572
       165  -9.9505     50.4056     33.8434   1.0034163314e+02   6.3142556485e+01    0.1888609    0.1758392  21.63 0.0008095534    1.421    0.296
       166 -10.7325    145.0426     32.9888   7.3102528484e+01   4.4645503624e+01    0.1985891    0.1742453  59.04  0.001187641    1.005    0.005
       167 -10.0357    205.0947     30.8081   6.3290555653e+01   3.0387604953e+01    0.2193811     0.158304 -78.68  0.001242614    1.298    0.230
       168  -9.4712    166.4614     31.0986   6.8780330769e+01   3.9690484059e+01    0.1802506    0.1354668 -34.85 0.0003891228    1.506    0.336
       169 -11.7136     43.7520     28.9720   1.0109804550e+02   6.4695303862e+01    0.4701843    0.3320039  -5.99  0.002270306    1.235    0.191
       170 -10.0699    127.7973     30.3543   7.5840679210e+01   4.8992025900e+01    0.3484245     0.129374  52.88  0.001417395    2.224    0.550
       171  -9.5564     96.4832     29.4478   8.3285806588e+01   5.5864485468e+01    0.2253558    0.1207669 -11.25   0.00101865    2.532    0.605
       172  -9.7288    150.6139     29.8066   7.1133837897e+01   4.3682692884e+01    0.2777314   0.08719012  59.01  0.001023859    2.612    0.617
       173  -9.1808    105.3098     29.3158   8.0860285896e+01   5.4064274743e+01    0.1372556   0.08905176  25.77 0.0007031234    1.634    0.388
       174 -10.4213     69.7879     28.1282   9.1058476451e+01   6.0954427812e+01    0.3114463    0.1663551 -37.30  0.001636538    2.089    0.521
       175  -9.4104    162.3104     28.3613   6.8713886434e+01   4.1020819494e+01    0.1392923   0.09506449  35.69 0.0007041016    1.745    0.427
       176 -10.3305      7.0569     27.8872   1.1676339157e+02   6.8451260890e+01    0.2233923    0.1621181  23.85  0.001394196    1.671    0.401
       177 -10.0925    140.4134     27.0329   7.2228242797e+01   4.6427335625e+01    0.3096999    0.1629647  60.14  0.001380553    1.640    0.390
       178 -11.9529     76.7235     25.5794   8.7786048492e+01   6.0060995812e+01    0.2719653    0.2334774  24.38 0.0003641974    1.101    0.091
       179  -9.3397    229.5875    247.8030   1.0585241939e+02  -1.1823214221e+01    0.1496215    0.1134608 -38.83 0.0009401134    1.590    0.371
       180 -10.1800    153.9047     25.6399   6.9367564937e+01   4.3360873963e+01    0.2805308    0.1486742  71.47  0.001012187    1.857    0.461
       181 -10.3695    100.8258     25.5855   8.0738387080e+01   5.5416247301e+01    0.2152382    0.1806851 -34.88 0.0007877983    1.403    0.287
       182  -8.7814     17.5437     26.1081   1.1128704924e+02   6.7909702032e+01    0.2211815    0.1119429  36.08  0.001147496    2.610    0.617
       183 -10.5259    219.1388     23.8713   6.0174301849e+01   2.7975512411e+01    0.2664429     0.165203 -20.59  0.001357585    2.474    0.596
       184 -10.1081    114.1972     24.9241   7.7164711149e+01   5.2641924594e+01    0.2668338    0.1667892  48.17  0.001307677    1.358    0.264
       185 -10.3528     58.9282     24.4736   9.3467602639e+01   6.3143785968e+01    0.2613977    0.1629189   6.14  0.001484829    1.696    0.410
       186  -9.6643     89.2994     22.9523   8.2972739380e+01   5.8012392060e+01    0.1766943    0.1482319   9.48 0.0009034136    1.135    0.119
       187 -10.6048      2.0683     22.0179   1.1702078196e+02   6.9684102094e+01    0.2432757    0.1254481 -43.62 0.0008854355    1.612    0.380
       188  -9.4171     22.5557     21.9119   1.0738001727e+02   6.8052286828e+01    0.1731584   0.06972368 -24.65 0.0003777956    2.827    0.646
       189 -10.6754     19.9960     16.7134   1.0644070307e+02   6.9007652059e+01    0.1774188     0.125809  10.24 0.0003664677    1.250    0.200
       190 -11.2894     13.1949     20.4114   1.1111097572e+02   6.9106239112e+01    0.2296589    0.1849506 -31.24 0.0006477353    1.372    0.271
       191  -9.4559    224.7413    246.9487   1.0662174331e+02  -1.0985236082e+01    0.1491794    0.1002704 -29.16 0.0006446624    1.536    0.349
       192  -9.6287     85.0000     21.0154   8.3506925640e+01   5.9045332436e+01    0.2063172    0.1237299  25.44 0.0005841468    1.669    0.401
       193 -10.1509     34.0170    246.9960   1.4413120675e+02   1.9046866862e+01    0.1429556    0.1050207  70.24 0.0004078244    1.030    0.029
       194  -8.8752    170.6940    246.6858   1.1724185965e+02  -2.1911924418e+00    0.1299822   0.09604242   8.82 0.0003516895    1.623    0.384
       195  -9.3588    136.3207    245.6665   1.2412592215e+02   3.9037046487e+00    0.1367307   0.09317578  66.66 0.0004455274    1.701    0.412
       196 -10.9633     37.7468    242.1605   1.4311092296e+02   1.9553550135e+01    0.3543539    0.1294621  61.93   0.00157271    2.817    0.645
       197 -10.8417     31.0006     20.5863   1.0309050221e+02   6.7348650804e+01    0.2277566    0.1391471 -31.45  0.000514917    1.499    0.333
       198 -11.2964     30.1634    239.1701   1.4426024874e+02   2.1071152694e+01     0.315097    0.1482528 -56.00  0.001636666    2.721    0.633
       199 -10.2057    175.2355     20.4189   6.4661455354e+01   3.8774009631e+01    0.1881142    0.1119637  79.68 0.0007471956    1.604    0.377
       200  -9.9252    132.1451     20.1222   7.1740928303e+01   4.9090348911e+01    0.2124408    0.1556113  38.40  0.001217911    1.332    0.249
       201 -12.7478     25.7250    235.9762   1.4483178551e+02   2.2235118993e+01    0.4045278    0.3391359  62.03  0.002274494    1.280    0.219
       202  -9.8897    148.5924     18.7445   6.8316591192e+01   4.5362835824e+01    0.2201935    0.1449275  86.09 0.0003997556    1.700    0.412
       203  -9.5673    202.5106    240.1324   1.0978308064e+02  -6.4797156034e+00    0.1750364    0.1259683 -35.34 0.0007994876    1.519    0.342
       204 -10.5179    199.8615     17.2547   6.0803549820e+01   3.3229520014e+01    0.2163913    0.1735055 -87.48 0.0004523971    1.051    0.049
       205 -13.6055      9.9872    230.0550   1.4724121935e+02   2.5151949892e+01    0.8210684    0.4372715  72.37  0.005035693    1.549    0.354
       206 -10.8439     90.1677     16.1152   8.0204437785e+01   5.8544310717e+01    0.2330061     0.169062  16.54 0.0003565955    1.353    0.261
       207 -11.9022      4.1520    232.5256   1.4840434436e+02   2.5239387453e+01     0.371107    0.1905461  72.70 0.0003605662    1.584    0.369
       208  -9.2744     54.3209    236.3014   1.3953425758e+02   1.8614852767e+01     0.105193   0.09672622 -44.31 0.0005181069    1.627    0.385
       209 -10.7550    190.5594     13.9247   6.1104176678e+01   3.5793794833e+01    0.2471271    0.1610143  80.24 0.0005836358    1.322    0.243
       210  -9.2460     75.6754     14.7257   8.3923663572e+01   6.1416835274e+01    0.1265357   0.07621644  24.50 0.0001916402    1.581    0.367
       211 -10.0256     68.9643     13.6412   8.5636534748e+01   6.2708513974e+01    0.1725689    0.1251478  36.49 0.0006997447    1.200    0.167
       212 -10.1171     62.6602     14.1176   8.7954892104e+01   6.3719293340e+01     0.166213    0.1437593 -24.79 0.0006252968    1.434    0.303
       213  -9.3839     60.5543    241.0000   1.3876361532e+02   1.6804384672e+01    0.2590829   0.06162273  37.95 0.0009301665    3.898    0.743
       214 -10.0541     49.2965     15.8196   9.3559639151e+01   6.5590547536e+01    0.1929012    0.1426293 -13.68 0.0009576268    1.242    0.195
       215  -9.7410    249.1871    234.1007   9.9856325845e+01  -1.2731894538e+01    0.1837529    0.1362846   1.28 0.0004908916    1.166    0.142
       216  -8.9846    209.6713    229.6691   1.0655714023e+02  -5.9995060682e+00    0.1384411   0.09387869   3.73 0.0007051581    1.714    0.417
       217  -9.4823    140.6705    227.3312   1.2055892964e+02   6.6127231803e+00    0.1443109    0.1015154  69.06  0.000705176    1.717    0.417
       218 -10.4412     32.7156    225.2363   1.4273045358e+02   2.3656461065e+01    0.2663223    0.1380253  47.21  0.001504676    1.726    0.421
       219 -12.3272      7.7198    217.6884   1.4685437040e+02   2.7947118237e+01    0.3860584    0.2401473  88.17  0.002381529    1.247    0.198
       220 -10.7718     15.9703    212.1271   1.4491621773e+02   2.8308652491e+01    0.2109667    0.1503072 -73.00  0.001318158    1.327    0.246
       221  -9.3576    209.5124    211.5166   1.0327567602e+02  -2.9328977612e+00    0.1373423    0.1229213   9.71 0.0002656294    1.009    0.009
       222 -10.1726     20.5632    209.6958   1.4383839065e+02   2.8360507246e+01    0.2014172    0.1077716  60.30 0.0006114588    1.685    0.406
       223  -9.7496    246.6557    207.1908   9.5350896599e+01  -8.3501157157e+00    0.1871128     0.105936 -27.98 0.0009472441    1.697    0.411
       224  -9.3966    197.0226    204.0041   1.0440183844e+02   6.6629447532e-01    0.1725313     0.157678  15.51 0.0006117936    1.006    0.006
       225 -11.8477      9.0590    203.2876   1.4559525116e+02   3.0910191188e+01    0.2870328    0.2068078  89.03  0.001309914    1.059    0.056
       226  -9.4861    180.7591    199.1959   1.0693217259e+02   4.6636683016e+00    0.3460298    0.1018875  46.66  0.001044656    3.613    0.723
       227 -10.3042      6.7403    191.8283   1.4518567000e+02   3.3651037388e+01    0.2736437    0.1332449  70.15   0.00138345    2.022    0.505
       228  -9.4884     15.3534    185.1449   1.4283375583e+02   3.4370644845e+01    0.1799511   0.09188702 -86.84 0.0009376834    1.742    0.426
       229  -9.5147      1.3080    183.1334   1.4561736040e+02   3.6055241546e+01    0.1680702   0.08359736 -85.99  0.000497921    1.661    0.398
       230  -9.7483    249.6753    169.3252   8.7320360792e+01  -2.5225886931e+00    0.1298613    0.1052539 -68.87            0    1.690    0.408
       231 -11.0517      4.4054    167.4201   1.4362268885e+02   3.9365881246e+01    0.3026611    0.1996713  55.03   0.00157967    1.564    0.361
       232  -9.9010     14.3180    164.3381   1.4105919053e+02   3.9266830874e+01    0.1244085    0.0786812 -49.73 0.0007049053    1.705    0.414
       233  -9.3300     41.4715    158.2525   1.3368673945e+02   3.8056242970e+01    0.1869988     0.113594 -81.82 0.0009369757    1.611    0.379
       234  -9.0391    247.4824    155.5160   8.4841845015e+01   3.0008222402e-01    0.1378745     0.121788 -29.56 7.448468e-05    1.014    0.014
       235 -10.5183      2.6129    153.6228   1.4271925264e+02   4.2666818598e+01    0.2534164   0.09510354  32.29  0.001251365    2.931    0.659
       236 -10.2737     23.9756    150.7018   1.3714045445e+02   4.1628781112e+01    0.1679229    0.1510292 -85.18 0.0004476104    1.115    0.103
       237 -10.2843     22.0084    143.2224   1.3668035054e+02   4.3575878017e+01    0.2382352    0.1545956 -69.80  0.001324141    1.258    0.205
       238 -11.3140      3.2015    138.3636   1.4094893750e+02   4.6138271095e+01    0.2450971     0.203486  49.88   0.00172611    1.413    0.292
       239 -10.6242      9.0109    135.3386   1.3908338126e+02   4.6440182826e+01    0.1655509    0.1396593 -72.43 0.0005433619    1.070    0.065
       240 -11.0932     11.8200    129.5814   1.3758647840e+02   4.7574570130e+01    0.4844191    0.2372166  71.65  0.002104625    3.202    0.688
       241  -9.9637      1.9545    132.5139   1.4059310981e+02   4.7560753996e+01    0.1469443    0.1214254  18.59  0.001025461    1.570    0.363
