#   1 NUMBER                 Running object number                                     
#   2 MAG_AUTO               Kron-like elliptical aperture magnitude                    [mag]
#   3 X_IMAGE                Object position along x                                    [pixel]
#   4 Y_IMAGE                Object position along y                                    [pixel]
#   5 X_WORLD                Barycenter position along world x axis                     [deg]
#   6 Y_WORLD                Barycenter position along world y axis                     [deg]
#   7 A_WORLD                Profile RMS along major axis (world units)                 [deg]
#   8 B_WORLD                Profile RMS along minor axis (world units)                 [deg]
#   9 THETA_WORLD            Position angle (CCW/world-x)                               [deg]
#  10 FWHM_WORLD             FWHM assuming a gaussian core                              [deg]
#  11 ELONGATION             A_IMAGE/B_IMAGE                                           
#  12 ELLIPTICITY            1 - B_IMAGE/A_IMAGE                                       
         1 -13.6423    244.5710    157.7365   9.0300932409e+01   3.1488449370e-01     2.408166    0.8829595 -47.76  0.008561545    3.091    0.676
         2 -13.7167    202.4511     16.5103   6.3630983308e+01   3.2974746474e+01     1.759221    0.9997063 -17.61  0.008196876    2.619    0.618
         3 -13.8896    208.8528     10.8541   6.1601286163e+01   3.2071954584e+01     3.189327     1.626174  31.85    0.0021634    5.106    0.804
         4 -12.9223      3.8842      8.0278   1.1372409022e+02   7.1491318584e+01     1.107132    0.3745603 -36.59   0.00616261    2.282    0.562
         5 -11.4429    189.9056     15.7862   6.4951225430e+01   3.6097360174e+01    0.2922891    0.2355271 -65.90 0.0007098246    1.221    0.181
         6 -11.3827     89.5956    238.4755   1.3556559790e+02   1.3697112014e+01    0.5350624    0.3154314  76.68  0.001677755    1.824    0.452
         7  -9.8189    189.0020    250.5116   1.1810623915e+02  -5.1110834417e+00    0.1947893    0.1044773  40.61 0.0005024993    1.554    0.356
         8 -10.1830    184.0758    250.3060   1.1900376562e+02  -4.2547611922e+00     0.190807    0.1490988  24.65 0.0005221122    1.219    0.180
         9 -10.7820    169.6547    248.5262   1.2148116451e+02  -1.5293917629e+00    0.3203626    0.2317839   5.35 0.0008016972    1.965    0.491
        10 -11.0905    128.7797    234.7276   1.2751913903e+02   7.9568939663e+00    0.5028875    0.2360891  52.14  0.002306213    1.952    0.488
        11 -11.2252    122.6369    232.8363   1.2848616032e+02   9.3728550043e+00    0.4011778     0.315623 -62.88  0.001638187    1.420    0.296
        12 -11.8642    149.7567    248.7329   1.2531267027e+02   1.8557468126e+00     0.853385    0.4164636  60.93  0.003608795    2.883    0.653
        13 -11.4994    135.5216    241.0572   1.2703572902e+02   5.6344694060e+00    0.3543763    0.3001101  17.63  0.001398343    1.520    0.342
        14 -11.8567    135.3325    236.5971   1.2647630631e+02   6.4731736182e+00    0.5283566    0.4064796  16.38  0.001537546    1.825    0.452
        15 -11.5395    134.0070    232.5507   1.2618680380e+02   7.4517358629e+00    0.4843684    0.3160921 -37.66 0.0002741996    2.165    0.538
        16 -11.4753     99.1956    247.5528   1.3473330247e+02   1.0477228292e+01    0.8320701     0.290448  50.18  0.003647466    2.400    0.583
        17 -11.1905    133.3652    249.2901   1.2850922264e+02   4.5560476698e+00    0.6204143     0.233834  50.21  0.002666818    2.363    0.577
        18 -10.0435    122.9059    249.8891   1.3056078816e+02   6.2054453698e+00    0.3006571    0.1788509  48.94  0.001679384    1.371    0.271
        19  -9.8940    126.9805    248.9908   1.2968309320e+02   5.6830334334e+00    0.2979026    0.1749626  54.52  0.001094448    1.480    0.324
        20 -10.6531    116.2419    245.9373   1.3135302206e+02   8.0160464704e+00    0.6208003    0.3068316  76.17  0.002233895    4.433    0.774
        21 -10.3222    121.8485    245.0573   1.3018055635e+02   7.2422501502e+00    0.4131111    0.1754126  55.92  0.001388364    2.436    0.590
        22 -11.9084    126.4526    240.8114   1.2876623983e+02   7.2344039867e+00    0.6327317    0.3723533  49.25  0.003386429    1.424    0.298
        23 -10.4674    114.8945    250.4756   1.3213199358e+02   7.4224135439e+00    0.4909933    0.1498556  43.53  0.002005267    2.670    0.626
        24 -11.3101    109.8043    247.3917   1.3273557663e+02   8.8069218613e+00    0.5036941    0.3049704 -72.74  0.002510459    1.897    0.473
        25 -10.2166     89.0304    250.5799   1.3690741986e+02   1.1496831828e+01    0.3990632    0.1232405  42.41   0.00169528    2.743    0.635
        26 -10.6063     89.0041    247.3955   1.3659591765e+02   1.2091192592e+01    0.3850769    0.2296969  44.96  0.001610839    1.492    0.330
        27  -8.6106     75.3305    250.6648   1.3937256477e+02   1.3521595789e+01      0.13031   0.07075467  68.45 0.0007052133    1.729    0.422
        28  -9.3852     63.1917    249.8743   1.4143777089e+02   1.5392756281e+01    0.1886909    0.1478223 -66.67  0.001190442    1.565    0.361
        29 -11.1206     59.9349    245.2520   1.4162256992e+02   1.6717430577e+01    0.3655462    0.2557262 -84.21 0.0005661089    1.316    0.240
        30 -11.2182     66.9189    244.2643   1.4029946897e+02   1.5936224058e+01    0.4773179    0.2451597  33.14  0.002407303    2.608    0.617
        31 -11.5827     32.8113    201.8458   1.4290550718e+02   2.9084641710e+01    0.3385124    0.1920576  42.77 0.0002760409    1.802    0.445
        32 -11.2156     22.9471    202.1259   1.4483349702e+02   3.0107316079e+01    0.3757939    0.2431573  76.82  0.001145043    1.260    0.206
        33 -12.0446     60.6419    223.2988   1.3952427544e+02   2.1000481277e+01    0.7819864    0.6855041  57.18  0.003148493    1.321    0.243
        34 -15.2960      9.6618    209.1391   1.4781146305e+02   2.9977001202e+01     6.812944    0.9612855 -74.27   0.02221056    5.599    0.821
        35 -14.0061      5.8202    245.4441   1.5060556843e+02   2.3182660787e+01     1.209627    0.5942314  84.37  0.004527647    1.588    0.370
        36 -12.6729     13.6265    238.6887   1.4899692441e+02   2.3641081614e+01     0.629011    0.2457625  61.75  0.001539877    2.115    0.527
        37 -12.7811     39.8648    228.5944   1.4383023354e+02   2.2619121774e+01    0.3863746       0.3133 -86.96 0.0008122126    1.243    0.196
        38 -14.1202     46.2321    218.8669   1.4184457678e+02   2.3828788344e+01     1.304778    0.8995656  76.15   0.00837717    1.170    0.145
        39  -9.0365     83.8125    242.1453   1.3702556034e+02   1.3874221172e+01    0.1497759    0.1365675  73.29 0.0005799377    1.286    0.222
        40  -9.5764     82.7768    238.3957   1.3683963391e+02   1.4755530566e+01    0.2841519    0.1295517  48.90  0.001429605    1.826    0.452
        41 -12.4451    245.0531    240.3396   1.0617007659e+02  -1.2584136175e+01    0.4578039    0.3080812 -38.27  0.002848702    1.721    0.419
        42 -11.1836    164.2974    241.5377   1.2149806326e+02   5.3108515574e-01    0.3720613    0.2476223  75.52  0.001771552    2.343    0.573
        43 -10.6283    115.8739    239.7501   1.3068312720e+02   9.2153940181e+00    0.3601872    0.2801217 -28.12  0.001756557    2.101    0.524
        44 -11.1816    172.8029    240.0849   1.1962886571e+02  -7.1883080459e-01    0.2984131    0.2339969  81.60  0.001395521    1.741    0.426
        45 -11.2273     96.7840    239.6666   1.3433292445e+02   1.2341390094e+01    0.3863976    0.2583189 -82.95  0.002018734    1.568    0.362
        46 -11.3017    103.6387    238.3632   1.3287715368e+02   1.1492025354e+01    0.4888965    0.2560935  31.92  0.002260249    2.513    0.602
        47  -9.6277     61.5039    238.5126   1.4076522724e+02   1.7808546317e+01    0.2514657    0.1800926  25.37  0.001480506    2.251    0.556
        48 -10.5735    165.5848    235.2348   1.2030607746e+02   1.3652627059e+00    0.2360896    0.1682529 -45.26  0.001336581    1.637    0.389
        49 -10.4827    162.4824    233.0244   1.2058382304e+02   2.2998606940e+00    0.2995813    0.1879751  68.81  0.001032634    2.320    0.569
        50 -11.3834     99.3585    223.5064   1.3195034253e+02   1.5123885292e+01    0.4793878    0.2906331  52.94  0.001045512    1.435    0.303
        51 -10.6008     92.5018    225.9674   1.3361208548e+02   1.5725432151e+01    0.2858651    0.1724714  57.36 0.0009648256    1.456    0.313
        52 -11.1038     98.3527    231.7745   1.3313839224e+02   1.3626445866e+01      0.37291    0.2676259 -82.12  0.000757998    1.412    0.292
        53 -10.7907    112.8235    230.0233   1.3007283681e+02   1.1586150154e+01    0.3414474    0.2723254  26.34  0.001900743    1.625    0.385
        54 -11.7704    105.7354    229.0388   1.3135783214e+02   1.2963600762e+01    0.6938728    0.3297391  53.36  0.003154228    1.908    0.476
        55  -9.6257     77.9849    233.2214   1.3721436379e+02   1.6494131958e+01    0.2218521     0.154386 -85.12 0.0009401877    1.357    0.263
        56 -11.0160    156.5241    231.7674   1.2157934862e+02   3.5891822007e+00    0.2592945    0.2300593  27.42 0.0006774658    1.194    0.163
        57  -9.1861     62.8349    232.9820   1.4002438766e+02   1.8721760615e+01    0.1623684    0.1414499  80.49 0.0003223337    1.237    0.192
        58 -10.5634    142.0088    230.4700   1.2429368695e+02   6.4230832167e+00    0.3325384     0.240426 -25.31  0.001349869    2.134    0.531
        59  -9.0546     92.4669    232.5345   1.3436902149e+02   1.4412931639e+01     0.128496    0.1048537  67.89 2.934006e-05    1.024    0.024
        60 -11.0034    222.8129    245.0361   1.1095727532e+02  -9.8287462455e+00    0.2821277    0.1515931  33.41  0.001319967    1.615    0.381
        61 -10.7909     77.5688    220.8807   1.3598901873e+02   1.9076220858e+01    0.2771766    0.1897351  72.94 0.0004620654    1.308    0.235
        62 -10.7014     80.4067    227.4387   1.3614572184e+02   1.7297247061e+01    0.3135186    0.2633781 -30.16 0.0008511593    1.988    0.497
        63 -10.2449     78.6846    224.7071   1.3618661236e+02   1.8115634250e+01     0.230551    0.2182983 -24.72 0.0008197613    1.627    0.385
        64 -10.6772     84.6824    229.6196   1.3555340648e+02   1.6205228804e+01     0.288243    0.2549448  28.36 0.0008754789    1.578    0.366
        65  -9.1119    190.9521    228.0028   1.1415831348e+02  -1.9430396853e+00    0.1598441    0.1360261  33.18 0.0003631105    1.029    0.028
        66  -9.2281    179.7096    228.1431   1.1639564063e+02   4.2987346981e-02    0.2103482    0.1404737  76.80 0.0009415337    2.709    0.631
        67  -9.9717    197.6722    226.7217   1.1263117336e+02  -2.9222760493e+00    0.2537261    0.2103172  70.39   0.00118736    1.604    0.376
        68 -10.7655    165.7144    226.4531   1.1891750088e+02   2.8717438155e+00    0.2948641    0.2295744 -85.37  0.001546496    1.715    0.417
        69 -10.2643    132.2005    224.7797   1.2546189222e+02   9.2477036428e+00    0.2651473    0.2199372 -39.38  0.001443612    1.528    0.346
        70 -10.0255    129.2405    221.0282   1.2553037727e+02   1.0508608751e+01    0.2793985     0.210572  84.69 0.0008027612    1.475    0.322
        71 -10.5959    244.4746    225.5071   1.0367340354e+02  -1.0499723892e+01    0.1718921    0.1123869 -41.04 0.0009849318    1.748    0.428
        72 -10.4002    246.5078    218.4866   1.0203808151e+02  -9.8193366156e+00    0.2416755    0.1102964  34.99 0.0008127181    2.108    0.526
        73  -9.8786    147.1209    225.1606   1.2247963029e+02   6.4925927190e+00     0.191473    0.1724139  26.16  0.000328377    1.238    0.192
        74 -10.7960    117.2408    224.3062   1.2843975482e+02   1.1961388570e+01    0.2662795    0.2120851  46.32 0.0003480904    1.195    0.163
        75 -11.1293    160.4875    223.5069   1.1950635795e+02   4.3581293231e+00    0.5517552    0.2219932  40.01  0.001806314    2.270    0.559
        76 -11.4277    141.9402    221.8305   1.2303688277e+02   8.0651069197e+00    0.3988332    0.3000841  31.40 0.0004276403    1.436    0.304
        77 -11.1698    137.8780    214.4955   1.2276126397e+02   1.0244155032e+01    0.4812611     0.438677  71.54  0.001871497    1.062    0.058
        78 -10.3959     73.2352    209.7847   1.3561439626e+02   2.2080997041e+01    0.4889909    0.2913061  24.22   0.00227693    2.809    0.644
        79 -10.9693     70.7827    220.3239   1.3726439301e+02   2.0190715670e+01    0.4668123    0.2624845 -73.31  0.002436633    1.712    0.416
        80 -11.0133     68.0454    214.6040   1.3719676107e+02   2.1794623763e+01    0.2487207    0.1780182 -82.63 0.0004093593    1.259    0.206
        81  -9.1569    176.6430    220.2892   1.1570844344e+02   1.9628107527e+00    0.1370094    0.1020314  67.81 0.0007026027    1.682    0.406
        82  -9.6164    104.9004    218.8731   1.3023916076e+02   1.5159515804e+01    0.1987855    0.1667622  70.53 0.0003184755    1.019    0.019
        83 -10.2807    110.9500    221.3894   1.2933205972e+02   1.3624130388e+01    0.3300875    0.2117664 -57.36  0.001230803    1.702    0.412
        84  -8.4167    119.2634    217.3358   1.2706683142e+02   1.3014154545e+01    0.1217318    0.1085995 -16.92 0.0002159724    1.583    0.368
        85  -9.0617     93.9489    217.0067   1.3224288477e+02   1.7345882836e+01    0.2211362    0.1362686  74.00 0.0009993493    1.747    0.427
        86  -9.6567     88.1831    213.0109   1.3293091116e+02   1.9110470338e+01    0.2334321    0.1572879  87.09 0.0005884874    1.500    0.333
        87 -10.0952    102.3548    212.1432   1.2987725617e+02   1.6993697871e+01    0.3640624    0.1918026  63.34  0.001613164    2.145    0.534
        88  -8.9702     33.7211    211.4291   1.4355981537e+02   2.6919261421e+01    0.1315267    0.1116201  44.90 0.0004901435    1.490    0.329
        89 -10.3976    108.2776    208.4564   1.2812163119e+02   1.6775220779e+01    0.3966626     0.277588 -41.23  0.001649687    1.924    0.480
        90  -9.3653    134.6988    208.2497   1.2245775728e+02   1.2095455217e+01    0.2589012    0.1677342 -31.15  0.001158437    2.402    0.584
        91  -8.7749    119.7016    208.7006   1.2572573634e+02   1.4725475410e+01    0.1258693    0.1120007  -3.48 0.0001581574    1.577    0.366
        92 -11.9493     93.4873    203.0961   1.3053620798e+02   2.0411588836e+01    0.5673786    0.4756594  89.12  0.003400929    1.085    0.078
        93 -11.2072    247.1396    205.8408   9.9563495435e+01  -8.0555196624e+00    0.4637583    0.2267886  25.65   0.00206356    2.509    0.601
        94 -10.1676    175.1474    205.2333   1.1339839122e+02   5.0037774421e+00    0.3493593    0.2307215 -23.04  0.001605518    2.124    0.529
        95  -8.8325    178.4115    204.5499   1.1259846188e+02   4.5052621262e+00    0.2306155     0.129544  43.28 0.0004481039    1.644    0.392
        96 -11.1713    143.0843    248.8602   1.2660385973e+02   2.9771730285e+00    0.4786723    0.2805173 -68.67   0.00230006    2.360    0.576
        97  -9.0465    125.7924    205.8265   1.2398595785e+02   1.4234056438e+01    0.1953771    0.1507963  71.21 0.0005334775    1.300    0.231
        98  -9.0240    149.2303    204.4064   1.1872297845e+02   1.0147639641e+01    0.2853688    0.1694295 -20.60 0.0009650873    4.186    0.761
        99  -9.2727    166.9666    203.2615   1.1475658871e+02   6.9608491294e+00    0.1987526    0.1662885  44.82 0.0003054762    1.101    0.092
       100  -9.1031    133.0079    202.7405   1.2193976571e+02   1.3554770379e+01    0.1968915    0.1753902  64.49 0.0003969575    1.013    0.013
       101 -10.0489    102.6686    202.6287   1.2849682362e+02   1.8991069506e+01     0.445748     0.228661  56.63  0.001969806    1.982    0.496
       102 -10.1686     98.9000    196.9812   1.2850679688e+02   2.0873405320e+01    0.5165557    0.2536856  57.69  0.001494074    2.201    0.546
       103  -9.5398    102.6921    195.7014   1.2748423357e+02   2.0518421766e+01    0.2091882    0.1353328 -58.18 0.0003720849    1.576    0.366
       104  -9.6607     64.0272    202.0466   1.3662766678e+02   2.5095761832e+01    0.2464079    0.1760554  40.48  0.001436731    1.541    0.351
       105  -9.8820    197.0243    200.6977   1.0808209029e+02   1.6529137022e+00    0.2045553    0.1738004  35.89 0.0008011146    1.103    0.094
       106 -10.1276    115.1100    200.2501   1.2544253026e+02   1.7351138614e+01     0.227833    0.1904376 -81.31 0.0002442358    1.180    0.153
       107  -9.2436    183.0470    200.3412   1.1086637585e+02   4.4029132551e+00    0.1977497    0.1657456  44.15 0.0003820555    1.125    0.111
       108  -8.8479    169.5202    200.4425   1.1371096585e+02   7.0149510973e+00    0.1430042     0.131695  47.30 7.178669e-05    1.016    0.016
       109  -9.9752    120.2305    199.5019   1.2420638922e+02   1.6594940939e+01    0.3126321     0.217104  70.91  0.001142142    1.565    0.361
       110  -9.8169     43.6069    199.2790   1.4051813004e+02   2.8376185952e+01     0.236026    0.1806335 -54.84   0.00108215    1.609    0.379
       111 -11.4513    249.5825    195.4819   9.7135747809e+01  -6.8598443290e+00    0.4720258    0.2888565 -47.59  0.002427028    1.934    0.483
       112  -8.6408     86.2491    199.2900   1.3158111558e+02   2.2413057752e+01    0.1177915    0.1037766 -45.30 0.0001835402    1.476    0.323
       113  -9.3917     86.0349    195.8383   1.3116325290e+02   2.3220621652e+01    0.2330482    0.1713564 -81.04 0.0003487964    1.283    0.221
       114 -10.3661     53.0041    197.9088   1.3845424578e+02   2.7498526464e+01    0.6983321    0.1695471  43.45  0.002654752    3.502    0.714
       115 -10.7431     57.5456    193.4819   1.3700962986e+02   2.7896109978e+01    0.3444614    0.2964599  54.02  0.002231475    1.277    0.217
       116  -9.6612    134.1304    197.8510   1.2089054142e+02   1.4379591454e+01    0.2168694    0.1797597  73.99 0.0003141877    1.209    0.173
       117 -11.6636     65.4009    195.0496   1.3552141949e+02   2.6469471129e+01     0.396759    0.2619845 -52.69  0.001338759    1.748    0.428
       118 -11.3018     76.4859    186.7282   1.3203092500e+02   2.6764980032e+01    0.3930257    0.2399742 -84.01  0.001150517    1.713    0.416
       119 -11.7303     70.9528    187.4688   1.3336130974e+02   2.7407948640e+01    0.3068944    0.2645243 -54.99 0.0006690884    1.374    0.272
       120 -10.1649    113.1479    193.6090   1.2484289438e+02   1.9161609041e+01    0.4761323    0.2284032 -62.25  0.001047647    2.224    0.550
       121 -10.2982     38.5452    193.1919   1.4094382588e+02   3.0331902462e+01     0.423703    0.1929805 -59.13  0.001203999    2.137    0.532
       122  -9.8209     40.8864    187.8694   1.3991361697e+02   3.1253465537e+01    0.2573024    0.1603708 -73.86  0.001485865    1.362    0.266
       123  -9.4127     31.7016    195.1385   1.4251674920e+02   3.0679534219e+01     0.306272   0.09443335  50.19  0.001310513    3.045    0.672
       124 -11.6402     28.0356    227.7575   1.4586129459e+02   2.4195591043e+01    0.4927596     0.254396 -82.55  0.002021984    1.640    0.390
       125  -9.5120    159.5240    194.0665   1.1468354306e+02   1.0254226157e+01    0.2831032    0.1931718  58.83 0.0005014593    1.565    0.361
       126  -9.1772    133.5073    194.3302   1.2043415967e+02   1.5252389237e+01    0.2397079    0.1269474  42.97 0.0001524062    1.784    0.440
       127 -10.3099    120.0522    192.9821   1.2320193091e+02   1.8054150522e+01    0.3609968    0.3159216 -64.43  0.001161319    1.189    0.159
       128  -9.4263    117.9948    189.9951   1.2317363365e+02   1.9093273320e+01    0.1783781    0.1709824 -31.46  0.001027641    1.283    0.221
       129  -9.7402     72.9353    193.0532   1.3365006285e+02   2.5842587902e+01    0.1983253    0.1663924  81.85 0.0002914759    1.010    0.010
       130 -10.0093    191.4884    191.4402   1.0742731972e+02   4.4373337548e+00    0.2438315    0.2348341  19.30 0.0006650734    1.023    0.022
       131  -9.2536    135.2567    190.0740   1.1931008118e+02   1.5841060114e+01    0.1953383    0.1792397 -89.45 0.0003356289    1.075    0.070
       132  -9.7363     32.4638    189.5602   1.4183478364e+02   3.1833996151e+01    0.3345005    0.2277271  30.86  0.002032722    1.906    0.475
       133 -11.0043    249.8129    187.5036   9.5522528626e+01  -5.6347847056e+00    0.3986349     0.220155 -29.83  0.001961815    1.756    0.430
       134 -10.7598    141.6580    182.7637   1.1655018928e+02   1.6191964704e+01    0.4619884    0.3845382  24.12  0.001035898    1.414    0.293
       135  -9.0001     36.4140    184.1439   1.4046769094e+02   3.2612092852e+01    0.1894734    0.1273171  49.34 0.0005555335    1.505    0.335
       136  -9.8250     30.1036    183.2333   1.4170423703e+02   3.3511621880e+01    0.2746129    0.1585469  68.01 0.0009979897    1.671    0.401
       137 -10.0363     24.7151    184.1673   1.4291422735e+02   3.3866930889e+01    0.1990494    0.1395583  65.15 0.0006767449    1.307    0.235
       138  -8.9001     85.9521    183.3740   1.2941593359e+02   2.6084862730e+01    0.2107152    0.1252798  12.49 0.0007028484    4.659    0.785
       139 -13.4173    247.8007    115.4710   8.0559373759e+01   7.2068026137e+00      1.93767    0.9582018 -28.92  0.007753741    2.450    0.592
       140 -12.6406    248.2661    101.5370   7.7398716554e+01   9.5573552959e+00    0.8968582    0.4765175 -37.17  0.004065339    1.766    0.434
       141 -10.3814     81.8418    247.2377   1.3788591074e+02   1.3203410404e+01    0.3113188    0.2583989 -64.72  0.002131798    1.503    0.334
       142  -9.4298    126.2307    180.4100   1.1964503387e+02   1.9713276064e+01     0.272277     0.180177 -80.29  0.001198489    1.916    0.478
       143  -8.9710    175.6419    179.7999   1.0845057815e+02   9.9262014125e+00    0.2028326    0.1391457 -56.86 0.0003627671    1.631    0.387
       144 -10.9330    249.6191    150.9392   8.8000414611e+01   5.6420137802e-01    0.5024968    0.3002074 -41.68  0.001859953    1.527    0.345
       145  -9.8062    115.2946    177.3485   1.2164080500e+02   2.2459036059e+01    0.3580586    0.2147672 -64.78  0.001600293    1.749    0.428
       146  -9.3760    109.0992    178.4666   1.2328226523e+02   2.3323159804e+01    0.2175247    0.1828462 -69.88  0.000447989    1.156    0.135
       147  -8.9896     47.9838    179.7977   1.3748490972e+02   3.2247100851e+01    0.1529881   0.09857698  40.27 0.0005500875    1.689    0.408
       148 -14.5039     30.0104    245.4840   1.4673964088e+02   2.0491609017e+01     2.285233     1.329213  55.19   0.01529783    1.394    0.283
       149 -11.4678     79.6917    175.5883   1.2970219983e+02   2.8878142168e+01    0.4481717    0.2820687  49.10  0.001239325    1.568    0.362
       150 -11.6210     67.4577    173.5351   1.3225614023e+02   3.1153941891e+01    0.5035886    0.3204913 -56.57  0.001233494    1.546    0.353
       151  -9.8914    121.9091    175.6119   1.1978173394e+02   2.1626044367e+01    0.2481232    0.1999213 -72.09 0.0004404726    1.248    0.199
       152  -9.7449    107.8278    173.1469   1.2266246167e+02   2.4787632268e+01    0.2176403    0.1798488  79.42 0.0004097457    1.189    0.159
       153  -9.5181     91.0157    172.7054   1.2658242746e+02   2.7769367933e+01    0.2880675    0.2083946 -38.61 0.0008789708    1.791    0.442
       154  -9.0044     95.3075    172.6781   1.2555799748e+02   2.7065557718e+01    0.2233392    0.1510475  75.78 0.0005960124    1.687    0.407
       155 -11.0534     89.9436    160.4756   1.2477422772e+02   3.0855346943e+01    0.4475006    0.2364976 -68.16  0.001892039    1.987    0.497
       156  -9.9837     93.5089    169.4095   1.2544113156e+02   2.8138395793e+01    0.2485906    0.2282136  54.28 4.222912e-05    1.167    0.143
       157 -10.6566     28.8760    171.5539   1.4076398966e+02   3.6297226518e+01     0.350379    0.2662007 -73.41  0.001753419    1.150    0.130
       158 -12.4012     86.9808    166.7052   1.2656393921e+02   2.9845420044e+01    0.7116781    0.5177621 -55.37  0.003195379    1.367    0.268
       159 -10.8147     44.5066    168.9628   1.3695486112e+02   3.5181682221e+01    0.4742388    0.3114105  31.26  0.002666224    1.875    0.467
       160  -9.4706    126.3617    167.6310   1.1723194591e+02   2.2611266204e+01     0.232574    0.1710787  79.03  0.000944882    1.605    0.377
       161  -8.7860    107.4240    168.4485   1.2192437240e+02   2.5962364417e+01    0.1483759    0.1323342  85.99 8.601194e-05    1.042    0.040
       162  -9.3549     58.7059    167.6890   1.3348495873e+02   3.3722683901e+01    0.1843104    0.1337204  80.06  0.001023287    1.336    0.251
       163 -10.3082     68.7540    166.8228   1.3097365309e+02   3.2561480204e+01    0.2381722    0.1992474 -77.91 0.0004335755    1.055    0.052
       164  -9.1345     53.8233    164.8442   1.3424473109e+02   3.5021819091e+01      0.18167    0.1308726  89.10 0.0003363499    1.293    0.227
       165  -9.5107     40.3472    161.9691   1.3704082263e+02   3.7294233226e+01     0.179453     0.178673 -24.70  0.001246767    1.344    0.256
       166  -9.1882     36.5668    162.5136   1.3799069724e+02   3.7580538553e+01    0.1732697    0.1056666  52.09  0.000719303    1.701    0.412
       167  -8.3557    154.5069    161.5129   1.0937329471e+02   1.8263891562e+01    0.1556184    0.1462634  79.96 5.794708e-05    1.054    0.051
       168 -10.7044     96.0409    157.5599   1.2273273933e+02   3.0538726629e+01    0.4565391    0.1940736 -61.15  0.001344112    2.371    0.578
       169 -10.4669     74.0301    158.7335   1.2842257341e+02   3.3736854483e+01     0.352015    0.2496738 -49.54  0.001255985    1.483    0.326
       170  -9.7341     71.2577    156.7529   1.2878774497e+02   3.4613386874e+01    0.3259764    0.2422688   1.86  0.001213685    2.202    0.546
       171  -9.0480     78.9694    158.7375   1.2719771576e+02   3.3000231895e+01    0.1907815    0.1710568  83.82 0.0004499596    1.054    0.052
       172 -11.8145     23.5508    149.4865   1.3947181974e+02   4.1907875587e+01    0.5504519    0.1726821 -51.87  0.002234422    3.150    0.683
       173  -9.8384     21.0312    158.0000   1.4104806578e+02   4.0173517865e+01    0.1864924    0.1443589  85.34 0.0008348946    1.129    0.114
       174 -12.1535     31.0179    156.1414   1.3850830684e+02   3.9645027435e+01    0.4814571    0.4112417  27.20  0.003220305    1.526    0.345
       175 -11.4030     24.8154    155.2317   1.3985705129e+02   4.0460381107e+01    0.4074769    0.2558996  36.14  0.002420288    1.855    0.461
       176  -9.1955    228.3111    155.4441   9.2687373759e+01   3.8719403654e+00    0.2347341    0.1618679 -56.01 0.0006236601    1.672    0.402
       177  -8.6372    175.7146    155.2484   1.0323075870e+02   1.5056386191e+01     0.146912    0.1200575  83.80 0.0006839283    1.467    0.318
       178 -10.1624    113.8667    150.7246   1.1692149301e+02   2.8974887481e+01    0.3669741    0.2537087 -61.65  0.000475093    1.435    0.303
       179 -11.2198    100.5405    150.1165   1.2017804520e+02   3.1545828950e+01    0.7939284    0.4873219 -36.59  0.003380466    2.129    0.530
       180  -9.1823     53.1648    146.3818   1.3169118323e+02   3.9497024866e+01    0.2245217    0.1657456 -88.92 0.0006494344    1.326    0.246
       181 -10.2640     60.2541    150.9889   1.3061914214e+02   3.7501519423e+01    0.3721211    0.2092843  63.90  0.001177091    2.216    0.549
       182 -11.1934     56.1423    150.3710   1.3155971092e+02   3.8175783650e+01    0.5358008    0.3156483 -43.28  0.002601603    2.007    0.502
       183 -11.9883     32.2535    140.7519   1.3618381485e+02   4.3121272456e+01    0.4078673    0.2270462 -73.66  0.001409007    1.546    0.353
       184 -11.8630     72.6903    140.0325   1.2550394904e+02   3.8428370583e+01    0.6154174     0.397663  47.43  0.003087156    1.657    0.397
       185 -10.8496    133.4762    142.2413   1.1017780545e+02   2.7075886844e+01    0.8944113    0.2697889 -52.02  0.002612787    3.477    0.712
       186 -10.9526     39.6126    147.1503   1.3523268857e+02   4.0863743146e+01    0.2799191    0.1130683  47.26  0.001220794    2.762    0.638
       187 -10.7163    236.4533    145.9855   8.9166830011e+01   3.9878617491e+00     0.312724    0.2132168  47.11 0.0008559594    1.581    0.368
       188  -8.7030    158.9600    145.0443   1.0470088634e+02   2.0962470701e+01     0.183863     0.175392 -65.64 0.0009511128    1.038    0.037
       189 -12.9270     55.2001    208.5011   1.3911863509e+02   2.4878817728e+01     1.061561    0.6974961  63.00  0.006315855    1.332    0.249
       190  -8.9978     41.5321    140.4813   1.3376815201e+02   4.2232855923e+01    0.1313443    0.1086875 -72.07 0.0001751798    1.019    0.018
       191 -12.9104     67.5609    144.2657   1.2761874846e+02   3.8134673671e+01    0.7743411    0.5575695  89.49   0.00358683    1.493    0.330
       192  -9.6745    138.7966    138.7591   1.0806659668e+02   2.6759508813e+01    0.2272431    0.2137413 -28.10  0.001119534    1.166    0.142
       193 -11.0911     60.5826    137.4934   1.2826869292e+02   4.0690581741e+01    0.3267855    0.2370423 -84.99 0.0005233546    1.423    0.297
       194  -9.9826     45.7730    138.6676   1.3238414542e+02   4.2196269426e+01    0.1875155    0.1456521 -63.50  0.000894293    1.113    0.102
       195  -9.9589     50.5306    138.3134   1.3107669083e+02   4.1734495369e+01     0.209978     0.123505  33.07  0.001067629    1.969    0.492
       196 -10.4656    111.3173    136.1541   1.1446024573e+02   3.2908370690e+01    0.4191231    0.3171655  22.94  0.001210841    1.666    0.400
       197  -9.6444    136.7072    134.0267   1.0747619970e+02   2.8286844970e+01    0.2180786    0.1965002 -53.05            0    1.097    0.089
       198 -11.5205     45.4253    131.4980   1.3130689581e+02   4.3930157947e+01    0.4464219    0.3112681  83.55  0.002332391    1.614    0.381
       199 -12.4926      2.4009    128.2115   1.4212012858e+02   4.8409906703e+01    0.9196151    0.2034632 -71.22  0.003472406    3.461    0.711
       200 -13.3698     19.7881    122.3097   1.3679749595e+02   4.8495680791e+01    0.7685216    0.5115842 -23.77  0.004496805    2.047    0.511
       201 -11.9429     67.6995    128.3668   1.2462409847e+02   4.1917311951e+01    0.4252382    0.4096312 -31.26  0.001439208    1.176    0.149
       202  -9.8667    116.7758    128.6681   1.1131382938e+02   3.3610568152e+01    0.3572693    0.2264066  -9.14  0.001144688    3.934    0.746
       203  -9.1743    109.7513    128.9620   1.1324279323e+02   3.4895117837e+01    0.2069995    0.1856165 -57.85            0    1.067    0.063
       204  -8.8760    122.7927    128.1743   1.0962383754e+02   3.2524631557e+01     0.196753    0.1806374 -14.81 0.0002772878    1.249    0.199
       205 -10.5181    209.7934    125.7866   8.9391680397e+01   1.3491144155e+01    0.3136207    0.2543956 -39.42 0.0005147389    1.198    0.165
       206 -11.9005     37.6474    123.4755   1.3208398392e+02   4.6626779821e+01      0.54827    0.2026022 -63.06  0.002353855    2.213    0.548
       207 -11.3451     33.4802    127.9743   1.3396003910e+02   4.5987810530e+01    0.3329239    0.1812472 -79.67  0.001642973    1.904    0.475
       208 -10.4763     59.2162    125.0877   1.2635027092e+02   4.3812101162e+01    0.3920075    0.1810061  29.07 0.0008178751    2.642    0.622
       209 -10.2136     55.0164    120.8920   1.2672404122e+02   4.5316647143e+01    0.2679422    0.2013127  19.64  0.001372458    1.655    0.396
       210 -10.9511      7.5858    120.4953   1.3981437884e+02   4.9799795849e+01    0.2024465    0.1206812  20.82  0.001221275    2.202    0.546
       211 -11.9919     15.1287    114.9246   1.3697496157e+02   5.0525396384e+01    0.3664791    0.1894412 -73.16  0.001128166    1.669    0.401
       212  -8.7568     86.2848    116.2878   1.1677109208e+02   4.1975604637e+01    0.1401685    0.1093485 -24.56 0.0002785169    1.530    0.346
       213 -11.7758    247.9543    142.6222   8.6488776557e+01   2.3447128446e+00    0.6222356    0.5182022 -26.54  0.003550627    1.151    0.131
       214 -10.9044    167.9939    113.2374   9.4866528049e+01   2.5780004823e+01    0.3710572    0.3045402 -85.11  0.000951663    1.403    0.287
       215  -9.2156    203.4856    111.5192   8.7144690675e+01   1.7722794654e+01    0.1523247    0.1461143 -62.26 0.0001122765    1.021    0.021
       216 -11.3324     30.4734    126.5295   1.3454602646e+02   4.6606444209e+01    0.2549997    0.1637925 -50.66 0.0007504721    1.434    0.303
       217 -10.7263     31.5287    110.9933   1.3164700559e+02   5.0078518979e+01    0.2029221     0.191084  27.16 2.831891e-05    1.291    0.226
       218 -12.3661    248.7645    171.8211   9.2527436207e+01  -2.8729889163e+00    0.6798939    0.5119712 -21.85   0.00382091    1.274    0.215
       219  -8.7217     65.9380    182.0013   1.3376060139e+02   2.9384717312e+01    0.1574901    0.1333444  81.86 0.0003188892    1.038    0.037
       220  -9.9333     62.5026    107.0148   1.2161164710e+02   4.7580611646e+01    0.2153634    0.1216756 -57.14  0.001028858    1.584    0.369
       221  -9.3203     30.7042     90.3020   1.2782444216e+02   5.4737870177e+01    0.1147068   0.09140585  85.21  0.000329144    1.577    0.366
       222  -9.5651     24.1575     87.9361   1.2943825854e+02   5.5790081592e+01    0.1778566    0.1486608 -72.46 0.0004546936    1.241    0.194
       223 -12.3189    248.3579    134.5480   8.4669060464e+01   3.7012921219e+00      1.04578    0.5075361 -34.85  0.004470138    1.976    0.494
       224  -9.4241     79.2710    243.5520   1.3799952186e+02   1.4284799339e+01    0.2332938    0.1273623  80.19 0.0005619774    2.048    0.512
       225 -11.0173    200.7386    246.2553   1.1524489076e+02  -6.4399491631e+00    0.3339998    0.1775519  52.83 0.0008933926    2.284    0.562
       226 -10.7942    193.7783    245.2975   1.1640648999e+02  -5.1383045481e+00    0.2196566    0.2151113 -48.46 0.0002813669    1.278    0.217
