#   1 NUMBER                 Running object number                                     
#   2 MAG_AUTO               Kron-like elliptical aperture magnitude                    [mag]
#   3 X_IMAGE                Object position along x                                    [pixel]
#   4 Y_IMAGE                Object position along y                                    [pixel]
#   5 X_WORLD                Barycenter position along world x axis                     [deg]
#   6 Y_WORLD                Barycenter position along world y axis                     [deg]
#   7 A_WORLD                Profile RMS along major axis (world units)                 [deg]
#   8 B_WORLD                Profile RMS along minor axis (world units)                 [deg]
#   9 THETA_WORLD            Position angle (CCW/world-x)                               [deg]
#  10 FWHM_WORLD             FWHM assuming a gaussian core                              [deg]
#  11 ELONGATION             A_IMAGE/B_IMAGE                                           
#  12 ELLIPTICITY            1 - B_IMAGE/A_IMAGE                                       
         1 -10.8032    192.4014      3.8482   6.0456498571e+01   3.6540090444e+01    0.5379829    0.4309097  67.17    0.0034685    1.182    0.154
         2 -10.4840    196.7049      7.6480   6.0887991293e+01   3.5145935699e+01    0.4644744    0.2558306  51.15   0.00237347    1.954    0.488
         3  -9.5130    197.1481      2.8517   5.9724704360e+01   3.5520142702e+01     0.298204    0.1928746 -89.95  0.001581206    1.378    0.274
         4  -8.4420    174.3539      7.1218   6.3373403191e+01   4.0517758815e+01    0.1744757    0.1054108 -45.32 0.0005266765    1.783    0.439
         5  -7.8161    135.6660      6.3098   6.8878707475e+01   4.9719164778e+01    0.1256666   0.09206058 -76.26 0.0007042991    1.676    0.403
         6 -11.7169    250.3649    232.8710   1.0217284772e+02  -1.2360945652e+01    0.2454704    0.1661318 -20.74 0.0005517086    1.383    0.277
         7 -10.3162    246.8945    249.4630   1.0564525262e+02  -1.4037091015e+01    0.7694373    0.4971671  -2.00  0.004751722    1.553    0.356
         8 -11.0440    235.9294    248.6563   1.0746117658e+02  -1.2371106077e+01     1.000278    0.5060937  22.89  0.005158079    2.054    0.513
         9 -17.1214     47.7173    237.0163   1.4199871846e+02   1.9721136252e+01     4.768174     3.358822 -61.37   0.02378509    1.689    0.408
        10  -8.8253    103.1300    206.0390   1.2742834027e+02   1.8035761805e+01    0.6164704    0.3000576 -76.27  0.002355585    3.021    0.669
        11  -9.0534    147.2269    225.1131   1.2089266106e+02   6.3145108838e+00    0.3937288    0.2219756 -57.64  0.001873488    2.075    0.518
        12 -11.9376    165.6908    173.4444   1.0756995227e+02   1.3276529388e+01    0.7475775    0.7035971  13.38   0.00406083    1.131    0.116
        13 -11.7904    154.7977    173.2339   1.0998675690e+02   1.5571364064e+01    0.7251779     0.630008  75.65  0.003755104    1.238    0.192
        14 -12.5971    178.1443    164.0282   1.0282556205e+02   1.2665022863e+01     1.052101    0.9341401 -44.61  0.005525232    1.133    0.117
        15  -9.9641    164.0407    211.6964   1.1518083428e+02   5.7815460652e+00    0.2355445    0.2091907 -49.59 0.0004038858    1.231    0.187
        16  -8.0615      2.7332    177.3117   1.4571401281e+02   3.7355767500e+01    0.1441149     0.104338 -68.32 0.0003246341    1.288    0.224
        17  -9.0929     28.1761    174.0383   1.3996987969e+02   3.5750910254e+01    0.2335011    0.1838013  25.18 0.0003671127    1.699    0.411
        18 -10.2307     37.3632    169.0510   1.3731684228e+02   3.5934656172e+01    0.7456245    0.4958031   5.80  0.003256194    2.647    0.622
        19 -10.8942    195.5983    169.5942   1.0032181462e+02   7.8734272336e+00     0.491383     0.424763 -23.33  0.002610847    1.196    0.164
        20  -9.7304    119.1279    169.5956   1.1767726171e+02   2.3482038303e+01    0.4205842    0.2461262 -73.50  0.001662265    2.290    0.563
        21  -9.6873    120.5905    164.7151   1.1637654142e+02   2.4348186752e+01    0.2786438    0.2254884 -80.25 0.0008693343    1.310    0.237
        22 -11.5433      3.7635    157.0747   1.4368430594e+02   4.1811026320e+01     2.120943    0.6619894 -69.50   0.00974306    2.338    0.572
        23 -11.0738      4.9533    144.8773   1.4215547663e+02   4.4491038370e+01    0.7174571    0.4208416  32.90   0.00438584    2.054    0.513
        24 -10.7888    192.1730    165.1451   1.0007628019e+02   9.4783082699e+00    0.4120974    0.2971971 -57.89  0.001934148    1.572    0.364
        25 -12.9551    157.2147    128.4082   9.9329847461e+01   2.4990526400e+01     1.702479    0.9539903  38.87  0.006676677    1.963    0.491
        26  -8.8417    230.5103    156.0040   9.0622191569e+01   3.4670923648e+00    0.2026444    0.1166564 -59.25 0.0008098673    2.488    0.598
        27 -11.5507    172.1692    148.0139   1.0057016845e+02   1.7377622259e+01    0.7090421    0.5163572  -5.94  0.002982778    2.077    0.519
        28 -10.0056    177.2225    148.9908   9.9677985037e+01   1.6056191521e+01    0.3011721    0.2674738  -9.98 0.0003194905    1.276    0.217
        29  -9.8838    223.7669    143.2315   8.9038275474e+01   7.2094723531e+00    0.2672662    0.2556638  79.07 0.0006232167    1.142    0.125
        30  -9.5675     29.1014    142.9860   1.3594663879e+02   4.2916364357e+01    0.2952782    0.2197334 -10.28   0.00113059    1.971    0.493
        31  -9.6658    124.0032    206.0001   1.2285998361e+02   1.4389929822e+01    0.2010021    0.1797775  64.66  0.001159807    1.005    0.005
        32 -10.6585     22.2811    158.5546   1.3958706195e+02   3.9914842166e+01    0.4475076    0.2925166 -13.37  0.002368075    2.770    0.639
        33  -8.7891     36.0378    141.6409   1.3396560379e+02   4.2549885308e+01     0.356487    0.1947336  71.69  0.001617262    2.547    0.607
        34 -10.9257    248.2134    137.9021   8.3693914742e+01   3.3408885053e+00     0.639219    0.3821341 -56.19  0.002956196    1.938    0.484
        35 -12.7556    153.4976    138.1271   1.0255560939e+02   2.3674199599e+01     1.524283    0.7802816  61.92  0.005108315    2.882    0.653
        36 -10.0505     58.9423    133.8482   1.2651600532e+02   4.1781631996e+01    0.3520301    0.1716725  39.95  0.001587913    2.226    0.551
        37 -10.2041     52.5628    132.7881   1.2808296783e+02   4.2823333330e+01    0.4139099    0.2866621  15.09  0.001287761    1.939    0.484
        38 -10.9874    242.2630    125.5558   8.1959734183e+01   6.7217084535e+00    0.6237117    0.2946962 -37.70 0.0002129132    1.961    0.490
        39 -10.7878    118.9348    128.9590   1.0902881191e+02   3.3073249538e+01    0.6819706    0.3842835 -26.08  0.002305295    3.191    0.687
        40  -8.7700     20.0341    207.0787   1.4470389895e+02   2.9215445820e+01    0.1770238    0.1308521 -84.47 0.0003151732    1.132    0.117
        41 -10.0818    193.1706    156.1087   9.7883774688e+01   1.1108699655e+01    0.4105732    0.2056623 -32.71  0.001520337    2.386    0.581
        42  -8.1115    228.3937    125.7305   8.4285592251e+01   9.5453998765e+00     0.357951    0.1150602 -46.66  0.001157123    3.102    0.678
        43 -11.4989    157.8714    155.8249   1.0558233621e+02   1.8776250203e+01     0.674404    0.4333932  56.96   0.00287479    1.707    0.414
        44  -8.5050    106.3559    125.9973   1.1169826661e+02   3.6187536633e+01    0.2170829    0.1876376 -50.99 0.0004431007    1.112    0.100
        45  -9.4222     76.4624    199.7800   1.3238999344e+02   2.3688345487e+01    0.2619348    0.2107221 -75.60 0.0005119686    1.173    0.147
        46  -9.8422     80.3886    125.2538   1.1876418954e+02   4.0800938420e+01    0.2552455     0.182468  20.02  0.001104919    1.761    0.432
        47 -13.3671    146.1346    153.2025   1.0776471062e+02   2.1864250470e+01      1.69807     1.288651 -26.00  0.007775594    1.635    0.388
        48 -13.3633    136.3308    148.0891   1.0900898012e+02   2.5089990906e+01     1.535956     1.250267  11.91  0.007284154    1.588    0.370
        49  -8.4551    126.9867    115.5041   1.0356884431e+02   3.4472427995e+01    0.2399875    0.1533012  43.46  0.001033566    1.597    0.374
        50  -9.0580     36.0501    195.6918   1.4052039586e+02   2.9959631497e+01    0.2700579     0.172016  35.93  0.001224334    1.815    0.449
        51 -10.1909    249.0715    150.8435   8.6316560067e+01   8.8567155444e-01    0.4238324    0.2234187 -47.71  0.001918626    1.886    0.470
        52  -7.4072    197.0469    102.2145   8.4308466481e+01   2.1046529268e+01     0.191789     0.122461  54.31 0.0002852568    1.593    0.372
        53  -7.6856    144.1839     80.9935   8.9756093355e+01   3.7672921962e+01     0.193699    0.1927415 -67.76  0.001072876    1.025    0.025
        54  -8.5546    181.3829     79.7999   8.1519673018e+01   2.8930612396e+01    0.2609335    0.2024284  50.60 0.0003635066    1.305    0.234
        55  -8.0731      5.9690     74.7665   1.3119238914e+02   5.9817552662e+01    0.1246122   0.09364419   3.47 0.0003763628    1.570    0.363
        56  -9.1377     26.9784    208.8879   1.4352538450e+02   2.8079371850e+01    0.3267556    0.2029971 -47.47  0.001797693    2.352    0.575
        57  -9.6107    237.2563     69.1881   7.0144225594e+01   1.7510113358e+01    0.2336732    0.2113701 -74.69 0.0002586852    1.077    0.072
        58  -8.5594    241.8086     65.2596   6.8710767496e+01   1.7125631331e+01    0.2886285    0.1846657 -83.17  0.001101159    1.753    0.430
        59  -8.0019    123.1002     64.7192   9.0089155624e+01   4.5297952453e+01    0.1948098    0.1727881  36.31  0.000217968    1.085    0.078
        60  -8.7753    162.0072     52.9659   7.7866374459e+01   3.8025031543e+01     0.347829    0.2057441  69.42  0.001192171    1.796    0.443
        61  -7.2785    179.6618     52.7604   7.4631928268e+01   3.3718851497e+01    0.1408301    0.1033274  40.77 0.0002246808    1.550    0.355
        62  -7.8680    152.1211     44.8280   7.7432017908e+01   4.1576212153e+01    0.1894567    0.1545742  34.64 0.0002445522    1.312    0.238
        63 -10.2213    134.7796     41.8225   8.0120963393e+01   4.6080087353e+01    0.2326728    0.2214236  49.14 0.0002339565    1.041    0.039
        64  -9.8695    175.6770     37.5155   7.1201999432e+01   3.6801212137e+01    0.4561789    0.3297243 -69.78  0.002395231    1.516    0.341
        65  -9.9615    179.5518     30.9586   6.8867310276e+01   3.6675849412e+01    0.4611353    0.3101437  13.29  0.001717319    2.485    0.598
        66  -7.5486    145.7707     38.1096   7.6687579236e+01   4.3982091413e+01    0.1868909    0.1454593  38.78 0.0002996011    1.304    0.233
        67  -9.2991    229.7088     20.2977   6.0351699595e+01   2.6084083712e+01    0.3067935    0.2136221 -43.00  0.001075092    1.463    0.316
        68  -8.0965    202.1815     14.7948   6.1959895657e+01   3.3093466729e+01    0.1654244    0.1356557  60.32 0.0003032183    1.288    0.224
        69 -10.4158    113.8782    243.9089   1.3019964966e+02   8.5396974800e+00     0.366959    0.2259358  46.45  0.002030962    1.374    0.272
        70  -8.7475    245.7143    188.2200   9.4591873672e+01  -4.9261210435e+00    0.2027989   0.09797256  32.01 0.0008845788    2.366    0.577
        71  -7.6766    187.3198    236.6669   1.1463252142e+02  -2.8474723348e+00    0.1625242    0.1374249 -69.18 0.0008563427    1.595    0.373
        72  -8.0475    186.6361    233.2096   1.1420166848e+02  -2.1648037416e+00    0.2273608    0.1286274 -48.45  0.000957697    2.087    0.521
