#   1 NUMBER                 Running object number                                     
#   2 MAG_AUTO               Kron-like elliptical aperture magnitude                    [mag]
#   3 X_IMAGE                Object position along x                                    [pixel]
#   4 Y_IMAGE                Object position along y                                    [pixel]
#   5 X_WORLD                Barycenter position along world x axis                     [deg]
#   6 Y_WORLD                Barycenter position along world y axis                     [deg]
#   7 A_WORLD                Profile RMS along major axis (world units)                 [deg]
#   8 B_WORLD                Profile RMS along minor axis (world units)                 [deg]
#   9 THETA_WORLD            Position angle (CCW/world-x)                               [deg]
#  10 FWHM_WORLD             FWHM assuming a gaussian core                              [deg]
#  11 ELONGATION             A_IMAGE/B_IMAGE                                           
#  12 ELLIPTICITY            1 - B_IMAGE/A_IMAGE                                       
         1 -14.3583     68.2591    144.4593   9.4606927278e+01   3.7528165636e+01     4.448545     2.389171  82.97  0.002781229    4.308    0.768
         2 -12.9969    202.8172     51.8691   3.9528181924e+01   2.8522879480e+01     1.385389     1.036956  70.25  0.008248702    1.317    0.241
         3 -13.5110    219.0732     39.7055   3.5075005792e+01   2.6725936285e+01     1.014306    0.6637481 -85.53  0.003837884    1.455    0.313
         4 -13.3410    226.0705     32.9223   3.3022094859e+01   2.6165460501e+01    0.7967988    0.5237713  66.55  0.001568613    1.587    0.370
         5 -13.6710    242.0023     20.0088   2.9259725232e+01   2.4604559121e+01    0.7492154    0.5836622 -53.58    0.0026212    1.232    0.189
         6 -12.4871      2.5955     10.4885   8.3774503818e+01   7.3320462232e+01     1.034025    0.3850427 -27.42  0.004870804    2.929    0.659
         7 -10.0363    189.5297     15.3026   3.2658841476e+01   3.6034073092e+01    0.2218796    0.1658894 -87.54 0.0007114343    1.122    0.109
         8 -12.0734     82.6175    215.3996   1.0162501534e+02   1.7703925666e+01    0.7828619    0.6008299  87.24 0.0005434846    1.399    0.285
         9 -12.2128     52.2176    175.6660   1.0426354129e+02   3.1565680010e+01    0.6543498    0.3971528 -25.09  0.001428056    2.676    0.626
        10 -12.0151     58.4683    170.1981   1.0177184493e+02   3.2176109560e+01    0.3556324    0.3047939 -42.01 0.0009829676    1.280    0.219
        11 -15.7485     31.3125    244.5806   1.1584733163e+02   1.7856271116e+01     10.09225     2.982652  22.74   0.02649878    9.017    0.889
        12 -15.9930     30.1401    187.7374   1.1147151690e+02   3.1031147721e+01     8.563958     3.596209  82.76   0.02822138    3.491    0.714
        13  -9.9112     73.9787    207.0902   1.0268408514e+02   2.0872486061e+01    0.2856933    0.1948697 -89.92 0.0007689622    1.635    0.388
        14 -10.4602    192.9901    194.9903   7.2696021152e+01   4.1309734997e+00    0.7076611     0.369453 -64.32  0.002090081    5.798    0.828
        15  -9.0009     99.3091    180.9627   9.2309075821e+01   2.3355799157e+01     0.206502    0.1893172 -63.64 0.0005596255    1.094    0.086
        16  -9.0756    187.3859    176.2363   7.0180382343e+01   8.7445089491e+00    0.2038293    0.1309712 -51.30 0.0009111092    1.650    0.394
        17 -10.3745    113.3888    174.1831   8.7361974772e+01   2.2624177261e+01    0.3028157    0.1189908  33.33  0.001016961    2.680    0.627
        18 -13.4440      9.8472    230.3116   1.1932791944e+02   2.3138672366e+01     1.180255    0.5361874  66.79  0.005324849    2.042    0.510
        19 -11.5900     69.6861    161.0726   9.7142395080e+01   3.3005263920e+01    0.3411877    0.3323157 -48.98 0.0003800703    1.089    0.081
        20 -13.5277     76.9459    154.8096   9.3921674839e+01   3.3557637974e+01     2.063508     1.219005  72.37  0.001524119    2.692    0.629
        21 -10.2014    171.5998    240.4886   8.5032972103e+01  -8.7750273174e-01    0.3784978    0.2476922 -67.73  0.001794783    2.804    0.643
        22 -11.5620     37.7121    162.4354   1.0656207819e+02   3.6664793110e+01    0.4657166    0.2538734  71.14  0.001444888    2.346    0.574
        23 -13.4393     55.8378    157.1130   1.0054089912e+02   3.5915706795e+01    0.5756273    0.3579461 -36.82  0.001451033    1.944    0.486
        24  -8.5062    174.6928    149.3179   6.7180748155e+01   1.6691827960e+01    0.1488308    0.1200548 -83.22 0.0004899567    1.633    0.388
        25  -9.8167    133.8054    146.0396   7.6147150554e+01   2.5588351988e+01    0.6290706    0.1816993 -55.78  0.001493126    5.255    0.810
        26 -14.3445     10.3077    206.7710   1.1776214151e+02   2.8387584471e+01     1.198737    0.9289358 -69.67  0.006312773    1.306    0.235
        27 -10.5476     93.6470    141.8385   8.6389935716e+01   3.4168575099e+01    0.3500671    0.3008014 -25.43 0.0008995809    1.278    0.218
        28  -9.7860     97.1386    138.2599   8.4574077618e+01   3.4456387693e+01    0.3530133    0.2540169 -18.07  0.001517053    1.868    0.465
        29 -10.9148     43.7648    140.8317   1.0158717172e+02   4.1623172087e+01    0.3821675    0.2369993  77.66  0.001669548    2.118    0.528
        30  -8.8461    142.7376    138.3576   7.2107211151e+01   2.5569960547e+01    0.1574867     0.123733 -81.38 0.0004937329    1.627    0.385
        31  -9.0498    116.9657    137.4613   7.8697026703e+01   3.0953984803e+01    0.2155458    0.1333609  62.86 0.0004667601    2.288    0.563
        32 -10.8827    106.2646    130.7189   8.0160521474e+01   3.4644570729e+01      0.40685    0.3517971  20.00  0.001018305    1.252    0.201
        33 -11.7715     67.2026    127.6221   9.1562965147e+01   4.2014361435e+01    0.5981546     0.379214 -62.61  0.002698863    1.557    0.358
        34 -11.6043    243.0074    127.9174   5.0446004514e+01   8.2260898289e+00    0.3431202    0.1660535 -43.63  0.001656534    1.702    0.413
        35 -10.8533     93.0593    126.5801   8.3128674032e+01   3.8084441427e+01    0.3009891    0.2733174   2.43 0.0004127616    1.191    0.161
        36  -9.8149    114.2076    124.8690   7.6459038759e+01   3.4509753847e+01    0.3115461    0.2144859   8.83  0.001241154    2.186    0.543
        37 -12.3191     81.2516    139.6175   8.9655641443e+01   3.6800911555e+01    0.3401719    0.2830472 -49.65 0.0004032644    1.161    0.139
        38  -8.7627    162.4027    120.1426   6.3084595824e+01   2.5426867046e+01    0.2148672    0.1390305 -55.15 0.0004203665    1.629    0.386
        39  -9.8083    104.6853    119.0597   7.7775652035e+01   3.7747236054e+01    0.2386993    0.2164704  35.96 0.0003540386    1.123    0.110
        40  -8.8369    168.4917    113.5043   6.0143091735e+01   2.5479440891e+01     0.153084    0.1412206 -69.61 0.0008092176    1.084    0.078
        41 -10.7562     29.0882    219.8652   1.1453468539e+02   2.3483586251e+01    0.3597466    0.1828498  49.95 0.0009859219    1.735    0.424
        42  -9.9726    205.1591    110.5962   5.2574353993e+01   1.8312233071e+01    0.3056037    0.2476232  34.11  0.001292709    1.508    0.337
        43  -8.8901     96.4628    110.9731   7.8195847852e+01   4.1212048725e+01    0.2113585    0.1382872 -76.48  0.000807433    2.402    0.584
        44  -8.9413    110.6058    167.7353   8.6875676203e+01   2.4695406886e+01    0.2094803    0.1476275 -68.56 0.0004816075    1.589    0.371
        45  -8.8802    164.5745     97.5110   5.6953675341e+01   2.9510832534e+01    0.1484102    0.1406038 -65.22 0.0001030966    1.011    0.011
        46 -11.0184     53.0829     90.8300   8.7744060857e+01   5.2915369594e+01    0.3818404    0.1914354 -49.75   0.00111236    1.820    0.450
        47 -10.1814     41.6098     92.1080   9.2465654499e+01   5.4037148894e+01    0.2395961    0.1971418   1.45 0.0005154767    1.273    0.214
        48  -9.3575     40.0881     87.1860   9.1815765410e+01   5.5342673291e+01    0.1784405    0.1627834  61.01 0.0005371268    1.349    0.259
        49 -10.3626    163.3173     84.0131   5.3715615555e+01   3.2308600270e+01    0.2096529    0.1857336 -50.10 0.0005528571    1.112    0.101
        50  -8.8755    184.4889     77.4855   4.8224480653e+01   2.8624072041e+01    0.1396998    0.1297424 -73.12 0.0001149765    1.038    0.037
        51  -8.7605    161.3378     68.2550   4.9924875473e+01   3.5469216279e+01    0.1385705     0.108493  33.04 0.0002952856    1.573    0.364
        52 -11.5550     13.3896     60.0834   9.6019139873e+01   6.3714322703e+01    0.4091678    0.2004136 -50.49  0.001536643    1.683    0.406
        53 -11.3016     11.5227     53.9592   9.5153744072e+01   6.5094702909e+01    0.2744949    0.1561214 -41.18  0.001207578    1.436    0.304
        54 -11.3269     96.0120    243.4434   1.0190383838e+02   9.7397130485e+00    0.2966735    0.2399173 -84.09  0.001280124    1.394    0.283
        55 -12.4809    211.2156     43.8696   3.6779247673e+01   2.7822300840e+01    0.5861568    0.4337099 -73.65  0.001956403    1.195    0.163
        56 -11.1018     22.3465    222.3154   1.1619239836e+02   2.3646428083e+01     0.484958    0.2653154   7.48  0.002146526    3.528    0.717
        57 -10.0317     23.8028    231.6156   1.1652382561e+02   2.1436550708e+01    0.2906382      0.13877  29.27  0.001327422    2.202    0.546
        58  -9.9700      2.0000     50.9770   9.8980244466e+01   6.6305449088e+01    0.1959827    0.0583429 -59.86 0.0008040905    2.954    0.661
        59  -9.5309     22.4594     49.4368   8.8416188845e+01   6.5053302775e+01    0.1934041    0.1766294 -16.95  0.001324679    1.196    0.164
        60 -10.8945    123.9813     31.9689   4.6701731489e+01   4.9400923783e+01    0.3520987    0.2387087 -80.04 0.0009723089    1.973    0.493
        61 -13.2249     21.1297    201.3585   1.1488379364e+02   2.8628990190e+01    0.5960177    0.3992533 -65.60  0.001208779    1.450    0.310
        62 -11.0411     23.9899    224.9932   1.1602710160e+02   2.2875202116e+01    0.4120581    0.2019843  45.07  0.002166542    1.756    0.430
