#   1 NUMBER                 Running object number                                     
#   2 MAG_AUTO               Kron-like elliptical aperture magnitude                    [mag]
#   3 X_IMAGE                Object position along x                                    [pixel]
#   4 Y_IMAGE                Object position along y                                    [pixel]
#   5 X_WORLD                Barycenter position along world x axis                     [deg]
#   6 Y_WORLD                Barycenter position along world y axis                     [deg]
#   7 A_WORLD                Profile RMS along major axis (world units)                 [deg]
#   8 B_WORLD                Profile RMS along minor axis (world units)                 [deg]
#   9 THETA_WORLD            Position angle (CCW/world-x)                               [deg]
#  10 FWHM_WORLD             FWHM assuming a gaussian core                              [deg]
#  11 ELONGATION             A_IMAGE/B_IMAGE                                           
#  12 ELLIPTICITY            1 - B_IMAGE/A_IMAGE                                       
         1 -13.0943    243.9726     54.7245   6.5503622519e+00   1.8675469508e+01     1.851123    0.9928613 -81.40  0.009091002    2.585    0.613
         2 -14.6717    217.4117     71.3653   1.3155059190e+01   2.1670952325e+01     2.236235     1.164495 -47.78    0.0106814    1.758    0.431
         3 -15.0937    244.3536     74.6261   1.0801998475e+01   1.5912553722e+01     3.120017     1.641338 -58.02   0.01552218    2.134    0.531
         4 -14.1187    239.9717     16.9808   3.5877112821e+02   2.4015197722e+01     2.180929     1.438267 -48.14   0.01405437    1.210    0.174
         5 -13.3189    148.2344     15.9743   7.0478094675e+00   4.5490592297e+01    0.4063076    0.3368832 -67.62  0.002346974    1.177    0.151
         6 -13.3431    218.8496     27.2084   2.5710309777e+00   2.7238738756e+01    0.6584168    0.3545481 -54.07  0.003141215    1.630    0.387
         7 -12.7014    199.5130    198.2165   4.3231464461e+01   4.2753997304e+00    0.3445727    0.2250457 -52.08  0.001829745    2.203    0.546
         8 -13.7939    247.3910    198.3920   3.4959027635e+01  -2.2407176962e+00     1.051188    0.5264699 -21.82   0.00588237    1.855    0.461
         9 -15.2319    226.8934    218.5086   4.1711924170e+01  -2.3073904196e+00     1.758521    0.8172722 -45.76  0.008592449    3.210    0.688
        10 -15.8562    244.6423    241.3163   4.2335954774e+01  -7.0763331769e+00     2.410863       1.3411 -15.97   0.01614389    1.563    0.360
        11 -14.1942    225.2689    239.7030   4.5305221842e+01  -4.7387549000e+00     1.012526    0.4882508 -43.85  0.005511637    2.992    0.666
        12 -14.4737    186.9134    245.2881   5.3027429700e+01  -7.4822509696e-01    0.6991922    0.5899496 -29.46  0.005131489    1.473    0.321
        13 -15.2709    189.3576    233.8122   5.0915176241e+01   4.8458424612e-01     1.452504     1.206916  -8.74  0.007742927    1.200    0.166
        14 -14.7401    133.5817    246.8849   6.3819482146e+01   6.1445601877e+00     1.264328    0.9947678   9.82  0.008459152    1.279    0.218
        15 -14.4943    129.6854    235.6308   6.3291811897e+01   8.4970091557e+00     1.376924    0.7699047 -26.31  0.006575115    2.853    0.649
        16  -9.6884    224.4096    178.1613   3.5085668223e+01   3.6521600024e+00    0.8933434    0.6266555  65.48  0.004406326    3.185    0.686
        17 -15.1895    193.9360    159.2772   3.6936610962e+01   1.1592609479e+01     1.096459    0.8953735  78.91  0.005859059    1.945    0.486
        18 -14.9282    209.5844    167.8512   3.5718499470e+01   7.5270069790e+00     1.506447    0.9083218 -61.28  0.006147012    3.644    0.726
        19 -12.1986    247.2595    179.0310   3.1544332502e+01   3.5040665965e-01    0.3790027     0.175337 -37.93   0.00200012    1.987    0.497
        20 -13.3599    238.8038    155.7252   2.8444929171e+01   4.8600221894e+00    0.8101069    0.3377055 -39.92  0.003801575    2.179    0.541
        21 -14.1444    235.1067    147.5306   2.7390547095e+01   6.6536590133e+00     1.260087    0.6147374 -51.51  0.005367778    3.074    0.675
        22 -13.9549    228.4468    141.5033   2.7201813815e+01   8.6512968058e+00    0.9493394    0.4903303  54.11  0.004457523    2.664    0.625
        23 -13.5544    155.1316    158.5819   4.5043522981e+01   1.8800716069e+01     1.077482    0.7404243 -78.79  0.004456378    2.680    0.627
        24 -11.2140     59.2225    146.2125   6.9178958925e+01   3.8143472166e+01    0.2110348    0.1594308  61.33  0.001070627    1.337    0.252
        25 -11.7991    141.5054    143.4920   4.5116544953e+01   2.4578484544e+01    0.2781624    0.2555012  44.76 0.0009776206    1.092    0.084
        26 -12.5808    141.6761    137.4012   4.3716017413e+01   2.5856811882e+01    0.6520878    0.3382049 -44.88  0.002611772    1.959    0.489
        27 -13.9938    192.6235    139.1654   3.2926227870e+01   1.5393294420e+01    0.9371685    0.6171165  75.12  0.003826614    3.079    0.675
        28 -13.9282    180.1918    133.0028   3.3996226249e+01   1.8939431703e+01    0.9929613    0.5397233 -46.84  0.004282288    1.893    0.472
        29 -12.9685    217.8480    139.1002   2.8413713527e+01   1.0826071847e+01     0.424792    0.3050957 -14.83  0.002337291    1.447    0.309
        30 -13.5344    216.5886    134.3000   2.7600593978e+01   1.1831766908e+01    0.3410098    0.2845381 -52.25  0.002021471    1.351    0.260
        31 -13.1284    166.6489    137.3932   3.7859139915e+01   2.0805199877e+01    0.6050572    0.4380192 -44.05  0.002464119    1.384    0.277
        32 -15.1739    215.9627     95.2656   1.8958954501e+01   1.8301207146e+01     1.602673    0.5223064 -32.54  0.005373104    3.120    0.680
        33 -11.8998    223.0106     45.0466   6.3515060417e+00   2.4143119427e+01    0.9836958    0.5553995  -5.30  0.003769133    4.220    0.763
        34 -13.7016    158.7076    192.3744   5.0582451114e+01   1.1656601743e+01    0.6620491    0.4480895 -56.05  0.003326527    1.883    0.469
        35 -12.7098    231.8013    189.5695   3.5928447119e+01   9.6037388731e-01    0.4901644    0.2443256 -42.46  0.002531801    2.224    0.550
        36 -14.1168    245.1428    117.0959   1.9721647301e+01   9.6181281666e+00     2.457322     1.052409 -40.28   0.01168091    1.960    0.490
        37 -13.7978    127.1408    226.3010   6.2674395141e+01   1.0454711153e+01    0.9404224    0.6256642 -71.08  0.005111939    2.213    0.548
        38 -11.9206    167.2383    127.4210   3.5421081643e+01   2.2652117940e+01     0.411689    0.2502257 -48.80  0.001580538    1.716    0.417
        39 -13.3989    218.1645    125.1814   2.5370659198e+01   1.3041949062e+01     0.553311    0.2597709 -42.29  0.002481603    1.961    0.490
        40 -11.2681    125.0949    126.1742   4.5424634000e+01   3.1726220824e+01    0.3630786    0.2051627 -58.77  0.001405698    2.105    0.525
        41 -11.4415    155.2144    125.1523   3.7580037386e+01   2.5631478238e+01    0.3826035    0.1664623 -50.55  0.001340152    2.592    0.614
        42 -12.6918    172.6778    119.8704   3.2458029835e+01   2.2979128945e+01    0.6087933    0.4076776 -44.36  0.002862776    1.467    0.318
        43 -13.5750    222.4621    112.2253   2.1853716497e+01   1.4345305747e+01     1.161774    0.3367903 -35.35   0.00409785    3.131    0.681
        44 -15.9267    196.8237    103.5664   2.3933257971e+01   2.0846621452e+01     1.915481    0.6830602 -38.47  0.007032921    2.561    0.610
        45 -11.6083    121.6264    109.3947   4.2173440070e+01   3.6237343286e+01    0.4249236    0.2443022 -61.15   0.00160054    2.244    0.554
        46 -11.3527    158.4989    108.4959   3.2673071677e+01   2.8279046072e+01    0.1507156    0.1480155 -54.99 -5.877589e-06    1.023    0.022
        47 -12.3839    140.5751    103.7094   3.5634819869e+01   3.3278616466e+01    0.6487907    0.2817251 -44.14  0.002319426    2.306    0.566
        48 -12.3214    162.2732    102.3501   3.0248323978e+01   2.8630454569e+01    0.2918476    0.1898947 -28.61   0.00127025    1.720    0.418
        49 -11.3808     57.1124     99.7594   6.1216205172e+01   5.0390936710e+01    0.2616742    0.1988721 -74.52 0.0008017339    1.403    0.287
        50 -11.1797    238.1682     96.0150   1.6143161382e+01   1.3960817313e+01     0.397804    0.3076814 -77.15  0.002281933    1.619    0.382
        51 -12.5018    234.8704     88.6415   1.4939016703e+01   1.5660239757e+01    0.5768068    0.4090905 -46.71  0.003385799    1.242    0.195
        52 -13.2593    169.3867     93.4077   2.6414807605e+01   2.8686286782e+01     0.536974    0.3330493 -63.42  0.002203259    2.175    0.540
        53 -11.6833    170.0253    112.6944   3.1249968492e+01   2.4923776083e+01    0.2733747    0.2100224 -64.10 0.0009584549    1.541    0.351
        54 -14.4005    155.2354     79.1254   2.5365426329e+01   3.4612865553e+01     1.008503    0.6444367 -54.73  0.004242965    1.723    0.419
        55 -11.1095    212.1785     81.2908   1.6202447468e+01   2.1265848546e+01    0.1919619    0.1435867 -60.16  0.001046035    1.363    0.266
        56 -11.7352    180.4845     74.7467   1.9379379528e+01   2.9346481262e+01    0.2837934    0.2714961 -68.60  0.001345972    1.026    0.025
        57 -12.9283    144.7690     70.2812   2.5004125637e+01   3.8734893041e+01    0.5596721    0.3458467 -44.26  0.002457067    1.629    0.386
        58 -14.0931    201.6421     60.2315   1.2445527743e+01   2.6721054172e+01    0.8040445    0.3443733 -41.33  0.003427638    2.057    0.514
        59 -13.2479    161.4346     47.4305   1.4834425862e+01   3.8209543547e+01    0.6438326    0.3000315  64.75  0.002609466    2.107    0.525
        60 -11.5130    250.4272     45.2678   3.9932779167e+00   1.8666052919e+01    0.2954112   0.08852915 -35.82  0.001279088    2.563    0.610
        61 -11.7103    200.8079     42.0860   7.9520383644e+00   2.9418605366e+01    0.5406868    0.2434527 -45.81  0.002416839    1.990    0.497
        62 -12.5032    166.4460     41.0350   1.2140271101e+01   3.7839499297e+01    0.4017333    0.2129698 -58.71  0.001675252    2.194    0.544
        63 -13.1335    128.4766     34.8657   1.6867623702e+01   4.8364605825e+01    0.8523771    0.3529837 -40.16  0.003291315    2.473    0.596
        64 -13.3365    182.5950    200.6928   4.6975859746e+01   6.4284295905e+00    0.5193258     0.456234  65.09  0.003190336    1.696    0.410
        65 -11.6226    219.5011     19.9025   8.2278164418e-01   2.7936112828e+01    0.2413078    0.1852815 -51.22  0.001050628    1.117    0.105
        66 -12.4627    147.7854     27.0122   1.0687960065e+01   4.4375923452e+01    0.4804569    0.2435269 -52.81  0.002025319    2.202    0.546
        67 -13.1894    176.2748    197.5827   4.7732664569e+01   7.9214400616e+00    0.3278115    0.2901391  78.01  0.001604669    1.721    0.419
