#   1 NUMBER                 Running object number                                     
#   2 MAG_AUTO               Kron-like elliptical aperture magnitude                    [mag]
#   3 X_IMAGE                Object position along x                                    [pixel]
#   4 Y_IMAGE                Object position along y                                    [pixel]
#   5 X_WORLD                Barycenter position along world x axis                     [deg]
#   6 Y_WORLD                Barycenter position along world y axis                     [deg]
#   7 A_WORLD                Profile RMS along major axis (world units)                 [deg]
#   8 B_WORLD                Profile RMS along minor axis (world units)                 [deg]
#   9 THETA_WORLD            Position angle (CCW/world-x)                               [deg]
#  10 FWHM_WORLD             FWHM assuming a gaussian core                              [deg]
#  11 ELONGATION             A_IMAGE/B_IMAGE                                           
#  12 ELLIPTICITY            1 - B_IMAGE/A_IMAGE                                       
         1 -13.1606    165.5736     55.5528   5.1297193243e+01   3.6404605131e+01     1.096781      1.04498  70.89  0.004302443    1.033    0.032
         2 -13.3053    181.3958     28.3492   4.1400718575e+01   3.6204973562e+01     1.061152    0.8277276 -54.50  0.004266806    1.268    0.211
         3  -9.8869    219.6758     11.3484   3.3325594478e+01   2.9357039776e+01    0.2627635    0.1185868 -57.08  0.001292183    2.119    0.528
         4 -11.2109    119.3461      9.9795   4.5746742597e+01   5.2957199447e+01    0.6065088    0.3540143  43.43  0.002777601    1.589    0.371
         5  -9.7279    215.0718      7.8698   3.2948771451e+01   3.0728489102e+01    0.2865723    0.1292371 -64.07  0.001357296    2.335    0.572
         6 -11.7738    240.0977      3.3212   3.0166378859e+01   2.5921233407e+01    0.7262034     0.320039  73.64  0.003957263    2.103    0.525
         7  -9.9683    172.3613      3.6471   3.6014892804e+01   4.0920370071e+01    0.2075397    0.1290351 -68.24 0.0009331115    1.689    0.408
         8 -11.4696    188.0343    171.4675   7.5590386959e+01   9.6959639436e+00    0.4488067    0.4135633 -74.49  0.001056587    1.359    0.264
         9 -19.2287     63.7684    215.9599   1.1123825625e+02   2.1050525115e+01     6.285903     5.517667 -65.23   0.02084566    1.277    0.217
        10 -10.3496    187.2674    166.2254   7.4652671432e+01   1.0859592384e+01    0.4500339    0.2930773 -55.13  0.001707439    1.853    0.460
        11 -11.2665    160.7753    226.1975   9.1416288764e+01   4.1993419192e+00    0.4892269     0.274806 -45.00    0.0024552    1.977    0.494
        12 -10.9263    157.5067    219.9866   9.1123840891e+01   5.8407752701e+00     0.289939    0.2335099 -30.27 0.0008898508    1.347    0.258
        13 -11.7894    153.0109    217.4155   9.1677506704e+01   7.0549330539e+00    0.6573986    0.4207751 -47.33  0.002328793    1.724    0.420
        14  -9.0601      4.7552    174.0851   1.2074736293e+02   3.6838872872e+01    0.2425485   0.09290021 -56.50 0.0005930297    2.547    0.607
        15  -9.5092    192.7088    165.1530   7.3295835227e+01   1.0042963348e+01    0.2816617    0.2074398  31.68 0.0008321197    1.386    0.279
        16  -8.8206     17.9964    154.9680   1.1578961571e+02   4.0310017066e+01    0.1900867    0.1295399 -47.98 0.0004419169    1.575    0.365
        17  -9.6090     18.0681    149.5674   1.1519057299e+02   4.1616790191e+01    0.3538635    0.2556043 -59.09  0.001812673    1.284    0.221
        18 -10.0319    201.2957    227.8189   8.3460196754e+01  -2.3954796846e+00     0.265974    0.2319902  82.48   0.00120093    1.990    0.498
        19 -10.8991    177.4865    218.4541   8.6663224389e+01   2.8502746194e+00    0.2878346    0.2228734  40.67  0.001010477    1.304    0.233
        20 -11.2122    177.0046    213.9875   8.6001220524e+01   3.7087837517e+00    0.3873289     0.312341  67.37   0.00099344    1.799    0.444
        21  -9.9731    186.6240    139.3041   6.8826235104e+01   1.6323346564e+01    0.2559741    0.2362006   2.00  0.000321798    1.103    0.093
        22 -10.3256    221.3554    221.7995   7.8604764231e+01  -4.4245471976e+00     0.217076    0.1826178   6.27 0.0002669862    1.091    0.083
        23 -11.0536     32.9515    131.6374   1.0864681048e+02   4.4717766174e+01    0.3879045    0.2180203 -67.06  0.001278354    1.537    0.349
        24 -10.1141     29.5381    127.8156   1.0909710835e+02   4.5980628940e+01    0.4163643    0.2571738  -4.18  0.002036989    2.339    0.572
        25 -11.0826     14.4788    221.1628   1.2186889526e+02   2.5570703399e+01    0.1861166    0.1349086  78.78 0.0004359284    1.098    0.089
        26 -11.3808    160.6395    129.1890   7.2112003640e+01   2.3879700852e+01    0.3840999    0.3238215 -48.20  0.001323157    1.183    0.155
        27 -11.2239    150.1333    126.8099   7.4017102170e+01   2.6642399117e+01    0.2891138    0.2539947  43.89 0.0006074901    1.158    0.136
        28 -12.6880     47.0054    249.8836   1.1753839594e+02   1.6297844065e+01    0.3873564    0.1364106  46.76  0.001924022    2.191    0.544
        29 -14.1572     35.5508    235.4053   1.1870551659e+02   2.0441774615e+01     0.352505    0.3024569 -77.49  0.001530124    1.316    0.240
        30 -11.3239     43.9207    114.1499   1.0218790431e+02   4.7922796350e+01    0.3084576    0.2730815  10.16  0.001823272    1.278    0.218
        31 -10.7061    168.0537    113.7604   6.6588750215e+01   2.5451075705e+01    0.4091768    0.3272219 -68.54 0.0009209715    1.473    0.321
        32 -11.9223    170.0808    220.8095   8.8598256375e+01   3.6410262416e+00    0.7828515     0.467208 -11.80  0.003412797    2.682    0.627
        33 -11.6979     12.4557    207.1506   1.2139393380e+02   2.8738413459e+01    0.4650778     0.274792  43.05  0.002451448    1.594    0.373
        34  -9.0788     21.0162    108.6973   1.0875953454e+02   5.1367780329e+01    0.1684447    0.1560095 -39.19 0.0003830642    1.150    0.131
        35 -10.6820     46.0885    105.9152   9.9781332239e+01   4.9681840672e+01    0.2940781    0.1964625  23.44 0.0009029136    1.685    0.407
        36 -11.7039     39.2932    102.9705   1.0148731014e+02   5.1114950211e+01      0.68738    0.3076164  23.20  0.002972954    2.583    0.613
        37 -10.7545     33.6028     97.4423   1.0231887111e+02   5.2987208654e+01    0.3802264    0.3090253  51.50  0.002246306    1.482    0.325
        38 -10.1351     27.7287     99.4454   1.0479664265e+02   5.3039690113e+01    0.2460462    0.1957943 -43.01 0.0005724621    1.140    0.123
        39  -9.6818     22.4830     99.6082   1.0666045400e+02   5.3430051749e+01     0.255961    0.1824958 -33.33  0.001266553    1.415    0.293
        40  -8.4391     16.2820    203.2695   1.2033931470e+02   2.9224619186e+01    0.1629186    0.1429126 -79.06 0.0002807814    1.243    0.196
        41 -10.4050     91.5233     95.4864   8.1992977116e+01   4.5449440878e+01    0.3448024    0.2502057  51.03 0.0009337773    1.562    0.360
        42  -9.3474     70.3384     95.0909   8.8862841163e+01   4.9049207595e+01    0.2303653    0.1901691  11.35 0.0003027266    1.306    0.234
        43  -8.7553    191.2928     92.5121   5.6526861621e+01   2.4246801018e+01    0.2685004    0.1272903 -37.83  0.001044302    2.031    0.508
        44 -10.1596     54.2430     90.9890   9.3416641326e+01   5.2216498600e+01    0.3911859    0.2035859  26.32  0.001062036    2.131    0.531
        45 -10.1420      3.8232     90.4784   1.1163881825e+02   5.6785954521e+01    0.3306491    0.1692073 -22.58  0.001674232    2.356    0.576
        46 -10.3988     95.2950     89.8190   7.9176999545e+01   4.5984170406e+01    0.2526597    0.2365585   7.62 0.0002386041    1.058    0.055
        47 -10.4625    156.1303    231.2434   9.3166134411e+01   4.0592127598e+00    0.8681649    0.2901773 -43.83  0.002079619    3.400    0.706
        48 -10.7892      1.4041    201.3541   1.2328912465e+02   3.0976990119e+01    0.3713672   0.08282131 -73.49  0.001486332    3.472    0.712
        49 -11.4472     16.0963    195.7265   1.1983551595e+02   3.0918008411e+01    0.2949916    0.2075928 -63.64  0.000703107    1.454    0.312
        50 -11.8704    209.9740    183.5155   7.3622014333e+01   3.5747337006e+00    0.5625579     0.323479  21.89  0.002564802    2.082    0.520
        51 -10.7420    201.8981    185.1415   7.5530611722e+01   4.6636190712e+00    0.3211575      0.21679  26.29  0.001320547    1.503    0.334
        52 -10.1760    147.1036     75.8597   6.0925970495e+01   3.7524895568e+01    0.2828086    0.2475135 -85.35  0.001002056    1.283    0.220
        53 -12.4092    154.6656     68.9348   5.7260467810e+01   3.6920400547e+01     1.426032    0.7766379  69.10  0.003560312    2.373    0.579
        54 -11.7736    170.7857     47.2743   4.8078571893e+01   3.6333817055e+01    0.4837779    0.4677781  68.96  0.000785522    1.082    0.076
        55 -11.9868    163.6684     62.4844   5.3612464829e+01   3.5804569248e+01    0.5488802    0.4562283 -62.34  0.001758808    1.262    0.207
        56  -9.2369    105.7067    246.6016   1.0567699425e+02   9.0627981076e+00    0.1673209    0.1373466 -45.69 0.0005740058    1.500    0.333
        57  -9.2465     37.3771     70.2832   9.4219799326e+01   5.8737128834e+01    0.2339257    0.1611027 -58.64  0.001282084    1.485    0.326
        58 -10.3272    194.2941    181.3147   7.6303554672e+01   6.6917049013e+00     0.338848    0.1629142 -50.09  0.001069444    2.472    0.595
        59  -9.1159    202.5896    245.7024   8.6115153841e+01  -5.2275653472e+00     0.143269    0.1145629 -39.25 0.0009345172    1.552    0.356
        60 -10.4798    184.4460     40.4919   4.4165210354e+01   3.3968382988e+01     0.259993    0.2451336  80.85 0.0006441913    1.085    0.078
        61 -10.8369    185.9154     36.0103   4.2795873558e+01   3.4195212739e+01    0.3024946    0.2789898  54.81 0.0005747001    1.196    0.164
        62  -9.8425    203.6401     38.4363   4.1150238791e+01   2.9747408301e+01    0.2583574    0.2079207 -72.30 0.0005921924    1.145    0.127
        63 -11.6806    156.6761    178.8918   8.3995004423e+01   1.4057880843e+01    0.5079534    0.3529781  37.37  0.002461637    1.398    0.284
        64  -8.4012    125.0332     32.0515   5.2106194753e+01   4.9315817270e+01    0.1574548    0.1488059  37.25  0.000311319    1.053    0.050
        65 -10.8336    211.8556     30.2453   3.8289801835e+01   2.8915508987e+01    0.3280301    0.2439408 -44.43 0.0007367613    1.297    0.229
        66 -10.9372    207.1655     26.5184   3.7916697131e+01   3.0420734252e+01    0.3171348    0.2131918 -84.42  0.001785843    1.446    0.308
        67  -8.1474    230.6571     25.7359   3.5475293119e+01   2.5366135710e+01    0.1113263   0.09039238  48.60 0.0004897012    1.599    0.375
        68 -10.4159    223.5078     16.0017   3.4009162481e+01   2.8019096946e+01    0.2628235    0.1416859 -57.73    0.0014286    1.692    0.409
        69  -8.8565    117.4720    244.1995   1.0298848142e+02   7.7564473054e+00    0.2628828    0.1172228  37.62  0.001243779    1.885    0.469
        70 -10.5647    189.9814     15.5101   3.7104368396e+01   3.5613170300e+01    0.2435954    0.1567691 -53.56 0.0007880224    1.516    0.340
        71 -10.3948    188.9664    241.6378   8.8109619990e+01  -2.6716098566e+00    0.2486973    0.1389316  43.32  0.001301799    1.867    0.464
        72  -9.6158    198.4955    239.1087   8.5856160757e+01  -3.6886938856e+00     0.169554    0.1169147 -33.23 0.0005904688    1.539    0.350
        73 -10.4687    221.3742    176.6618   7.0092262254e+01   2.8526032544e+00    0.4242344    0.2246663 -50.72   0.00185051    2.403    0.584
