#   1 NUMBER                 Running object number                                     
#   2 MAG_AUTO               Kron-like elliptical aperture magnitude                    [mag]
#   3 X_IMAGE                Object position along x                                    [pixel]
#   4 Y_IMAGE                Object position along y                                    [pixel]
#   5 X_WORLD                Barycenter position along world x axis                     [deg]
#   6 Y_WORLD                Barycenter position along world y axis                     [deg]
#   7 A_WORLD                Profile RMS along major axis (world units)                 [deg]
#   8 B_WORLD                Profile RMS along minor axis (world units)                 [deg]
#   9 THETA_WORLD            Position angle (CCW/world-x)                               [deg]
#  10 FWHM_WORLD             FWHM assuming a gaussian core                              [deg]
#  11 ELONGATION             A_IMAGE/B_IMAGE                                           
#  12 ELLIPTICITY            1 - B_IMAGE/A_IMAGE                                       
         1 -14.6100    244.3331     12.7468   3.5766023209e+02   2.4725358152e+01     2.116373    0.7219774 -48.21   0.01140814    2.264    0.558
         2 -11.3093      9.4260      2.1229   4.4902986944e+01   7.3159364899e+01     0.516017    0.1804556  28.87  0.002653833    2.496    0.599
         3 -12.0659     10.8851     15.1254   5.0256116358e+01   7.1352147458e+01     0.382441    0.1992159 -14.59  0.002146477    2.010    0.503
         4 -12.1078      4.4946     16.4532   5.4533397568e+01   7.1757635378e+01    0.4668005    0.2546651  -5.87  0.002789894    1.758    0.431
         5 -12.0743      5.6824      9.2919   5.0615927987e+01   7.2645962995e+01    0.6730328    0.3111736   5.93  0.003489623    2.500    0.600
         6 -11.0805      1.9471      3.9071   5.0314822649e+01   7.3694952790e+01    0.3616675    0.1773514 -37.89  0.002240163    2.002    0.500
         7 -10.7612     31.1905      9.2246   3.6875906541e+01   6.9592011532e+01    0.2034056     0.101262  10.24 0.0009545815    2.812    0.644
         8 -11.9490     16.0092      8.0224   4.4079646048e+01   7.1713626623e+01    0.3871951    0.2036335   2.81  0.002125737    2.170    0.539
         9 -11.3993     18.5748      3.1141   4.0271836837e+01   7.1967458687e+01    0.3429226    0.1762223  19.44  0.002012401    1.774    0.436
        10 -11.5339     26.6362      4.4667   3.6797330802e+01   7.0748806030e+01    0.4056277    0.2081963   4.41   0.00207737    2.572    0.611
        11 -12.7947      8.3467     25.8353   5.6195535035e+01   7.0014645552e+01    0.5858303    0.2233238 -37.50  0.002976573    2.287    0.563
        12 -11.4995     23.3568     21.2646   4.6227810797e+01   6.9140194801e+01    0.3647254    0.1901293  -4.96  0.001796079    2.531    0.605
        13 -11.2977    242.2130    237.2342   3.9420684179e+01  -1.0220704438e+01    0.5462063    0.2458397 -18.70   0.00223184    2.936    0.659
        14 -11.6521    243.2677    245.2624   4.0560339343e+01  -1.1495988554e+01     0.612273    0.2394232 -28.20  0.002917207    2.558    0.609
        15 -10.4677    248.1788    233.8237   3.7814572918e+01  -1.0391391840e+01    0.2646821    0.1730646 -18.91 0.0009473989    1.257    0.204
        16 -11.4836    247.1913    227.0344   3.6838969775e+01  -9.2735642813e+00    0.5708054    0.2156914 -32.89  0.002695151    2.373    0.579
        17 -11.0010    249.0255    249.4908   4.0244438686e+01  -1.2702556158e+01    0.3870284    0.2179895 -16.05  0.002225656    1.605    0.377
        18 -11.5213    248.9333    240.7033   3.8827292899e+01  -1.1465895446e+01    0.5329155    0.2017979 -35.87  0.002645118    2.266    0.559
        19 -10.7876    233.9998    250.4991   4.3065564487e+01  -1.1209063191e+01    0.2661929    0.1287965  27.12  0.001476644    1.960    0.490
        20 -11.8084    234.1307    244.3779   4.2045040784e+01  -1.0342653183e+01    0.4919375    0.2661958 -14.58  0.002658447    1.960    0.490
        21 -10.3412    212.9985    250.4978   4.6992769731e+01  -8.7228046788e+00    0.3045079    0.1058969  30.98  0.001348849    2.672    0.626
        22 -10.7038    201.6797    249.0135   4.8970197811e+01  -7.0552678095e+00    0.4371392    0.2286587   7.07  0.002003321    2.524    0.604
        23 -10.3468    185.0079    250.4458   5.2576606296e+01  -5.0512559032e+00    0.3374783     0.109838  32.63  0.001359086    2.744    0.636
        24 -11.3860     65.1402    249.1549   7.8835629118e+01   1.2601758057e+01    0.4699914    0.2021448  43.04  0.001969898    1.914    0.478
        25  -9.9695     27.2600    250.3796   8.6975189980e+01   1.7017480933e+01    0.2276638    0.1470415  40.03  0.001382814    1.394    0.283
        26 -11.0550     21.3976    248.6548   8.8055556991e+01   1.8026096197e+01    0.4354356    0.1883044  44.26   0.00181246    1.854    0.461
        27 -10.3330     83.5147    246.8503   7.4513125408e+01   1.0545063977e+01    0.2881935    0.1356349  46.61  0.001241862    1.892    0.471
        28 -10.6530     51.4195    249.9101   8.1880265901e+01   1.4228135868e+01    0.3035302    0.1497638  39.18  0.001543241    1.702    0.413
        29 -11.2050    210.6441    245.1198   4.6577500304e+01  -7.6040821381e+00    0.3979724    0.1247328 -38.60  0.001641994    3.104    0.678
        30 -10.4975     45.4986    244.6280   8.2716110408e+01   1.6083067945e+01    0.3409145    0.1749991  40.55  0.001765735    1.650    0.394
        31 -11.8578      3.8764    242.1913   9.1191458272e+01   2.1189696124e+01    0.4792248    0.2402399  70.97  0.001883206    1.774    0.436
        32 -12.0562    148.4189    243.4526   5.9366731134e+01   1.4852511350e+00    0.4581796    0.2176472  25.66  0.001976278    2.135    0.532
        33 -10.8396    115.9960    243.4761   6.6708098217e+01   6.4327935681e+00    0.2181426    0.1184931  34.96  0.001032493    1.596    0.373
        34 -10.3712     62.1955    241.3655   7.8745213786e+01   1.4644895048e+01    0.3617966    0.1612602  49.38  0.001636412    2.030    0.507
        35 -10.4573     38.0407    241.3189   8.4060320063e+01   1.7696071036e+01    0.3340388     0.142472  53.56  0.001323096    2.135    0.532
        36 -11.3929    108.1640    240.3820   6.8103874184e+01   8.2511776307e+00    0.3562603    0.1916564  56.06  0.001551869    2.262    0.558
        37 -10.7238     72.2124    240.0885   7.6350797507e+01   1.3560772589e+01     0.367698    0.2186908  72.22  0.001774412    2.029    0.507
        38 -10.7032     53.7553    239.7628   8.0482174483e+01   1.6094320610e+01    0.3296793    0.1985366  75.30   0.00151428    1.798    0.444
        39 -11.4937     17.1052    239.0411   8.8328424840e+01   2.0528787539e+01    0.6454234    0.1966058  41.56  0.002901082    2.512    0.602
        40 -11.0490    178.3957    242.6774   5.2730895802e+01  -2.8203027284e+00    0.4305067    0.1775542  23.95  0.001718586    2.734    0.634
        41 -11.6428    125.4402    239.5302   6.4001717737e+01   5.7723392443e+00    0.4460883    0.1783751  42.26  0.001792762    2.299    0.565
        42 -10.7452     29.5382    241.9309   8.5920824435e+01   1.8549381801e+01    0.4267434    0.1726356  41.12  0.001864848    2.022    0.506
        43 -10.9867     82.8445    238.8568   7.3776635631e+01   1.2325306242e+01    0.5023478    0.1604883  35.57  0.001902906    2.632    0.620
        44 -10.0202    195.7206    236.9506   4.8200356239e+01  -4.2968393494e+00    0.4187702    0.2100405   3.54  0.001512538    3.924    0.745
        45 -10.2790     45.1151    236.6716   8.2130452282e+01   1.7856434655e+01    0.3522056    0.1782509  60.39  0.001468409    1.977    0.494
        46 -11.5008    231.6836    234.9644   4.0924340347e+01  -8.6508130677e+00     0.444717    0.2585951 -11.91  0.002442112    1.808    0.447
        47 -11.4491    236.7222    228.1447   3.8859257791e+01  -8.2118413995e+00    0.5386525    0.1852002 -33.13  0.002299117    2.820    0.645
        48 -10.9556    214.0058    240.9830   4.5246320274e+01  -7.3879284894e+00    0.3553287    0.1608083 -23.10  0.001529289    2.851    0.649
        49 -10.9984      6.7272    235.2537   9.0237047555e+01   2.2398109725e+01     0.268638    0.1402993  62.50  0.001132769    1.654    0.395
        50 -10.5936     95.1719    235.1295   7.0460987971e+01   1.1315915738e+01    0.4019499    0.1505245  36.84  0.001593086    2.277    0.561
        51 -10.9572    193.7260    243.9346   4.9752147797e+01  -5.1804238607e+00    0.3927102    0.1731043  19.53   0.00162401    2.792    0.642
        52  -9.9315    175.4348    232.5425   5.1716092580e+01  -5.9575017810e-01      0.32877    0.1832609 -62.77  0.001336656    3.349    0.701
        53 -11.2767     32.3609    231.9470   8.4563388019e+01   2.0418157397e+01    0.4561643    0.2285481  66.31  0.002197153    2.053    0.513
        54 -10.3679    214.0503    231.7507   4.3687370690e+01  -5.9213201179e+00    0.2696362    0.2040648 -66.37  0.001460127    2.478    0.596
        55 -10.2247     11.6863    232.0667   8.9019970150e+01   2.2605380525e+01     0.244652    0.1618784  61.18  0.001117212    1.263    0.208
        56 -10.7422     62.7347    229.4498   7.7423377310e+01   1.7201307864e+01    0.3777387    0.2056144  61.06  0.001549951    1.980    0.495
        57  -9.5489    126.3508    230.6712   6.2512148061e+01   7.4302813690e+00    0.1464191    0.1028221  61.12 0.0007048078    1.767    0.434
        58 -10.3698    103.3160    229.5624   6.7810499202e+01   1.1278869810e+01    0.2852417     0.115762  38.55  0.001137081    2.139    0.533
        59  -9.8545     40.0596    229.0158   8.2602943492e+01   2.0178575864e+01    0.2245462    0.1258306  61.17  0.001094038    1.717    0.418
        60 -11.0046     21.4021    228.5360   8.6708220449e+01   2.2389707768e+01     0.423861    0.1508384  38.45  0.001928398    2.347    0.574
        61 -10.9262      5.9924    226.9150   8.9901674300e+01   2.4300884056e+01    0.3594452    0.2408481  83.43  0.002024287    1.269    0.212
        62 -10.0646    230.0105    227.2511   3.9917785145e+01  -7.2497374057e+00    0.2381582    0.1319765 -26.17   0.00128406    1.673    0.402
        63  -9.7312     47.9580    228.9725   8.0799942431e+01   1.9224603474e+01    0.2220063    0.1314232  63.40 0.0007818797    1.671    0.402
        64 -10.3150     11.7463    226.2874   8.8640833219e+01   2.3883766164e+01    0.2844535    0.1482459  63.04  0.001505367    1.738    0.425
        65 -10.3385    223.7572    225.6403   4.0794897964e+01  -6.1986954004e+00    0.2727239     0.118417 -20.00 0.0009530681    4.201    0.762
        66 -10.0702     73.8672    225.8410   7.4391347228e+01   1.6482654235e+01     0.368383   0.07656558  34.65  0.001130161    3.861    0.741
        67 -10.0512    216.5291    222.2001   4.1562376470e+01  -4.6788031171e+00    0.3128483    0.1105748 -39.99  0.001308597    2.622    0.619
        68 -11.0254     19.3095    221.5657   8.6665203661e+01   2.4189988676e+01    0.5135021     0.150339  47.01  0.002078624    2.879    0.653
        69 -10.1630     55.3502    221.8447   7.8372994637e+01   1.9918680502e+01    0.2394628    0.1656636  49.30 0.0007734309    1.300    0.231
        70 -10.7086      2.1869    220.4228   9.0320820262e+01   2.6109227323e+01     0.344777    0.1747496  86.29  0.001583026    1.795    0.443
        71 -11.3569    239.6408    219.6676   3.6882382217e+01  -7.2456218681e+00    0.3946284    0.2087963 -21.24  0.002030698    1.975    0.494
        72 -10.4505     43.7126    220.7789   8.1017609392e+01   2.1629555138e+01    0.2781453    0.1831435  54.85  0.001137018    1.379    0.275
        73 -10.3382    226.8937    218.8001   3.9021054900e+01  -5.4933845943e+00    0.3281792    0.1392599 -22.97  0.001207015    3.721    0.731
        74 -10.0495     99.2318    219.3928   6.7401379124e+01   1.4166729641e+01    0.2168706    0.1167509  43.74 0.0009494582    1.721    0.419
        75 -11.4155    248.1346    213.7248   3.4387033923e+01  -7.3426166200e+00    0.4791324    0.2476828 -27.49  0.002576156    1.754    0.430
        76  -9.5979     56.1239    216.8724   7.7661855981e+01   2.0981521191e+01    0.1624819    0.1517648 -57.19 0.0009898958    1.230    0.187
        77 -10.7892     11.8234    216.2591   8.7952904135e+01   2.6159256186e+01    0.3274212    0.1864826  42.86  0.001819553    1.608    0.378
        78 -10.2343     88.2876    216.0157   6.9640543917e+01   1.6626918186e+01    0.3691647    0.1539882  47.52  0.001402223    2.420    0.587
        79 -10.0039     33.4559    215.0108   8.2898492959e+01   2.4185413009e+01    0.2821964     0.149056  82.05  0.001303755    2.090    0.522
        80 -10.1246    232.2258    213.5458   3.7124345141e+01  -5.3266454635e+00    0.2481122    0.1504825 -36.33  0.001357018    1.452    0.311
        81 -10.6891      3.2007    212.2702   8.9599263635e+01   2.7880601784e+01    0.3116684    0.2018131  47.57  0.001874412    1.422    0.297
        82  -9.8973     45.5790    212.4943   7.9761606730e+01   2.3355859246e+01    0.2535408   0.09462917  42.21  0.001028718    2.356    0.576
        83  -9.9253    213.5680    211.2394   4.0184034160e+01  -2.3957594602e+00    0.1912174    0.1088335 -30.62 0.0007955318    1.664    0.399
        84 -10.4872     25.5285    209.2116   8.4263207644e+01   2.6429270278e+01    0.3391336     0.170643  55.03  0.001629246    1.903    0.474
        85 -10.4204    236.4118    206.9387   3.5204275177e+01  -4.7843109845e+00    0.3573709    0.1649749 -42.38  0.001752333    1.971    0.493
        86 -10.3715    246.9143    206.0470   3.3243306841e+01  -5.9768858629e+00    0.3319307    0.1685264 -33.68  0.001610695    1.661    0.398
        87 -10.5528    250.3344    200.7228   3.1731317546e+01  -5.5463199586e+00    0.4179541    0.1399396 -39.47  0.001827932    2.483    0.597
        88  -9.8382     80.8246    206.8369   7.0273601932e+01   1.9920719079e+01    0.2111193    0.1596706  64.76 0.0008900281    1.371    0.271
        89 -10.1643      2.5939    206.1459   8.9337760368e+01   2.9359226994e+01    0.2541578    0.1561719  65.07  0.001451391    1.456    0.313
        90  -9.8183    123.9504    205.9781   5.9211916694e+01   1.3182061209e+01    0.2111557    0.1965536  37.96   0.00116931    1.031    0.030
        91  -9.6454     51.6672    206.3156   7.7602911948e+01   2.4086231653e+01    0.1499265   0.09241831  63.03 0.0004893989    1.686    0.407
        92 -11.4967     13.4204    204.6288   8.6741082158e+01   2.8736836235e+01    0.4850263    0.2630036  56.19  0.002261095    1.728    0.421
        93 -10.0471    228.0777    202.2782   3.5846771687e+01  -2.8808717665e+00    0.3438978    0.1360292 -29.69   0.00132703    3.050    0.672
        94 -10.1677     29.9034    201.0813   8.2476767631e+01   2.7924548564e+01    0.3076538    0.1505873  62.49   0.00134722    2.237    0.553
        95  -9.4619     61.5237    201.5105   7.4531732539e+01   2.3969963624e+01    0.1447079    0.1261564  68.49 7.653091e-05    1.069    0.065
        96  -9.1714     37.3417    200.6711   8.0588515572e+01   2.7198280154e+01    0.1494752   0.08823424  63.36 0.0007051358    1.742    0.426
        97 -10.1609     21.5526    199.5383   8.4382627083e+01   2.9170273981e+01    0.3128697    0.1450077  61.42  0.001306517    2.325    0.570
        98  -9.6354     45.1456    199.3815   7.8480057955e+01   2.6597149785e+01    0.2020164     0.110094  43.82 0.0007083621    1.729    0.422
        99 -10.0974    237.4392    197.0942   3.3247761714e+01  -3.2763255962e+00    0.3442634    0.1067792 -41.88  0.001369651    2.795    0.642
       100  -9.5419     52.2276    198.4084   7.6552367657e+01   2.5958321380e+01     0.208539    0.1136014  44.07 0.0009497011    1.737    0.424
       101 -11.6385      5.9414    195.2899   8.7799888851e+01   3.1652094522e+01    0.4503505     0.259244  66.85  0.002066388    1.656    0.396
       102 -10.4095    243.6875    199.6809   3.2650147708e+01  -4.5327129204e+00    0.3625337     0.129207 -37.60  0.001577648    2.410    0.585
       103 -11.3532     17.6444    192.4651   8.4723501711e+01   3.1282780974e+01    0.4782384    0.2649866  72.79  0.001946585    1.869    0.465
       104 -10.9077    246.0322    192.5477   3.0971288897e+01  -3.6579045328e+00    0.3453836    0.1622434 -41.91  0.001672906    1.831    0.454
       105  -9.7449     33.4604    193.9887   8.0884166307e+01   2.9285468485e+01    0.2105618    0.1232206 -75.38  0.001030537    1.598    0.374
       106  -9.3943    224.2232    193.2208   3.4875378139e+01  -7.5525103733e-01    0.2066189   0.09580431 -50.19 0.0008791046    2.470    0.595
       107  -9.6959     39.9663    193.0107   7.9106394546e+01   2.8795525035e+01    0.2377308    0.1441919  65.04  0.001131424    1.748    0.428
       108 -11.1887     11.0578    188.9939   8.6060019095e+01   3.2739327487e+01    0.3875348    0.2177401  70.92  0.001781238    1.790    0.441
       109 -10.0440     50.7450    188.8261   7.5776668091e+01   2.8548519840e+01    0.2862636    0.1514431  54.74  0.001226386    2.038    0.509
       110 -10.8508      3.8027    188.2585   8.7784319654e+01   3.3534601188e+01    0.2778947    0.1987573  78.17  0.001267127    1.235    0.190
       111  -9.4313    237.5798    187.2106   3.1408031880e+01  -1.6092302279e+00     0.193896    0.1014238 -31.87 0.0009552435    1.755    0.430
       112 -10.7048     27.3102    186.6349   8.1713114972e+01   3.1776691118e+01    0.5163754    0.1341462  40.68  0.001838855    3.352    0.702
       113 -10.3397    249.5468    184.3274   2.8906028839e+01  -2.7519095210e+00    0.3128567    0.1006483 -39.85  0.001295454    2.580    0.612
       114 -10.0111     39.3353    182.8830   7.8115567338e+01   3.1424881252e+01    0.2346736    0.1630118  80.61 0.0009641192    1.481    0.325
       115 -10.3341     16.0073    181.6409   8.4156095431e+01   3.4119464078e+01    0.3111092    0.1847861  76.37  0.001216725    1.717    0.418
       116  -9.6829     60.9979    182.1605   7.2102482567e+01   2.8908419420e+01    0.2562983    0.1437266  56.53 0.0009314179    2.018    0.504
       117 -10.4082     23.1449    180.2095   8.2147327394e+01   3.3809988545e+01    0.2756051    0.1492238  74.66  0.001238396    2.097    0.523
       118 -11.8438      7.3794    171.5984   8.5485783258e+01   3.7363631870e+01    0.4544271     0.229308 -82.56  0.002176914    1.808    0.447
       119 -10.9161     19.8263    171.5509   8.2136736420e+01   3.6316311891e+01    0.3901203    0.2270253 -83.76  0.001919403    1.635    0.388
       120 -10.6268     31.4300    173.6479   7.9183900392e+01   3.4647043946e+01    0.4055153     0.135147 -77.84  0.001305619    3.641    0.725
       121 -10.2660     40.3100    171.3908   7.6421454193e+01   3.4263237215e+01    0.3263639    0.1761909  71.32  0.001318624    2.458    0.593
       122 -10.1423     16.5933    163.7748   8.2197431177e+01   3.8581704567e+01    0.1986389    0.1147948 -87.31  0.000953181    1.708    0.414
       123 -10.4914    249.5294    176.7809   2.7526532093e+01  -1.4803505440e+00    0.2430442    0.1013726 -38.23  0.001123252    2.003    0.501
       124  -9.2411    246.5002    162.5001   2.5341768743e+01   1.3950115354e+00    0.1280624    0.1053617 -36.67 0.0008105285    1.029    0.028
       125 -10.2312    250.4728    157.4914   2.3801162980e+01   1.6791807036e+00    0.3236225    0.1245933 -42.99  0.001438433    2.128    0.530
       126 -11.5488      9.8298    152.6722   8.2914823281e+01   4.1949306705e+01    0.6113527    0.1210848  27.74  0.002089652    4.308    0.768
       127 -11.2707      7.7011    146.5507   8.2860031291e+01   4.3654575864e+01    0.3730023    0.2068132 -86.32  0.001748716    1.787    0.441
       128 -10.0464    249.0317    149.0405   2.2425725390e+01   3.3494035459e+00     0.272258     0.141758 -42.20  0.000914152    1.572    0.364
       129 -10.4417    243.5170    149.5509   2.3341009142e+01   4.1039334245e+00    0.2813655    0.1075335 -42.42  0.001212546    2.172    0.540
       130  -9.5557     54.7068    150.3548   6.8996829846e+01   3.7998633682e+01     0.153685    0.1095043  72.20 0.0007030708    1.686    0.407
       131  -9.4330    233.7710    146.9857   2.4346907271e+01   6.1119818487e+00     0.185531   0.09495902 -42.19 0.0008819514    1.662    0.398
       132 -10.1522     34.6337    146.5064   7.4628998298e+01   4.1331966883e+01    0.3314205    0.1823956  70.73  0.001326341    2.621    0.618
       133  -9.6788    247.4865    143.9064   2.1678205497e+01   4.4745656040e+00    0.1980111    0.1053822 -42.76 0.0006152428    1.543    0.352
       134  -9.3801    148.2063    144.2658   4.0835029779e+01   2.2946815863e+01    0.2414077    0.1212315 -56.88 0.0005889118    2.364    0.577
       135 -10.4057    243.6280    140.8896   2.1663671715e+01   5.6056400697e+00    0.3722606    0.0999905 -34.82 0.0009464774    6.644    0.849
       136 -10.8286     20.3546    140.8695   7.8286654851e+01   4.4120778571e+01    0.3601636    0.2037763  80.55  0.001591309    2.251    0.556
       137  -9.4862     47.6708    141.3488   6.9662703996e+01   4.1213812693e+01    0.1537322    0.1072536  68.55 0.0007049001    1.762    0.433
       138  -9.5198    250.4969    140.5012   2.0603329633e+01   4.5979345037e+00    0.1275114    0.1037743 -44.42 0.0008105376    1.027    0.026
       139 -10.8885     10.6329    135.7022   8.0658926550e+01   4.6187400563e+01    0.3487677    0.1857618 -74.19  0.001544132    1.686    0.407
       140 -10.2547    248.6936    135.1162   1.9835888895e+01   5.8055111294e+00    0.2075738    0.1308677 -51.34 0.0007290347    1.419    0.295
       141 -10.1709     32.3330    131.8174   7.3045908799e+01   4.5341148263e+01    0.2213854    0.1695338 -87.63 0.0007160826    1.407    0.289
       142  -9.6298    247.2941    129.6424   1.8986677022e+01   6.9711726241e+00    0.1300603   0.08711123 -63.88 0.0005369511    1.695    0.410
       143 -11.0536      5.9022    125.1006   8.0796590581e+01   4.9156247405e+01    0.5273689    0.2866889  71.81  0.002386949    2.492    0.599
       144  -9.8879    249.3077    123.6782   1.7577690943e+01   7.6650434172e+00    0.1270308   0.08643316 -65.46 0.0004267131    1.643    0.391
       145 -10.2565     21.9825    120.2050   7.4619871384e+01   4.9208622375e+01    0.2485968    0.1679491 -84.01 0.0007220744    1.633    0.388
       146 -10.0294    248.2923    119.3636   1.6890373842e+01   8.5636447333e+00    0.1224397   0.09263276 -19.51 0.0007028318    1.705    0.414
       147  -9.6044     37.8905    115.8142   6.8208062968e+01   4.8794828228e+01    0.1879447     0.164609  74.09 0.0006568818    1.329    0.248
       148  -9.8352     52.4851    114.4569   6.2727264813e+01   4.7410635105e+01    0.2514759    0.1418827 -71.08  0.001027374    2.214    0.548
       149 -10.7899     10.0941    111.9025   7.7439861005e+01   5.2135060717e+01    0.4755284    0.2441822  86.91  0.001973968    2.885    0.653
       150 -13.0302    249.2733     99.7607   1.3043509757e+01   1.1657464051e+01    0.7535576    0.2274272 -45.75  0.003091319    2.668    0.625
       151  -9.2684    150.3166    102.6449   3.0256922459e+01   3.1446706213e+01    0.1592715    0.1183417 -81.98 0.0007045676    1.745    0.427
       152  -9.2950    108.1693     98.1764   4.0053919475e+01   4.1608011277e+01    0.2085461    0.1819858  85.35 0.0005686668    1.366    0.268
       153 -10.4026      2.6208     94.7312   7.7360591619e+01   5.6662865504e+01    0.4420485    0.2187652 -88.13  0.001874261    2.996    0.666
       154 -10.0246     31.7697     94.8967   6.6012799296e+01   5.4426265232e+01    0.2440902    0.1875148 -80.50 0.0009779879    1.614    0.380
       155  -9.1839    124.3455     90.6602   3.3449060712e+01   3.9648590200e+01    0.1576392    0.1199402 -89.42 0.0007047619    1.782    0.439
       156 -10.1082     21.8857    104.0633   7.1745934322e+01   5.3161701402e+01    0.3298876    0.1469178 -54.56  0.001080988    1.848    0.459
       157  -9.6273     16.3291     86.6976   7.0347828144e+01   5.7635189750e+01    0.1219022   0.09859477  61.85 0.0007033577    1.648    0.393
       158 -10.9571      4.4849     75.6040   7.2899714284e+01   6.0864946341e+01     0.517431    0.2248947 -71.71  0.002260124    2.760    0.638
       159 -10.7990      2.9705     61.2958   7.0246631072e+01   6.3960420971e+01    0.3209624    0.1785333 -73.31  0.001632399    2.386    0.581
       160 -11.2947      2.4469     53.1961   6.8376978635e+01   6.5604175785e+01    0.4348675    0.1588829 -38.84  0.002063348    2.226    0.551
       161 -10.6313     16.4722     51.4194   6.0994583501e+01   6.4934121390e+01    0.2034613    0.1187545 -64.16  0.001034913    2.385    0.581
       162 -12.0156     12.3569     41.0810   5.9655557977e+01   6.7150693790e+01    0.5381089     0.191572 -35.78  0.002421272    2.607    0.616
       163 -10.5950    152.4611    249.6413   5.9388938325e+01  -2.4982208872e-01    0.3831103    0.1105832  33.43  0.001376927    3.025    0.669
       164 -11.9520     15.7462     19.5194   4.9492787977e+01   7.0241321462e+01    0.3202659    0.2082691 -12.84  0.002082033    1.339    0.253
       165 -11.7594    143.2554    248.2352   6.1213972274e+01   1.3793492744e+00    0.4874377    0.2023836  29.13   0.00202212    2.280    0.561
       166 -11.0809    128.2586    248.8655   6.4650862074e+01   3.5214146072e+00    0.3367982     0.144361  40.04  0.001458241    2.032    0.508
       167 -11.1511     98.3688    243.7715   7.0783747655e+01   9.0232327229e+00    0.4817005    0.1726406  42.21   0.00190925    2.396    0.583
       168 -10.8554     76.6282    247.8162   7.6159942554e+01   1.1313421088e+01    0.3690972    0.2065313  48.12  0.001668321    1.570    0.363
       169 -10.8808     34.8351    248.1139   8.5253212959e+01   1.6623341905e+01    0.3800495    0.1727276  48.67  0.001588454    1.818    0.450
       170 -11.5001      1.4239     38.5338   6.4538162727e+01   6.8402764656e+01     0.419776   0.09916757 -55.73  0.001628187    3.961    0.748
       171 -11.2007     22.0935     14.1885   4.3723459128e+01   7.0223158948e+01    0.3052293    0.1255018  24.24  0.001500282    2.389    0.581
       172 -10.6596    218.8815    245.9305   4.5127388611e+01  -8.7593703535e+00     0.378036    0.1745991 -27.23  0.001844006    2.256    0.557
       173 -11.6409    223.9647    242.2891   4.3571398819e+01  -8.8296864515e+00    0.6156312    0.2255574 -39.48  0.002848769    2.564    0.610
       174 -10.7627     90.0286    247.4700   7.3113076714e+01   9.4837761675e+00    0.3517365    0.1817493  53.45  0.001494515    2.007    0.502
       175 -10.9441    168.7252    247.5769   5.5556084910e+01  -2.2706646112e+00     0.260094    0.1141287  28.45  0.001071333    2.117    0.528
       176 -11.4808    158.4945    245.3857   5.7434662988e+01  -3.8243926132e-01    0.4681771    0.2482123  20.35  0.002138791    2.035    0.509
