#   1 NUMBER                 Running object number                                     
#   2 MAG_AUTO               Kron-like elliptical aperture magnitude                    [mag]
#   3 X_IMAGE                Object position along x                                    [pixel]
#   4 Y_IMAGE                Object position along y                                    [pixel]
#   5 X_WORLD                Barycenter position along world x axis                     [deg]
#   6 Y_WORLD                Barycenter position along world y axis                     [deg]
#   7 A_WORLD                Profile RMS along major axis (world units)                 [deg]
#   8 B_WORLD                Profile RMS along minor axis (world units)                 [deg]
#   9 THETA_WORLD            Position angle (CCW/world-x)                               [deg]
#  10 FWHM_WORLD             FWHM assuming a gaussian core                              [deg]
#  11 ELONGATION             A_IMAGE/B_IMAGE                                           
#  12 ELLIPTICITY            1 - B_IMAGE/A_IMAGE                                       
         1 -15.8382    242.5097    119.7618   4.5928536584e+01   1.0740334818e+01     9.669005     1.250079 -42.24   0.02549212    5.990    0.833
         2  -9.9272     40.9169     14.0075   6.2195989901e+01   6.8025082428e+01    0.1820693     0.137475  16.11  0.001205741    1.061    0.057
         3 -11.1579    154.4458    240.3921   8.5834130164e+01   1.6932160066e+00     0.350869    0.2509091 -51.91  0.001950091    1.640    0.390
         4 -11.7829    165.9503    248.5153   8.4569647766e+01  -1.3528222281e+00    0.7136385    0.3790975 -30.02  0.003472902    2.119    0.528
         5 -12.1251    156.6204    248.1004   8.6517040676e+01  -7.7000029143e-03    0.7123761    0.3808624  15.90  0.003322703    2.077    0.519
         6 -12.0275    162.0244    246.1805   8.5059452513e+01  -4.0997403925e-01    0.8456116    0.3667269 -32.92  0.003528941    2.854    0.650
         7 -11.4632    159.7676    239.4301   8.4515062566e+01   1.1186585269e+00    0.8753821    0.2280422 -43.15  0.002993154    3.991    0.749
         8 -10.5120    159.4612    231.4299   8.3317703025e+01   2.6541223829e+00    0.3130333    0.2275435 -60.92  0.001659359    1.839    0.456
         9 -11.4789    162.5550    225.5625   8.1670062093e+01   3.3237756526e+00    0.5567266    0.3541451  20.10   0.00190214    1.543    0.352
        10 -11.8086    226.5696    221.3384   6.7878228623e+01  -4.6520713238e+00    0.2903447    0.2291649 -51.69  0.001248967    1.782    0.439
        11 -12.5130    230.2881    230.5728   6.8793428498e+01  -6.5653547267e+00    0.6751626     0.322465 -47.50  0.003287358    2.546    0.607
        12 -12.2513    236.4561    230.0876   6.7602662230e+01  -7.1960976883e+00     0.425012    0.2826812   4.15  0.001679279    1.396    0.284
        13  -9.9077    144.4838    230.4932   8.6545231473e+01   5.0288830495e+00    0.4294328    0.1212296 -48.11  0.001480477    3.581    0.721
        14 -13.6557    241.5591    214.7605   6.4056344834e+01  -5.3858358939e+00     1.272353     1.081276  37.77  0.008643851    1.697    0.411
        15  -9.4975     88.7607    222.7433   9.8665635196e+01   1.4853782866e+01    0.2879959    0.1346332 -69.03   0.00116166    2.598    0.615
        16  -9.9831    171.1270    225.6385   7.9794369031e+01   2.0573309508e+00    0.1995157    0.1782814 -33.66 0.0002725107    1.227    0.185
        17 -10.8168     98.9264    225.3469   9.6544398478e+01   1.2827032442e+01     0.415343    0.2430632  32.24  0.001418167    1.583    0.368
        18 -11.0434    125.9867    220.5958   8.9336395657e+01   9.8484225625e+00    0.3039059    0.2676091  49.51 0.0006789272    1.215    0.177
        19  -9.5231     61.8662    224.1624   1.0531696174e+02   1.8112711239e+01    0.2986575    0.1085581  46.62  0.001152606    2.659    0.624
        20 -10.5495    123.4418    224.7406   9.0575066294e+01   9.3482768977e+00    0.3409725    0.1793256 -62.19  0.001211296    2.361    0.576
        21  -9.0018     13.8067    250.6039   1.1789493619e+02   1.7668152850e+01    0.1564417   0.08580009  45.55 0.0003352366    1.507    0.336
        22  -9.0178    114.5070    221.4321   9.2227105982e+01   1.1400717893e+01    0.1407867    0.1289787  12.84 7.879511e-05    1.066    0.062
        23  -9.3037     75.2509    219.6277   1.0157410498e+02   1.7422629222e+01    0.1886304    0.1285088  20.71 0.0007745256    1.610    0.379
        24  -8.8125    180.0000    218.0052   7.6561468596e+01   2.2047163619e+00    0.2209657   0.07376456 -45.98 0.0008069612    2.974    0.664
        25 -10.1426    192.1137    226.1500   7.5431417740e+01  -9.9585313154e-01    0.2298282    0.1845336  -6.28 0.0007220397    1.067    0.063
        26  -9.3357    143.8488    216.4828   8.4434517013e+01   7.9757126625e+00    0.2388481    0.1620197 -41.35  0.001191026    1.503    0.334
        27  -9.0215    152.3549    216.2908   8.2422684929e+01   6.7020630299e+00    0.1481141    0.1032582  -6.05 0.0007028055    1.681    0.405
        28  -9.2296    131.4830    214.4651   8.7043131954e+01   1.0324992468e+01     0.245351    0.1236208 -40.95 0.0009350501    2.151    0.535
        29  -9.7431    185.7624    213.3314   7.4505641204e+01   2.2435963924e+00    0.2932694     0.162446 -41.82  0.001406981    1.733    0.423
        30 -10.1159    217.7946    209.0429   6.7319912498e+01  -1.4661130259e+00    0.3068147    0.1494455 -34.55  0.001476855    1.820    0.450
        31  -9.7976    116.8100    227.5904   9.2570723706e+01   9.7298853247e+00    0.1986621    0.1170615  41.27 0.0004587195    1.613    0.380
        32  -9.5188     58.2348    206.5439   1.0426243340e+02   2.2742599998e+01    0.2743385    0.1178692  35.54  0.001141729    2.152    0.535
        33  -8.5897    107.6461    248.6925   9.7495629983e+01   6.7119080167e+00     0.132796   0.09765893  -6.85 0.0007042564    1.719    0.418
        34 -10.1149     45.2571    194.3563   1.0620245234e+02   2.7313517296e+01    0.2960565     0.155947  36.92  0.001158723    1.839    0.456
        35  -9.7334    185.5561    203.1282   7.2686492619e+01   4.2269809397e+00    0.3296335     0.124254 -42.92  0.001273822    2.493    0.599
        36 -11.0404    225.4475    191.2061   6.2609553881e+01   6.2810283743e-01    0.4300829    0.2001438 -28.90  0.001890056    2.241    0.554
        37 -11.9637    230.2224    186.0597   6.0793008276e+01   8.7897613039e-01    0.5817818     0.290274 -41.71  0.002864843    1.722    0.419
        38  -9.4586     88.5130    189.7265   9.4024729343e+01   2.2780275851e+01    0.4076807    0.1004382  36.50  0.001214933    3.572    0.720
        39 -10.4916     96.9964    187.6239   9.1398672124e+01   2.2014282172e+01    0.5865275     0.217206  42.02  0.002014267    2.714    0.631
        40 -10.7624     92.6732    183.0172   9.1800859705e+01   2.3835321620e+01    0.4074372     0.244126 -54.87  0.001259088    1.637    0.389
        41 -10.5050     56.2394    187.9130   1.0250484136e+02   2.7650935035e+01     0.376667      0.17354  51.87  0.001460266    2.492    0.599
        42  -9.8119     35.2828    188.1432   1.0813254404e+02   2.9973180084e+01    0.2834387    0.1412049  52.90  0.001233352    2.138    0.532
        43  -9.2842     13.2151    185.8154   1.1362238603e+02   3.2631357320e+01    0.2448293    0.1011654  61.43 0.0009616095    2.886    0.654
        44  -9.0367     67.3081    185.6635   9.9182882569e+01   2.6808795944e+01     0.154343    0.1063196  67.42 0.0005266957    1.677    0.404
        45  -9.3903    203.7210    183.4761   6.5205126739e+01   5.2385934051e+00    0.2609538    0.1104169 -42.79  0.001071903    2.123    0.529
        46  -9.2401    205.6628    189.8465   6.6062128335e+01   3.7295806208e+00    0.1999755    0.1164431 -48.49  0.000949706    1.779    0.438
        47  -9.3871    173.6787    181.9207   7.1178052663e+01   1.0435645393e+01    0.3459503    0.1275274 -45.72  0.001232469    2.572    0.611
        48 -10.0404     45.0512    183.0524   1.0493078143e+02   3.0220191940e+01    0.2598531    0.1842858  39.27 0.0009450584    1.426    0.299
        49  -9.9322    110.6335    185.2986   8.7348189705e+01   2.0413153764e+01    0.3036015    0.2621547 -22.68 0.0008814735    1.234    0.189
        50  -9.3594    211.7135    182.0798   6.3392713291e+01   4.2801853700e+00    0.1992411    0.1521008 -31.61  0.000716795    1.126    0.112
        51  -9.4307    198.4333    203.0112   6.9995060739e+01   2.3266132610e+00    0.2129718    0.1209464 -40.33    0.0010333    1.620    0.383
        52  -9.4499    205.3657    176.3507   6.3476789303e+01   6.3532837876e+00    0.2711349    0.1151787 -38.94 0.0009976105    2.124    0.529
        53  -9.8299     78.9377    176.6711   9.4567245830e+01   2.7509121179e+01    0.4421527    0.1757135  49.67  0.001422473    3.277    0.695
        54 -10.3858     61.2650    177.4046   9.9673448123e+01   2.9733508302e+01    0.4447877    0.1374924  36.83  0.001509957    2.996    0.666
        55  -8.9545     14.3299    177.6814   1.1261596833e+02   3.4594831942e+01    0.1421144   0.08679922  64.10 -5.409345e-05    1.687    0.407
        56  -8.9007    183.0000    174.5076   6.7649638486e+01   1.0401301651e+01    0.3223343   0.07754804 -45.59 0.0009273801    3.876    0.742
        57  -9.0962     24.4955    175.4986   1.0967594183e+02   3.4272217881e+01    0.1374849    0.1201192 -88.99 0.0004573844    1.027    0.027
        58  -9.4652     45.0009    172.4949   1.0360168919e+02   3.2972743462e+01    0.2083324    0.0976318  50.56 0.0007329565    2.439    0.590
        59 -10.3306     56.3159    170.3406   1.0005268817e+02   3.2206363111e+01    0.3136019    0.2126686  49.16  0.001501354    1.554    0.357
        60  -9.6814    206.4804    169.4789   6.1884224592e+01   7.5043089658e+00    0.2880071    0.1237263 -44.02 0.0008383553    2.083    0.520
        61  -9.4406    176.7051    169.5144   6.7980042815e+01   1.2536379260e+01    0.3233285    0.1577449 -36.03  0.001269718    2.100    0.524
        62  -9.1316    122.0009    170.0009   8.1417461362e+01   2.2226373541e+01    0.3075087    0.1844471  74.13 0.0009407433    3.983    0.749
        63  -9.5554     99.4950    166.3901   8.6906175709e+01   2.6969798058e+01    0.4367796     0.162531  47.25   0.00132722    3.386    0.705
        64 -10.0742     80.3707    164.2534   9.2028439932e+01   3.0524756721e+01    0.4868362    0.2681448  67.94  0.001617551    3.339    0.701
        65  -9.9738     38.0420    164.8138   1.0459002186e+02   3.5743109735e+01    0.2390432    0.1381256  55.19 0.0007702735    1.967    0.492
        66  -9.7319     47.8607    164.3327   1.0164412492e+02   3.4798724389e+01    0.2364042    0.1709202  52.05  0.001178147    1.474    0.322
        67  -9.9157     70.7639    163.6240   9.4749629292e+01   3.2074988319e+01    0.2189904    0.1325666  41.36 0.0005687106    1.702    0.413
        68  -9.3989    205.5478    160.7338   6.0276471506e+01   9.3592097711e+00    0.3530769    0.1242507 -44.68  0.001298426    2.548    0.608
        69  -9.6883     93.7082    160.9836   8.7521949418e+01   2.9298401739e+01     0.335028    0.1732883  54.60  0.001172803    2.687    0.628
        70 -10.0474     62.8461    161.2800   9.6713365600e+01   3.3764992745e+01    0.2469686    0.1809598  52.45  0.001098297    1.480    0.324
        71 -10.3125    213.2970    163.0669   5.9315866192e+01   7.6362016793e+00    0.3418048    0.1650061 -40.68  0.001520959    1.797    0.444
        72  -8.6926    152.3018    160.7014   7.1729116853e+01   1.8907184258e+01    0.1483863     0.124363  85.34  0.000255224    1.582    0.368
        73  -9.0629     23.9705    159.9705   1.0808569677e+02   3.8362371692e+01    0.3004923    0.1211413  61.62 0.0009596761    4.139    0.758
        74  -9.3890    106.4001    158.5480   8.3388133988e+01   2.7794088772e+01    0.3950691    0.2032323  59.53  0.001222425    3.553    0.719
        75 -11.0912     51.3513    155.9649   9.9329017597e+01   3.6609844675e+01    0.5466576    0.2192125  44.55   0.00188687    2.807    0.644
        76 -10.9824     82.8980    155.2240   8.9598694833e+01   3.2498340494e+01    0.5283462    0.2796815  51.14  0.001653906    2.328    0.571
        77  -8.6673    192.0000    163.9956   6.3605241147e+01   1.1013658868e+01    0.2459106   0.07568899 -44.37 0.0008043903    2.956    0.662
        78 -11.3344     68.8668    154.1846   9.3661810500e+01   3.4826310472e+01    0.5886113    0.2556068  36.94   0.00221647    2.316    0.568
        79  -9.1605    204.5095    154.0083   5.9075317878e+01   1.0851020491e+01    0.2194324    0.1252216 -41.80  0.000916052    1.545    0.353
        80  -9.4327     91.9645    152.1635   8.6278296581e+01   3.1852954438e+01    0.2675768    0.1727503  58.81   0.00108561    2.007    0.502
        81  -9.1893    196.5938    156.8335   6.1186840280e+01   1.1661997355e+01    0.2126991    0.1252796 -52.50 0.0009464087    1.794    0.443
        82  -9.7177     29.4902    150.5440   1.0523254109e+02   4.0348943967e+01    0.3310308    0.1704112  75.57   0.00125453    2.879    0.653
        83 -10.0305    189.3132    148.5917   6.0870040410e+01   1.4634387599e+01    0.4349904    0.1720522 -44.41  0.001399265    2.304    0.566
        84 -10.7268     40.2547    148.1588   1.0154311506e+02   3.9921525168e+01     0.455842    0.2431532  51.90  0.001864524    2.273    0.560
        85  -9.5468    199.6910    146.9957   5.8500313445e+01   1.3077559101e+01    0.3378557    0.1183194 -43.37  0.001213381    2.544    0.607
        86 -11.5329     57.3236    146.4854   9.5874162027e+01   3.8393578517e+01    0.6806397    0.3465823  51.86  0.002602588    2.525    0.604
        87  -9.8478    164.3741    200.8158   7.6914567768e+01   8.0079633379e+00    0.4142699    0.1618859 -45.45  0.001561944    2.484    0.597
        88 -10.1970    107.9517    145.6381   8.0185997198e+01   3.0763454352e+01    0.5568084    0.3179644  65.86  0.001773233    3.502    0.714
        89  -9.2582     13.6508    146.3233   1.0953946871e+02   4.2759747802e+01    0.1431028   0.09261512  64.27 0.0007048998    1.747    0.428
        90 -10.2922     88.9405    144.4884   8.5593449083e+01   3.4321844610e+01    0.3944749    0.2568377  59.30  0.001496497    2.019    0.505
        91 -10.8966     71.3300    141.6354   9.0500124140e+01   3.7775213451e+01    0.5855358    0.2660391  50.52  0.001982817    3.028    0.670
        92  -9.9183     81.9459    139.7942   8.6761084042e+01   3.6651552304e+01    0.2624941    0.1710374  58.56  0.001079782    2.003    0.501
        93  -9.3726     89.3700    199.6328   9.5316092020e+01   2.0206544892e+01     0.280847   0.09886471  43.77 0.0007769389    2.912    0.657
        94  -9.4019     49.6517    139.3235   9.7062417368e+01   4.1218971414e+01    0.1541844    0.1095302  66.25 0.0007049306    1.746    0.427
        95 -10.2742     23.6828    138.2607   1.0534417174e+02   4.4090394157e+01    0.4086713    0.2274402  65.70   0.00174138    2.431    0.589
        96  -9.6328    197.4093    136.1450   5.6582343267e+01   1.5640321364e+01    0.3453152    0.1256575 -45.30  0.001133795    2.493    0.599
        97 -10.2337     39.4506    136.3089   9.9888029865e+01   4.3136883819e+01    0.2885527    0.1982808  56.35  0.001014189    1.732    0.423
        98  -8.8670    105.4487    198.5012   9.0954150742e+01   1.8045210045e+01    0.1451213    0.1417473  10.82  0.000808373    1.018    0.018
        99 -11.6030     84.8406    132.4280   8.4228571073e+01   3.8071468080e+01    0.6571701    0.3634258  51.00  0.002112089    2.263    0.558
       100 -11.5649     74.2640    129.8299   8.7060889480e+01   4.0394879675e+01    0.4617052     0.286792  47.80  0.001770003    1.852    0.460
       101 -10.5836    221.0921    128.5204   5.0854504848e+01   1.2811663314e+01    0.3918131     0.157352 -33.26  0.001452249    2.915    0.657
       102 -10.8387    100.2846    128.9846   7.8617153540e+01   3.6273710358e+01    0.6128115    0.3899474  65.42  0.002318102    2.491    0.599
       103  -9.7279     12.7487    129.2225   1.0765019701e+02   4.7264969161e+01    0.3308697    0.1707748  80.93  0.001353834    2.671    0.626
       104 -11.8832     60.4061    124.8741   9.0619690877e+01   4.3637803046e+01    0.7107449    0.4397278  66.83  0.002786836    2.622    0.619
       105 -11.7172     44.3853    122.8515   9.5747338252e+01   4.6116630472e+01    0.8828704    0.5168245  83.01  0.003337612    2.983    0.665
       106  -9.3846    117.9616    125.4730   7.2558861049e+01   3.3779389145e+01    0.2239157     0.134858  61.85 0.0008094442    2.505    0.601
       107 -10.8877     28.3869    122.0261   1.0120180065e+02   4.7915675382e+01    0.7739515    0.3835063  73.28  0.002460344    4.555    0.780
       108 -10.9526     71.9364    120.6084   8.5736001249e+01   4.3078658487e+01    0.3682123      0.26916  58.27  0.001401036    1.726    0.421
       109  -9.0199    142.5158    120.0377   6.4659105373e+01   3.0017533121e+01    0.2303092    0.1345448 -66.27 0.0008098153    2.702    0.630
       110  -9.7709      3.2421    117.4645   1.0925931332e+02   5.0840738609e+01    0.3741823    0.1750623  80.59  0.001435038    3.279    0.695
       111 -10.2835    109.9508    114.9428   7.2192874573e+01   3.7797413893e+01    0.4462399    0.2958001  83.98   0.00157612    3.079    0.675
       112 -11.7819     80.4862    113.6270   8.1153881517e+01   4.3447969783e+01    0.6972555    0.4534103  66.30  0.002738687    2.532    0.605
       113  -9.2970    126.8199    197.1206   8.5258301871e+01   1.4951344663e+01    0.2104367    0.1680587 -24.37  0.001054426    1.346    0.257
       114 -11.4379     94.4932    113.4780   7.6544293389e+01   4.1056859176e+01    0.7423541    0.3774602  49.04  0.002708021    2.348    0.574
       115 -11.7766     67.2671    111.1442   8.5072100719e+01   4.6114031724e+01    0.4689749    0.3440245  72.19  0.001819907    2.008    0.502
       116 -10.3616     14.2717    110.0700   1.0421731102e+02   5.2045568936e+01    0.4129271    0.2378478 -85.09  0.001817624    2.059    0.514
       117 -10.9193     59.9344    109.5073   8.7279335799e+01   4.7555768314e+01    0.2795037    0.2136661 -74.15 0.0009992172    1.564    0.360
       118 -12.0315     45.9950    102.4422   9.0731168756e+01   5.1046172291e+01    0.9014635    0.5465911  75.68  0.003277333    3.617    0.724
       119 -10.0758     43.7105     92.3890   8.9132819130e+01   5.3700531396e+01    0.2333557    0.1520447 -27.26  0.000715507    1.575    0.365
       120 -11.2108     22.7016    101.6963   9.9508750631e+01   5.3510576355e+01    0.8438186     0.465782  80.21  0.003180743    3.565    0.719
       121 -10.9164    110.9871    100.2024   6.7912218821e+01   4.0868869077e+01    0.8531414    0.4342352  62.54  0.002551738    4.128    0.758
       122 -11.0960     82.6902    100.4938   7.6940558962e+01   4.6156435108e+01    0.3937178    0.2983766  64.84  0.001450221    1.803    0.445
       123 -10.1309    172.9195    195.5274   7.4000022095e+01   7.7269537670e+00    0.2346339    0.2040534 -62.24  0.001179137    1.428    0.300
       124 -12.1904     64.4999     96.4764   8.2271383000e+01   5.0002379921e+01    0.6532761    0.4557808  69.54  0.002163014    2.414    0.586
       125 -10.5604     95.7677     97.5674   7.1817895309e+01   4.4433124984e+01    0.3978916    0.2750612  50.35   0.00175947    1.606    0.378
       126  -9.5306     67.9905    195.8298   1.0040478921e+02   2.4141360665e+01    0.2544006    0.1391488  53.91 0.0008463091    2.043    0.511
       127  -9.4366    125.2759     91.6913   6.1544936593e+01   3.9625311029e+01    0.3624215    0.2270404 -86.78  0.001152772    4.051    0.753
       128 -10.4391     57.8395     91.9951   8.3539056627e+01   5.1985859740e+01    0.2335236    0.2113941  37.55 0.0003733004    1.245    0.197
       129 -10.7659     34.9529     88.8578   9.1752325954e+01   5.5474577965e+01    0.7137245    0.2938884 -63.51  0.002717495    2.763    0.638
       130  -9.7525      4.9783     91.4973   1.0453626818e+02   5.7144579992e+01    0.2571009    0.1363247  67.82  0.001037353    3.487    0.713
       131 -11.8934     88.1561     87.5868   7.1394842001e+01   4.7989925510e+01    0.6648097    0.3799169  58.68  0.002517346    2.760    0.638
       132 -11.2464     49.0091     84.6010   8.4929442929e+01   5.4827181130e+01    0.5972218    0.4004743  71.27  0.002480776    3.025    0.669
       133 -10.7024    106.1700     84.2557   6.4731237515e+01   4.5128870870e+01    0.5826049    0.3769019  75.35  0.002191474    2.979    0.664
       134 -10.9773     75.2299     81.1972   7.3923951649e+01   5.1619929842e+01    0.3507262    0.2638466 -66.27  0.001480795    1.801    0.445
       135 -10.6889     24.4630     80.0071   9.3914367346e+01   5.8484059774e+01    0.5313263    0.2978039 -75.38  0.002071591    2.631    0.620
       136  -9.1378      8.7887     80.6188   1.0080317724e+02   5.9480266686e+01    0.1675876     0.114011  26.09   0.00083003    1.697    0.411
       137 -11.6703     62.3407     74.3207   7.6579311969e+01   5.5123353480e+01    0.8181661    0.2058252 -44.89  0.002562776    3.772    0.735
       138 -11.4033     83.1859     73.4231   6.8688732613e+01   5.1737378389e+01    0.4558619    0.3436603 -86.43  0.002061102    2.340    0.573
       139 -10.6067     96.0857     72.0877   6.4047344308e+01   4.9486727197e+01    0.4047258     0.259635 -59.04  0.001776853    2.169    0.539
       140 -10.0200     42.6907     72.5657   8.4016267879e+01   5.8209744679e+01    0.2221854    0.1737932 -72.54  0.001070113    1.796    0.443
       141  -9.6694    106.4738     72.4802   6.1052363377e+01   4.7274476260e+01    0.2602441    0.1368488  57.06 0.0009758661    2.286    0.563
       142 -11.1414     51.4630     68.7726   7.9152850456e+01   5.7837262788e+01    0.6670256    0.2758838 -55.95   0.00245116    3.255    0.693
       143 -10.3580     88.5113    226.5296   9.9205796487e+01   1.4038080878e+01    0.2576106    0.1675774 -45.72  0.001147631    1.723    0.420
       144  -9.7072     16.6266     69.7350   9.4734790235e+01   6.1386164238e+01     0.265878    0.1569264 -64.83  0.001032112    1.852    0.460
       145 -10.2701     37.3881     64.0171   8.3654803401e+01   6.0589804843e+01    0.3040754    0.2335141 -82.76  0.001437494    2.245    0.554
       146  -9.6163    110.9544     64.4816   5.7291614135e+01   4.7694439939e+01    0.2058041    0.1264407  72.83 0.0008096963    2.665    0.625
       147 -10.1275    100.9893     60.9846   5.8981962351e+01   5.0398048086e+01    0.3074679    0.1931898 -61.26  0.001313341    2.494    0.599
       148 -10.7195     73.4179     59.6386   6.7522497953e+01   5.6025270742e+01    0.3590216    0.2677206 -53.54  0.001320336    1.697    0.411
       149  -9.9883     24.9673     58.5789   8.7622121453e+01   6.2994967346e+01    0.2793161    0.1634844 -56.87   0.00141888    1.872    0.466
       150 -10.4299      7.4545     55.5457   9.5222743518e+01   6.5004371346e+01    0.5975029    0.1866907 -59.82  0.002405351    3.092    0.677
       151  -9.7918     44.0402     54.8401   7.7611262597e+01   6.1509526686e+01    0.2682968    0.1796932 -58.46  0.001364272    2.093    0.522
       152 -10.6554     45.1475     49.2126   7.5085367955e+01   6.2354997264e+01    0.3148645    0.2081313 -18.17  0.000364021    1.527    0.345
       153 -10.6647     62.9709     54.4342   6.9603325749e+01   5.8725543410e+01    0.3743602    0.2150073 -45.02  0.001702517    1.922    0.480
       154 -10.3757     54.3220     53.7537   7.2829429898e+01   6.0225240330e+01    0.3954231     0.227311 -56.77  0.001747416    2.722    0.633
       155  -9.4530     20.5032     52.9767   8.7976518124e+01   6.4510638710e+01    0.1558307    0.1148957 -83.26 0.0008094629    2.497    0.599
       156 -10.1777     31.0031     51.2591   8.2315610426e+01   6.3772930419e+01    0.3247968    0.2225699 -66.64  0.001667431    2.387    0.581
       157 -10.3336     92.7663     50.9292   5.8054693271e+01   5.3687613004e+01    0.2428152    0.1939596 -55.52 0.0007974604    1.576    0.365
       158  -9.9526     82.1199     46.8866   5.9987455324e+01   5.6433617937e+01     0.194383    0.1869977  53.49 0.0006018441    1.230    0.187
       159  -8.9310     23.3593     47.2707   8.4630728225e+01   6.5316549008e+01    0.1334709   0.08058468 -14.90 0.0006998015    1.647    0.393
       160  -8.8670    106.3032     53.3207   5.4975548104e+01   5.0463443153e+01    0.1420966    0.1034543  19.10 0.0007028196    1.631    0.387
       161  -9.8896     16.8052     43.6062   8.6667359419e+01   6.6605529024e+01     0.393613    0.1512888 -54.03  0.001729927    2.797    0.642
       162  -9.6146     79.3413    193.7469   9.7095999498e+01   2.3107072610e+01      0.29032     0.158073  41.51  0.001250204    1.794    0.442
       163 -10.2967     58.0536     42.0765   6.6926080844e+01   6.1533160208e+01    0.2692076    0.1850139 -60.10  0.001315562    2.588    0.614
       164 -10.3227      5.0645     41.0587   9.2021566468e+01   6.7989009319e+01    0.4303412    0.1927336 -62.95  0.001965114    3.002    0.667
       165  -9.3643    113.8184     41.2190   4.9113704846e+01   5.0496138270e+01    0.1823018    0.1452552  30.54 0.0003362321    1.307    0.235
       166  -9.6585     69.0301     41.0491   6.2341023307e+01   5.9767861827e+01     0.190436    0.1688188 -89.69 0.0008683923    1.710    0.415
       167  -9.3319     36.7383     40.5797   7.5627765819e+01   6.4940828621e+01    0.1930984    0.1628051 -58.03 0.0009606621    1.774    0.436
       168  -9.0647     84.2328     39.6204   5.6668126075e+01   5.7038860148e+01     0.190602    0.1090716  39.38 0.0004679032    1.588    0.370
       169  -9.3111     26.4091     36.2660   7.8972465785e+01   6.6908563513e+01    0.1584366    0.1130748 -46.11 0.0008341718    1.632    0.387
       170  -9.2404     60.4926     32.5212   6.2175082483e+01   6.2480291266e+01    0.1288561    0.1098432  19.12 0.0008097998    1.048    0.046
       171  -9.7483     27.1439     30.1511   7.6094078432e+01   6.7794329149e+01    0.3461009    0.1035983 -32.49  0.001233058    4.176    0.761
       172  -9.9941     12.8705     30.0928   8.3703774814e+01   6.9309888399e+01    0.3218173    0.1529369 -48.81  0.001684791    2.187    0.543
       173  -9.6053      3.5376     26.3214   8.7554267096e+01   7.0705416795e+01    0.2814508    0.0907273 -47.77   0.00131477    2.649    0.622
       174  -9.1512    118.3434     24.6922   4.2803731612e+01   5.1416813603e+01    0.1296939   0.09515756 -79.48 0.0006118414    1.693    0.409
       175  -8.8749    110.3096     24.3360   4.4383805056e+01   5.3264741098e+01    0.1347498   0.08782276  32.69 0.0005985504    1.680    0.405
       176  -9.3352     40.8545     21.2059   6.5532009256e+01   6.7173071113e+01    0.1677615     0.116408   9.80 0.0002643593    1.304    0.233
       177  -9.2314     12.7558     21.3617   8.0094318907e+01   7.0702215795e+01    0.1624856   0.09189942  10.93 0.0008002497    1.620    0.383
