#   1 NUMBER                 Running object number                                     
#   2 MAG_AUTO               Kron-like elliptical aperture magnitude                    [mag]
#   3 X_IMAGE                Object position along x                                    [pixel]
#   4 Y_IMAGE                Object position along y                                    [pixel]
#   5 X_WORLD                Barycenter position along world x axis                     [deg]
#   6 Y_WORLD                Barycenter position along world y axis                     [deg]
#   7 A_WORLD                Profile RMS along major axis (world units)                 [deg]
#   8 B_WORLD                Profile RMS along minor axis (world units)                 [deg]
#   9 THETA_WORLD            Position angle (CCW/world-x)                               [deg]
#  10 FWHM_WORLD             FWHM assuming a gaussian core                              [deg]
#  11 ELONGATION             A_IMAGE/B_IMAGE                                           
#  12 ELLIPTICITY            1 - B_IMAGE/A_IMAGE                                       
         1 -13.2129    205.0699     33.8065   5.5030570152e+01   2.9357192748e+01     1.361997     1.179675  40.60  0.006389972    1.237    0.192
         2 -13.6406    222.3956     15.8743   4.7902205747e+01   2.7047914264e+01     1.140547    0.9127629  34.09  0.002572344    1.488    0.328
         3 -13.0661      3.8365      8.4731   1.0467690014e+02   7.2064658231e+01    0.9937321    0.4464536 -48.01  0.006008151    1.624    0.384
         4 -12.2555    102.3446    230.6174   1.1835352486e+02   1.5505263285e+01     0.720415    0.3369814  38.55  0.002519379    2.136    0.532
         5 -12.2219    180.1886    243.6834   1.0650499863e+02   1.3204911768e+00       0.4682    0.2163578  35.90  0.002510804    1.899    0.473
         6 -11.7444    175.4923    250.2234   1.0810942200e+02   1.2723564041e+00    0.5444093    0.1630144  37.50  0.002265147    3.218    0.689
         7 -11.2912    142.9755    249.2925   1.1339808588e+02   6.5145722822e+00     0.546773    0.1889449  54.84  0.002339054    3.292    0.696
         8 -12.0740    135.0714    236.2466   1.1330382837e+02   9.6005867402e+00     1.369235    0.3054613 -54.63  0.005137432    5.840    0.829
         9 -10.7143    109.9651    247.7344   1.1868298820e+02   1.1735321246e+01    0.3029904    0.2087979  57.05  0.001794111    1.084    0.077
        10 -12.9895    124.3080    245.9085   1.1614569391e+02   9.8612205350e+00    0.7765987    0.5955245  58.31  0.005780154    1.056    0.053
        11 -11.1048     99.5351    248.1450   1.2041372767e+02   1.3179886253e+01    0.3808611    0.2615634  53.03  0.002789644    1.117    0.105
        12 -11.3203    113.5578    230.7995   1.1643541938e+02   1.3790647751e+01    0.3593282    0.2992052 -28.91    0.0024811    1.983    0.496
        13 -10.7670     84.1155    230.2583   1.2142990275e+02   1.8176575609e+01    0.2334636     0.177691 -63.03  0.001316543    1.645    0.392
        14 -10.7268     97.1364    239.2927   1.2003764411e+02   1.4879875738e+01    0.3348286     0.179756  68.22  0.001995001    1.892    0.471
        15 -11.4738     87.5814    248.5734   1.2236599017e+02   1.4784349007e+01    0.5055302    0.2381128  50.59   0.00190261    1.567    0.362
        16  -9.9284     81.5469    248.1635   1.2329214081e+02   1.5665672282e+01    0.2340197    0.1409388 -79.37  0.001289348    1.782    0.439
        17 -12.0601     88.8136    238.2068   1.2132245181e+02   1.6229013106e+01    0.6838691    0.3248014  71.87  0.003608439    2.595    0.615
        18 -11.6251     82.9812    240.1428   1.2243880072e+02   1.6725513233e+01    0.5342565    0.2034741  59.72  0.001650243    2.537    0.606
        19 -12.5148    102.9875    237.9471   1.1893885309e+02   1.4243701186e+01    0.6021371    0.4504374  80.03  0.001816361    1.286    0.222
        20 -10.8555     68.3156    245.7158   1.2519874190e+02   1.7784398401e+01    0.2502019    0.1571107  68.90 0.0009379511    1.242    0.195
        21 -13.1038      2.7514    189.3846   1.3248915306e+02   3.4895212184e+01     3.281608    0.4013009 -80.31  0.008368883   11.250    0.911
        22 -13.0930      7.3930    214.5276   1.3296030293e+02   2.9872183457e+01    0.9560488    0.8231639  72.65  0.008628663    1.446    0.309
        23 -11.7292     15.6991    226.0920   1.3221520115e+02   2.7060437948e+01    0.5240496    0.3446087  43.26  0.002804047    1.675    0.403
        24 -12.6717     39.3820    206.7662   1.2724436288e+02   2.7986015522e+01     1.018598    0.6524924 -76.23  0.007239291    1.464    0.317
        25 -10.7059     74.2738    244.3465   1.2416153143e+02   1.7226076513e+01    0.2688892     0.227201 -80.49  0.001785124    1.462    0.316
        26 -11.0575    245.2452    241.6121   9.5501583664e+01  -8.6263115819e+00    0.1738629    0.1324209 -30.80  0.001273106    1.739    0.425
        27 -13.9007      5.6054    245.0050   1.3448211592e+02   2.4940186718e+01     1.238584    0.8364577  85.24     0.011027    1.257    0.205
        28  -9.2656     56.4708    250.4365   1.2732979342e+02   1.8528520316e+01    0.1695815   0.08167654  42.75 0.0006237339    1.867    0.464
        29 -10.9263     74.1695    236.3136   1.2357581078e+02   1.8527685434e+01    0.4830395    0.1911003 -51.47  0.002288735    4.477    0.777
        30 -13.0729     26.5434    247.3624   1.3159970916e+02   2.2438459228e+01     1.516857     0.596453  41.56  0.009706249    2.303    0.566
        31 -11.4597    116.2387    248.9601   1.1777080308e+02   1.0631615210e+01    0.4188313    0.3692912  81.01  0.003403606    1.283    0.220
        32 -13.0069     22.2886    224.7753   1.3113348188e+02   2.6616102692e+01    0.4190385    0.2349485 -68.44 0.0008021186    1.931    0.482
        33 -11.8421    166.0759    243.0880   1.0881175552e+02   3.6734618895e+00    0.3286968    0.2071857  57.49  0.002051589    1.592    0.372
        34  -9.2664    153.5555    229.9830   1.0934099615e+02   7.5189543053e+00    0.1452249     0.118932 -56.54 0.0003578869    1.529    0.346
        35 -11.1266     79.2732    225.6713   1.2185874928e+02   1.9614818113e+01    0.3433552    0.2788209  85.73  0.002619338    1.209    0.173
        36  -9.4094     77.1821    220.8190   1.2179924211e+02   2.0735419349e+01    0.1699302    0.1170742  67.71 0.0003850714    1.153    0.133
        37 -12.0550    119.4853    236.3452   1.1598785405e+02   1.2018702015e+01    0.6417585    0.4751214 -17.06  0.003103422    2.984    0.665
        38  -9.0651     56.4909    228.0378   1.2585897492e+02   2.2174844610e+01    0.1394978   0.08837536 -85.35 0.0009856734    1.456    0.313
        39  -9.6610     92.4109    226.2147   1.1964816343e+02   1.7679751302e+01    0.1979975    0.1237343  67.79 0.0008180165    1.424    0.298
        40  -9.3433     88.1485    223.6716   1.2015098168e+02   1.8718472073e+01    0.3102318   0.09002685  48.25  0.001403704    2.682    0.627
        41 -11.3649     60.3513    246.5841   1.2649524747e+02   1.8653371209e+01    0.4895268    0.2488198  57.03  0.002956546    1.434    0.303
        42  -9.0635     64.9614    224.5409   1.2419359559e+02   2.1707756155e+01    0.1851576    0.1225402 -38.67  0.001028846    3.525    0.716
        43  -8.8976     45.6248    225.2835   1.2744663990e+02   2.3955111280e+01    0.1251919   0.08357006 -76.89 0.0004278412    1.498    0.333
        44 -10.3729     99.1698    223.2217   1.1817965214e+02   1.7196454974e+01    0.2062315    0.2033233 -53.22  0.001039966    1.505    0.336
        45  -9.9380    246.0000    220.4903   9.2010936680e+01  -6.6069953647e+00    0.2273985   0.06300195 -31.59 0.0009422782    3.996    0.750
        46 -10.3795    141.6546    219.5538   1.1014435623e+02   1.1073665516e+01    0.2572641    0.2119504 -48.75  0.001653221    1.516    0.340
        47 -10.1008     71.0750    219.1346   1.2271327785e+02   2.1851331181e+01    0.3775285    0.1821253  67.12  0.002093189    2.045    0.511
        48  -9.8069     90.9879    220.0000   1.1930648906e+02   1.8941328030e+01    0.1802836    0.1320517  65.42 0.0004801487    1.083    0.077
        49  -9.8910    116.9287    215.7128   1.1418332009e+02   1.5739998081e+01    0.2885438    0.2137925  22.71  0.001083712    1.977    0.494
        50  -9.3144    107.0692    216.6519   1.1608357256e+02   1.7121048205e+01    0.2303169   0.08310589  48.77   0.00106679    2.273    0.560
        51  -9.2144     86.6870    211.9414   1.1928796098e+02   2.0976785366e+01    0.3224216    0.1529322  66.83  0.001463366    2.408    0.585
        52 -10.1892     62.9189    209.1015   1.2329712082e+02   2.4720693436e+01      0.30703    0.2661306 -57.43  0.001558651    1.649    0.394
        53  -9.1560     63.6947    205.1890   1.2282104748e+02   2.5344948779e+01    0.1423915    0.0895161 -68.41 0.0002472657    1.621    0.383
        54  -9.4177     58.5382    212.5319   1.2435049900e+02   2.4649624421e+01    0.2041499    0.1061337  54.23 0.0006691017    1.551    0.355
        55 -10.1859     55.8516    209.2404   1.2455854701e+02   2.5584860829e+01    0.3893794    0.1411663 -71.41   0.00199469    2.669    0.625
        56  -9.5024     99.2885    209.9778   1.1677887392e+02   1.9474034481e+01    0.2670621    0.1145556  61.47 0.0009084627    2.739    0.635
        57 -13.1891     37.7570    242.5499   1.2970204458e+02   2.1975684390e+01     1.464576    0.6989323 -84.54  0.009971966    1.943    0.485
        58  -9.4319     91.2893    204.8454   1.1770947852e+02   2.1596574085e+01    0.2824827    0.1315818  38.07  0.001416425    2.236    0.553
        59  -9.8950    106.9260    203.4842   1.1460945561e+02   1.9465310658e+01    0.2080639    0.1653626 -78.37 0.0003089588    1.303    0.232
        60  -8.4089     72.6867    203.3196   1.2100867734e+02   2.4507342101e+01    0.1237321   0.07064714  69.75 0.0006719056    1.650    0.394
        61  -9.6254     74.5534    199.9407   1.2033411351e+02   2.4890085515e+01    0.1696845     0.143481  61.56 0.0004438863    1.198    0.165
        62  -9.2148     96.8631    199.1776   1.1602348383e+02   2.1813446697e+01     0.180496    0.1350347  67.71 0.0002543882    1.144    0.126
        63  -9.2632     53.1069    198.2947   1.2415366642e+02   2.7973698058e+01    0.1572054    0.1428921  46.51  0.001196372    1.499    0.333
        64 -12.2254     11.0806    206.2370   1.3196747111e+02   3.1010472471e+01    0.8187968    0.4744632  23.24  0.005134964    3.174    0.685
        65  -9.8447    249.7920    194.1831   8.6740344194e+01  -4.2445434244e+00    0.2341501    0.1668525  11.17  0.001441507    1.264    0.209
        66 -11.5795     52.6936    193.0439   1.2377982555e+02   2.9036915238e+01    0.3396366    0.2208174  40.86 0.0006888567    1.652    0.395
        67 -10.2073     31.5576    192.5903   1.2762228223e+02   3.1522174728e+01    0.2620364    0.2050355 -61.38 0.0008066625    1.648    0.393
        68  -9.3701     26.0074    192.7321   1.2862593447e+02   3.2071645911e+01    0.1904341    0.1112844  57.00  0.001006752    1.430    0.301
        69  -9.9554     21.2547    192.0643   1.2942489273e+02   3.2676727234e+01    0.4113105    0.1533051  76.69  0.001716133    2.980    0.664
        70  -9.1789    191.6961    191.5538   9.6556416163e+01   6.5047979412e+00    0.1704019    0.1149529  49.44 0.0003761434    1.408    0.290
        71 -13.8561     27.5464    218.1342   1.2993969089e+02   2.7223401752e+01    0.7955098    0.5305618  67.15  0.005032948    1.091    0.084
        72 -10.2325    250.4855    187.5313   8.5370230898e+01  -3.5560603302e+00    0.2508142    0.1152857 -28.57  0.001219874    2.205    0.546
        73  -9.0069     76.4126    187.2339   1.1865149657e+02   2.7097227883e+01    0.2754871    0.1406961 -78.90  0.001412189    2.103    0.524
        74 -10.4528      9.7556    187.1282   1.3114999237e+02   3.4710092873e+01    0.2610914    0.1288441  88.68  0.001399371    1.603    0.376
        75 -10.6356     71.1095    187.0253   1.1967203128e+02   2.7865160401e+01    0.2279815    0.1487289  49.07 0.0002773572    1.412    0.292
        76 -11.6822     59.2990    185.2903   1.2180368728e+02   2.9751470326e+01    0.2323089    0.1934325 -84.55 0.0004723434    1.195    0.163
        77  -8.4958    107.4472    185.5200   1.1222747628e+02   2.2757240011e+01     0.128337    0.1091404  69.63 8.963755e-05    1.005    0.005
        78  -9.4010     27.0539    179.7056   1.2750659002e+02   3.4520663672e+01    0.1919985    0.1253166 -80.31 0.0002606541    1.278    0.218
        79  -8.3394     47.6632    179.7097   1.2354464743e+02   3.2285526978e+01    0.1012368    0.0869862 -50.87 0.0007022497    1.638    0.390
        80  -8.9001     81.0941    178.6390   1.1671780204e+02   2.8163016574e+01    0.1541689    0.1131964  33.09 0.0003955522    1.682    0.406
        81  -9.7395     36.7997    180.6360   1.2572890358e+02   3.3317443148e+01    0.2879566    0.1292822 -66.32  0.001529311    2.018    0.504
        82 -11.4340    248.3762    172.4747   8.2763975271e+01  -1.2766753091e+00    0.4408227     0.319384  -2.35  0.002566482    1.330    0.248
        83 -10.6038     70.8608    173.2728   1.1818817033e+02   3.0692737828e+01    0.2246111    0.1816376  75.00 0.0003201294    1.041    0.039
        84  -9.6767     55.5330    172.4965   1.2126016154e+02   3.2827334230e+01    0.2019072    0.1582274 -85.45 0.0005697667    1.107    0.097
        85  -9.6089     51.7565    171.3537   1.2191354629e+02   3.3520449526e+01    0.2581239     0.135232  46.58 0.0008757824    1.802    0.445
        86  -9.6677     12.3434    172.3974   1.2975850463e+02   3.7375455599e+01    0.2552521     0.109797 -87.19   0.00144082    1.947    0.486
        87 -11.1608      9.8873    156.8950   1.2914212682e+02   4.0749211881e+01    0.9332752     0.280809  75.99  0.002563089    8.835    0.887
        88 -11.1679     12.2398    153.7151   1.2842160927e+02   4.1216566606e+01    0.2831186    0.1629403 -69.93  0.001848841    1.466    0.318
        89 -11.3077     48.7046    216.1256   1.2631137294e+02   2.5202346337e+01    0.5651813    0.2497493  67.35  0.003167855    2.130    0.531
        90 -11.5377     12.4027    167.2313   1.2939226577e+02   3.8413781551e+01     0.302699    0.1782641  38.79  0.002047331    1.889    0.471
        91 -11.9932      9.2783    165.1158   1.2984866642e+02   3.9111615353e+01    0.3889391     0.228182 -51.94  0.002479838    2.237    0.553
        92  -9.9941     27.3047    171.6263   1.2682956410e+02   3.6129378477e+01    0.2476428    0.1525636 -59.13 0.0004746246    1.796    0.443
        93  -9.4346     18.1426    172.2724   1.2864938611e+02   3.6876331998e+01    0.2000001    0.1127746  60.35  0.001187223    1.541    0.351
        94 -11.4719     39.0669    167.8730   1.2415862968e+02   3.5686085228e+01    0.2497541    0.2261471 -75.46 0.0004222785    1.355    0.262
        95 -12.1965    245.2284    162.4712   8.1237631061e+01   6.4233405385e-01    0.9796813    0.3510489 -43.38  0.003518598    3.791    0.736
        96 -11.0296    247.9548    157.4800   7.9728170187e+01   8.2615809616e-01    0.7446919    0.3227199  58.42   0.00258584    4.308    0.768
        97 -11.7238     78.8586    165.3011   1.1550026056e+02   3.1254620935e+01    0.4310761    0.4060637  72.16  0.001850417    1.230    0.187
        98 -10.0743     68.1355    166.2962   1.1792789192e+02   3.2520730160e+01    0.2155959    0.1532774 -83.83  0.000369563    1.257    0.204
        99  -8.7818     91.5157    168.5301   1.1321306181e+02   2.8702618666e+01     0.130822    0.1105763  77.83  0.000247846    1.023    0.023
       100  -9.5501     24.0197    161.9626   1.2668862611e+02   3.8444190654e+01    0.1682048    0.1278807  87.37            0    1.026    0.025
       101  -8.9674     66.9238    161.2372   1.1756417428e+02   3.3759084203e+01    0.1645735    0.1442983 -13.94 0.0003657766    1.781    0.438
       102  -9.4075     28.5552    161.0357   1.2568254885e+02   3.8201069574e+01    0.1648918   0.09054922 -77.26  7.58942e-05    1.484    0.326
       103 -10.4056     82.1437    157.3383   1.1367986849e+02   3.2484519807e+01    0.3450311    0.2366293  60.81  0.001950379    1.405    0.288
       104  -8.5284     66.6193    157.2361   1.1712150900e+02   3.4661329020e+01     0.129544   0.08016497  66.24 0.0002820253    1.628    0.386
       105 -10.5601     32.1702    153.9948   1.2426649941e+02   3.9336567382e+01    0.2709769    0.1724979 -58.79  0.001104529    1.623    0.384
       106 -10.9179     25.7210    155.2601   1.2575257914e+02   3.9693146418e+01    0.2874677    0.2055849  19.43  0.001891091    2.128    0.530
       107 -10.8552    249.5688    151.0902   7.8089523487e+01   1.4152737207e+00    0.3649969    0.2572102 -25.98  0.002014098    1.341    0.254
       108  -9.5038     54.0704    151.8819   1.1923900101e+02   3.7399767706e+01    0.2062117    0.1543998 -64.69            0    1.296    0.229
       109 -10.9808    249.5734    161.2859   8.0261856447e+01   4.3321099661e-03    0.6027293    0.1868116 -35.73  0.002277203    3.150    0.682
       110 -10.6548     93.2419    150.1094   1.1004928213e+02   3.2370175480e+01    0.2823848    0.2697124  85.17 0.0009452802    1.153    0.133
       111 -10.9070     23.3013    149.5689   1.2574458452e+02   4.1129981649e+01    0.2573531    0.1564822  44.19  0.001656506    1.732    0.423
       112  -9.8330     81.2760    148.4699   1.1255953893e+02   3.4545961480e+01    0.2547363    0.2045053  61.96  0.001535449    1.196    0.164
       113 -11.7472     68.3006    144.0137   1.1492070183e+02   3.7342414839e+01      0.63925     0.386548  80.37  0.002585321    1.928    0.481
       114  -9.7439     58.6680    147.3262   1.1761815074e+02   3.7842127714e+01    0.2411031    0.1653044 -38.29  0.001326276    2.111    0.526
       115  -8.7764     40.6815    147.3421   1.2170153195e+02   3.9900274233e+01    0.1285002   0.07539815  74.27 0.0007049367    1.717    0.417
       116 -12.8806      7.8231    143.7859   1.2855411330e+02   4.3661200942e+01    0.5876147    0.4794402  41.63  0.004565705    1.527    0.345
       117 -12.7472    248.3661    134.2533   7.4547221431e+01   4.0678526429e+00     1.344542    0.5221245 -25.59  0.004969157    2.856    0.650
       118  -8.9752    235.8520    146.1484   7.9324056020e+01   4.7962736198e+00    0.1936063    0.1503085  11.70 0.0004510245    1.292    0.226
       119  -8.8717     96.8085    146.1740   1.0856328535e+02   3.2661638728e+01    0.1696017    0.1551793 -46.91 0.0002522868    1.275    0.216
       120  -9.9041    133.1897    141.0223   9.9094522367e+01   2.7248318278e+01    0.3105043    0.2208724 -62.37 0.0009254683    1.505    0.335
       121  -9.4828     37.1081    140.1159   1.2168499793e+02   4.1857198777e+01    0.1752836    0.1398559 -68.62 0.0005044115    1.206    0.171
       122 -11.6871    243.8800    120.8229   7.2158382077e+01   6.9884381798e+00    0.4676481    0.3655353  77.40  0.002410032    1.809    0.447
       123  -9.7141    107.1210    135.5421   1.0416072595e+02   3.3269777441e+01    0.3730091    0.2613617 -10.15  0.001590775    2.812    0.644
       124 -13.0318     12.8548    101.3831   1.2296713211e+02   5.2528743186e+01    0.5709415    0.5360903  -3.74  0.004384405    1.447    0.309
       125 -13.1516      3.6316    122.1888   1.2761330213e+02   4.8590296657e+01    0.8378689    0.3530021 -71.52  0.004714662    1.742    0.426
       126  -8.9816     93.7181    133.1960   1.0698844144e+02   3.6037691616e+01    0.1716384    0.1549001 -39.60 0.0004041181    1.293    0.227
       127  -9.5385     44.4545    129.9825   1.1865763639e+02   4.3349415608e+01    0.1860748    0.1027095 -70.10  0.000455158    1.518    0.341
       128 -12.6316     16.8641    120.7802   1.2428400677e+02   4.7944819858e+01     0.519989    0.2789984  74.45  0.002616434    2.014    0.504
       129 -11.9476    247.9100    142.3639   7.6447185800e+01   2.9762826938e+00    0.5893261    0.4934666  15.90  0.003267186    1.119    0.107
       130  -8.7449     41.5628    123.1946   1.1843195891e+02   4.5181779148e+01    0.1641307   0.09516189 -59.40 0.0002376371    1.498    0.333
       131 -10.2675     29.8297    119.3957   1.2088180845e+02   4.7167064767e+01    0.1402178    0.1183319   0.06 0.0009502948    1.709    0.415
       132 -12.8277    247.5045    101.6406   6.6968585951e+01   9.1309213717e+00     1.010959    0.6289247 -20.63  0.004745317    1.643    0.391
       133 -12.0239    247.7299    112.7226   6.9616738645e+01   7.4086277095e+00    0.6233466    0.4559144  33.27  0.003259548    1.449    0.310
       134 -12.2476      9.0628    113.3148   1.2538918785e+02   5.0157888246e+01     0.409315    0.2136225 -73.34    0.0020566    1.439    0.305
       135  -9.4582    168.2489    113.2898   8.4651770890e+01   2.5406488468e+01    0.3150456    0.2249191 -80.43  0.001308487    2.127    0.530
       136 -10.6010    232.0139    116.7496   7.3145989060e+01   1.0156357268e+01    0.2608534    0.2052376 -27.16  0.000881204    1.205    0.170
       137  -9.7923     29.4209    108.7602   1.1951738321e+02   4.9592188607e+01    0.1809357   0.08568064 -59.16 0.0009471037    1.701    0.412
       138 -13.4409      2.7611    107.8853   1.2639398642e+02   5.1753737722e+01     1.204634    0.2763522 -69.53  0.005193002    2.876    0.652
       139  -8.4966     71.7226    100.3144   1.0616476693e+02   4.6790207349e+01     0.132942   0.09964918  88.85 0.0002907757    1.566    0.362
       140 -10.0218    249.5344    117.9101   7.0568344341e+01   6.2540951633e+00    0.2761374    0.2067561 -21.78 0.0005821254    1.240    0.194
       141 -11.7113      3.2648    133.0276   1.2865935752e+02   4.6284701047e+01    0.3518705    0.1980035  82.73  0.001641174    1.522    0.343
       142 -11.9613      2.2716     78.1964   1.2278612454e+02   5.8246902263e+01    0.6036332   0.09790526 -70.75  0.001986343    4.833    0.793
       143 -11.2432      2.0000     49.9902   1.1785613967e+02   6.4236371807e+01    0.3439012   0.09351297 -65.42  0.001521666    2.736    0.634
       144 -11.6923    150.1649    247.3277   1.1198591477e+02   5.6529824433e+00    0.2951078    0.2767906  29.17  0.002162235    1.319    0.242
       145 -11.1817    198.3022    245.8452   1.0376276153e+02  -1.8366153938e+00    0.2369627    0.1323552  37.08 0.0009794857    1.380    0.276
