#   1 NUMBER                 Running object number                                     
#   2 MAG_AUTO               Kron-like elliptical aperture magnitude                    [mag]
#   3 X_IMAGE                Object position along x                                    [pixel]
#   4 Y_IMAGE                Object position along y                                    [pixel]
#   5 X_WORLD                Barycenter position along world x axis                     [deg]
#   6 Y_WORLD                Barycenter position along world y axis                     [deg]
#   7 A_WORLD                Profile RMS along major axis (world units)                 [deg]
#   8 B_WORLD                Profile RMS along minor axis (world units)                 [deg]
#   9 THETA_WORLD            Position angle (CCW/world-x)                               [deg]
#  10 FWHM_WORLD             FWHM assuming a gaussian core                              [deg]
#  11 ELONGATION             A_IMAGE/B_IMAGE                                           
#  12 ELLIPTICITY            1 - B_IMAGE/A_IMAGE                                       
         1 -14.4249     95.1070     65.8955   9.1713264568e+01   5.0526049383e+01     2.320905      1.73144  46.20   0.01212523    1.466    0.318
         2 -12.3491    163.6069     54.9375   7.0871386356e+01   3.7160299961e+01     1.042278    0.7726761 -32.28  0.004942794    1.313    0.238
         3 -13.7353    208.1685    223.7120   1.0018940170e+02   1.8383641183e+00      0.66063     0.411168  35.16  0.003740615    1.245    0.197
         4 -12.3386    224.8352    222.5359   9.7370086058e+01  -6.0598892777e-01    0.3726883    0.2630851  31.40  0.002428145    1.082    0.076
         5 -12.6518    135.2856    218.9144   1.1180296756e+02   1.3926043278e+01     0.321982    0.2207905  19.15  0.001929054    2.217    0.549
         6 -12.3580    238.3544    216.5916   9.4358252942e+01  -2.0682678905e+00    0.4575207    0.3485171  46.15  0.003267329    1.538    0.350
         7 -11.2543    152.4743    218.4849   1.0878456021e+02   1.1304919120e+01    0.1156025   0.09125096  46.82 6.780292e-05    1.010    0.010
         8 -11.1728    169.4509    214.4681   1.0534511291e+02   9.1281605067e+00    0.2502212    0.1608721  69.38   0.00138028    2.392    0.582
         9 -11.5241    228.3879    211.1219   9.5062478412e+01   1.8404580665e-02    0.3278295    0.2279508  57.54  0.002029734    2.065    0.516
        10 -11.2378    161.9699    211.1903   1.0619980221e+02   1.0787961339e+01    0.1545361    0.1260893  83.26 0.0008293692    1.583    0.368
        11 -13.0911    206.2673    204.6233   9.7645453160e+01   4.3137262967e+00    0.4575235    0.2860608  45.86  0.002378866    1.447    0.309
        12 -12.6614    142.2530    203.1638   1.0864353270e+02   1.5169988673e+01    0.2745141    0.2500229 -53.88  0.001553093    1.335    0.251
        13 -13.2926     47.0833    167.5899   1.2306591082e+02   3.5229997362e+01    0.9709316    0.8595555 -25.83   0.00701509    1.839    0.456
        14 -14.2310     23.5251    188.9858   1.2914669142e+02   3.3597693417e+01    0.4408133    0.2582504  72.80  0.003124877    1.317    0.240
        15 -14.6347     28.0326    181.5494   1.2786419688e+02   3.4540580507e+01    0.4831678    0.4542978  79.90  0.004084696    1.465    0.317
        16 -14.2144     24.8812    168.6551   1.2759892387e+02   3.7343215910e+01    0.9703503     0.342675 -79.16  0.004979136    2.481    0.597
        17 -14.0794     34.7768    165.2065   1.2536326092e+02   3.7040064415e+01    0.5521219    0.3564825  62.94  0.002926638    1.303    0.233
        18 -12.7647    196.7518    198.9946   9.8369738302e+01   6.6046358087e+00    0.3887519    0.1970605 -46.78  0.002004079    2.660    0.624
        19 -12.3444    192.2727    195.4676   9.8582311049e+01   7.8292142999e+00     0.243715    0.1864588  52.23  0.001550801    1.353    0.261
        20 -14.1465    145.0528    186.5215   1.0581471613e+02   1.7334178496e+01    0.8096303    0.4669105 -71.56  0.003839971    2.879    0.653
        21 -11.9323    117.7778    184.4160   1.1077525706e+02   2.2220094972e+01    0.3864103    0.2195422  46.84  0.002138007    1.522    0.343
        22 -13.1970    148.7124    178.8873   1.0395146887e+02   1.7957966597e+01    0.4593179     0.276887  52.76  0.002456425    1.552    0.356
        23 -13.9155    117.3076    174.7422   1.0954224365e+02   2.4035802118e+01     1.014919    0.6570534  79.39  0.005382712    1.964    0.491
        24 -13.5744    141.3210    177.7562   1.0521394908e+02   1.9442408980e+01     0.490975    0.3878722  65.57  0.002108715    1.275    0.216
        25 -14.0233    132.3373    173.9122   1.0640132975e+02   2.1665926766e+01    0.7939374    0.6499549  -2.36  0.004699783    1.794    0.442
        26 -13.1135    140.4331    192.1964   1.0750003294e+02   1.7193311886e+01    0.4224671    0.3234009  52.83  0.002720961    1.123    0.110
        27 -11.8168    156.0636    192.0347   1.0456458791e+02   1.4573442227e+01    0.1935471    0.1409262  71.70 0.0009108452    1.705    0.413
        28 -14.0442     62.3855    184.9047   1.2161008730e+02   3.0048092748e+01    0.6434258    0.4328805 -88.82  0.003283708    1.344    0.256
        29 -13.0669     68.9137    183.6630   1.2023372431e+02   2.9454699735e+01    0.3545029    0.2273252 -85.73    0.0016378    1.484    0.326
        30 -13.4165    225.4102    173.3028   8.9015193348e+01   4.8768027450e+00     1.003703    0.7498982  79.84  0.005198816    2.713    0.631
        31 -13.5565    235.7488    183.5143   8.9204412413e+01   1.8609146502e+00    0.9084027    0.5442759  47.80  0.005167167    1.734    0.423
        32 -13.9070    247.5514    172.5117   8.5275702739e+01   1.1326095957e+00     1.335908    0.5542963 -20.15  0.005938217    2.834    0.647
        33 -12.6732    247.3398    155.0590   8.1854965185e+01   3.2264761868e+00     0.602443    0.4029771  -9.75  0.003195435    1.452    0.311
        34 -11.2774    189.4810    188.9839   9.8018158695e+01   9.1908969949e+00    0.1700743    0.1231562 -35.48 0.0007223502    1.593    0.372
        35 -13.7713     46.1998    186.7093   1.2483208276e+02   3.1630143041e+01    0.3688604    0.2636124  37.19  0.002550792    1.641    0.390
        36 -13.1741    155.4538    183.1265   1.0332444637e+02   1.6079065178e+01    0.3771697     0.315068 -62.75  0.002420516    1.409    0.290
        37 -12.2764    160.4893    180.8579   1.0200995182e+02   1.5549941890e+01    0.4290774    0.2327182  32.96  0.001702159    2.003    0.501
        38 -11.0496    193.7957    187.2904   9.6971719406e+01   8.6625660797e+00     0.193653    0.1458251  54.80  0.001172716    1.442    0.306
        39 -13.5157     78.2908    179.7054   1.1799039889e+02   2.8960225046e+01    0.6019357    0.4634017 -72.41    0.0037877    1.326    0.246
        40 -11.9272    191.3317    178.6506   9.5925389894e+01   1.0309995045e+01    0.2824349    0.1389093  38.89  0.001114299    1.827    0.453
        41 -12.8474     91.1476    175.4012   1.1492123422e+02   2.7965601548e+01    0.7454079    0.3245187  56.68  0.003473013    2.385    0.581
        42 -12.1651     90.6657    169.3595   1.1426892643e+02   2.9200717923e+01    0.2687445    0.2046611  -8.06  0.001451853    2.618    0.618
        43 -14.4589     33.7387    174.4043   1.2628106624e+02   3.5331182960e+01    0.5636883    0.3456427  82.67  0.002506771    1.342    0.255
        44 -13.2657    199.0250    168.0247   9.2601609058e+01   1.0414434350e+01    0.6783639    0.3423066 -42.09  0.003241048    2.262    0.558
        45 -13.3418    203.6795    165.9865   9.1379130513e+01   9.8328839729e+00    0.7907488    0.3339511 -27.51  0.003216035    3.063    0.674
        46 -13.2171    202.4052    159.2487   9.0294545688e+01   1.1047387769e+01    0.6068765    0.3897513  24.33  0.003014566    1.703    0.413
        47 -11.8022    101.4995    171.9538   1.1237336302e+02   2.7068739096e+01    0.2305992    0.2015903  55.58  0.001544908    1.137    0.120
        48 -14.9970     30.7036    199.4548   1.2848859599e+02   3.0977281221e+01    0.8144671    0.4626974 -86.47   0.00574117    1.518    0.341
        49 -13.7389    100.6116    164.3690   1.1152122354e+02   2.8670812101e+01    0.6462229    0.4043607  35.65  0.002986989    1.764    0.433
        50 -11.2185    187.8329    161.5698   9.3426934525e+01   1.3503018019e+01    0.3588234    0.2026994  30.97  0.001683359    1.934    0.483
        51 -11.3323    128.4933    156.5093   1.0438624738e+02   2.5543059978e+01    0.2608364    0.2087597  62.37  0.001413074    1.197    0.164
        52 -11.7613     91.7314    163.4344   1.1327186427e+02   3.0208623816e+01    0.3138741    0.1382634  53.77  0.001414388    2.264    0.558
        53 -14.4670    214.8646    145.5937   8.5261656669e+01   1.0602667370e+01     1.593342    0.9516067  17.69  0.007216895    2.201    0.546
        54 -12.5905    228.4842    138.8279   8.1464382445e+01   8.8703657701e+00     0.969402    0.2069435 -36.35  0.002994818    4.447    0.775
        55 -13.0907    143.9948    152.0930   1.0032899828e+02   2.3538076315e+01    0.6902889    0.3944688  35.82  0.003234694    1.884    0.469
        56 -12.8358    104.2052    153.0440   1.0906721356e+02   3.0352502903e+01    0.4576769    0.3144455 -29.17  0.002279629    2.427    0.588
        57 -11.5244    199.8405    152.5060   8.9402359663e+01   1.2549486006e+01    0.2731099    0.2201456  36.87   0.00128421    1.140    0.123
        58 -13.0993    142.3732    141.2037   9.8583363815e+01   2.5899653299e+01     1.038553    0.4671353  50.46  0.004263496    2.219    0.549
        59 -14.4050    204.3407    130.2344   8.3748219887e+01   1.5063198931e+01     1.342077     1.182933  71.84  0.007581361    1.392    0.281
        60 -14.6367    190.3989    123.0766   8.4691172520e+01   1.9205760044e+01     1.899076     1.415096 -35.54  0.009746474    1.358    0.264
        61 -12.2488    162.6700    124.2752   9.0576060151e+01   2.4975949308e+01     0.632453    0.3821554 -29.31  0.002777489    1.970    0.492
        62 -11.3778    248.0201    126.1589   7.5509134656e+01   6.7552345624e+00    0.3484821    0.2713609  -0.59  0.001869603    1.193    0.162
        63 -12.4675    166.0246    117.1169   8.8173238617e+01   2.5575552781e+01    0.4424195    0.3752371  12.03  0.002044545    1.334    0.250
        64 -12.1682     48.9631    118.7246   1.1702616166e+02   4.5445323529e+01       0.4498    0.3612189 -55.74   0.00291554    1.325    0.245
        65 -13.9493    236.8465    113.9817   7.4403131486e+01   1.0638857783e+01     1.560931     1.115689  75.38  0.007663324    2.131    0.531
        66 -12.7657    220.5115    115.4370   7.7412934003e+01   1.3878782143e+01    0.8131001    0.4779272 -35.04   0.00380816    1.655    0.396
        67 -11.2630    157.2188    118.0961   9.0294248554e+01   2.7295917302e+01    0.4561747    0.2151134  52.90  0.001777207    2.231    0.552
        68 -12.0263     31.5923    117.2300   1.2130535346e+02   4.7568135915e+01    0.2818464    0.1650466 -54.27  0.001633985    1.729    0.422
        69 -12.0382     29.8265    114.1742   1.2138457579e+02   4.8414053275e+01     0.236425    0.2167066 -34.85   0.00157342    1.461    0.316
        70 -11.9755    111.2453    139.6282   1.0522941371e+02   3.1919378164e+01    0.3284609    0.1714371  34.99  0.001451739    2.243    0.554
        71 -13.5447    177.2787    125.3120   8.7798923255e+01   2.1662338332e+01    0.9273136    0.7997239  53.86  0.005085943    1.181    0.153
        72 -11.8376    131.6576    108.0822   9.3707760955e+01   3.4633159944e+01    0.6466595    0.3337493  35.29  0.002543441    2.397    0.583
        73 -11.9896    139.7396    102.1014   9.0274440144e+01   3.4159798479e+01    0.5319392    0.3994694  13.08  0.002466487    1.845    0.458
        74 -12.8644    144.8366     92.9764   8.6634473015e+01   3.4852154176e+01    0.8600267    0.5220962 -39.90  0.003768696    1.625    0.385
        75 -13.5724     28.3944    103.4850   1.2037195858e+02   5.0945293757e+01    0.7007953    0.5118545 -60.65  0.004283788    1.269    0.212
        76 -12.0118    102.8654    102.2259   9.9547717407e+01   4.1378516675e+01    0.5318692    0.3952372  33.27  0.002750888    1.556    0.357
        77 -12.2337     95.3921    105.4087   1.0226202796e+02   4.1970005207e+01    0.4451499    0.3293662  55.63  0.002370532    1.430    0.301
        78 -12.6610     97.3237     99.3368   1.0033953089e+02   4.2977784996e+01    0.4865149    0.4688817 -33.15  0.002802699    1.153    0.133
        79 -11.6272    148.7350    103.0817   8.8443389155e+01   3.2022698748e+01    0.5690429    0.3200172 -28.31  0.002251923    2.260    0.557
        80 -10.7693    163.6833    137.1662   9.3230872088e+01   2.2405631437e+01    0.2211481     0.180711 -61.46  0.001099834    1.397    0.284
        81 -12.0350    213.6376     99.1674   7.4512600409e+01   1.7862997625e+01    0.6421329    0.5796909   3.91  0.003576494    1.074    0.069
        82 -11.7979    209.5873     92.1393   7.3360712562e+01   1.9880642777e+01    0.8496764      0.37066  41.54  0.003129313    2.556    0.609
        83 -11.8803     39.0024    101.3717   1.1709179382e+02   5.0426813397e+01    0.3618949    0.2428603  28.18  0.002161816    1.870    0.465
        84 -12.3612     31.0472     92.0383   1.1790464101e+02   5.3303946284e+01    0.3738735    0.2751012 -43.47  0.002370602    1.521    0.343
        85 -14.1233     67.8258     92.0394   1.0697782004e+02   4.9163655492e+01     1.660024     1.029733 -36.64   0.00816688    1.997    0.499
        86 -13.3216     50.3053     84.8724   1.1071432534e+02   5.2981419687e+01     1.087809    0.5583087 -73.53   0.00506676    2.091    0.522
        87 -13.5888     86.3398     94.7645   1.0227780378e+02   4.5810295182e+01    0.7184424    0.6388381  51.25  0.004168069    1.214    0.176
        88 -13.7855     84.1864     88.0361   1.0124976095e+02   4.7646392486e+01    0.9804373    0.8079164  55.63  0.005590318    1.323    0.244
        89 -12.9209    185.0305     87.8337   7.6637377890e+01   2.6405637924e+01    0.7297896    0.6539145  67.87   0.00384225    1.214    0.177
        90 -12.3821    185.8604     97.8442   7.9213264428e+01   2.4509935435e+01    0.5141181    0.3777641  62.90  0.002446838    1.525    0.344
        91 -15.0094     40.3678     83.7014   1.1357201556e+02   5.4314051660e+01     1.255591    0.7543834 -66.97  0.007014387    1.387    0.279
        92 -11.8130     19.3347     96.8336   1.2201858937e+02   5.3195653017e+01      0.32141    0.2624244  66.84  0.002283368    1.285    0.222
        93 -11.6226    197.1403     94.0938   7.6083025417e+01   2.2487652218e+01    0.4662861    0.3357249  71.71  0.002157051    1.746    0.427
        94 -12.1267    124.2980     86.3373   8.9792967161e+01   4.0606369727e+01    0.8677424    0.5942786 -87.45  0.003595491    2.389    0.581
        95 -12.1615    121.8777     76.3299   8.7477860437e+01   4.3130669894e+01    0.8717042    0.7108083  22.47  0.004422626    1.435    0.303
        96 -12.9555    154.1624     81.2634   8.1146555167e+01   3.4941073763e+01     1.199693    0.7551504  47.46  0.005273114    1.614    0.380
        97 -11.6331    171.6621     81.6826   7.7530718742e+01   3.0684807714e+01    0.6216959    0.3346448 -35.75  0.002519687    1.809    0.447
        98 -12.2136    129.9323     82.7260   8.7324321810e+01   4.0139270768e+01    0.4594894    0.2870519  50.24  0.002050154    1.667    0.400
        99 -12.0775    138.5144     78.8391   8.4057010699e+01   3.9005068269e+01    0.5414147    0.4416929  38.91  0.002724734    1.287    0.223
       100 -12.8528    202.3618     76.2271   7.0223681342e+01   2.4072689587e+01      1.16838    0.4339792  47.34   0.00401763    2.770    0.639
       101 -15.4477     43.5173     65.8676   1.0857197003e+02   5.8003319467e+01     1.465118     1.347148 -51.11     0.009993    1.130    0.115
       102 -14.5043      6.3910     69.9849   1.2217539385e+02   6.0095367836e+01     1.301592    0.5016656 -50.88  0.006668378    2.244    0.554
       103 -12.3568    131.7567     63.0532   8.0719288184e+01   4.3501648434e+01    0.6630399    0.5242137 -82.59  0.003164093    1.662    0.398
       104 -12.1267     79.6699    245.5104   1.2338137322e+02   1.7847389534e+01    0.1515963   0.08587836 -73.96  0.001096521    2.017    0.504
