#   1 NUMBER                 Running object number                                     
#   2 MAG_AUTO               Kron-like elliptical aperture magnitude                    [mag]
#   3 X_IMAGE                Object position along x                                    [pixel]
#   4 Y_IMAGE                Object position along y                                    [pixel]
#   5 X_WORLD                Barycenter position along world x axis                     [deg]
#   6 Y_WORLD                Barycenter position along world y axis                     [deg]
#   7 A_WORLD                Profile RMS along major axis (world units)                 [deg]
#   8 B_WORLD                Profile RMS along minor axis (world units)                 [deg]
#   9 THETA_WORLD            Position angle (CCW/world-x)                               [deg]
#  10 FWHM_WORLD             FWHM assuming a gaussian core                              [deg]
#  11 ELONGATION             A_IMAGE/B_IMAGE                                           
#  12 ELLIPTICITY            1 - B_IMAGE/A_IMAGE                                       
         1 -14.9735    245.3452     13.4044   9.0645375905e+00   2.5310995079e+01     2.310405    0.4806937 -36.74   0.01083536    2.581    0.613
         2 -13.9233     12.2509     21.9693   6.6965429021e+01   7.6627348210e+01     1.124284    0.5459005 -30.34  0.004637051    2.702    0.630
         3 -12.9921     25.8920      3.1995   3.9919041222e+01   7.7586507097e+01    0.8020055    0.2809728  45.65  0.003245786    2.579    0.612
         4 -12.3947      1.8204     23.8301   7.8610877109e+01   7.7203060096e+01    0.7987611    0.2389634 -70.55  0.002697456    4.042    0.753
         5 -13.5321      6.6922      8.4885   6.3345029677e+01   7.9962551183e+01     1.160411    0.6713605 -34.52  0.006045312    1.775    0.437
         6 -12.0459     13.8451     11.5067   5.7941731510e+01   7.8451659086e+01    0.3607873    0.2372577 -26.83  0.001625759    1.651    0.394
         7 -12.3109     16.0093      5.5361   5.0470337282e+01   7.9105218543e+01    0.4955333     0.338138  -5.68  0.002641297    1.829    0.453
         8 -12.2691     26.7864     14.6271   4.9079985382e+01   7.5782599512e+01    0.3467059    0.2095096 -22.66  0.001652321    2.058    0.514
         9 -12.7691     20.3845     12.3123   5.2439836918e+01   7.7285503029e+01    0.4758491    0.2678668 -28.28  0.002265992    2.087    0.521
        10 -12.6840      2.8285     38.8914   8.3227770618e+01   7.3545149585e+01    0.8364648    0.2194706 -72.28  0.002704836    3.880    0.742
        11 -11.4104    249.0798    249.1970   5.1498555623e+01  -4.0730267681e+00    0.3108265    0.1616745   9.90  0.001955484    1.615    0.381
        12 -10.8280    249.1719    243.8765   5.0771206464e+01  -3.5414819920e+00    0.2109994    0.1039404 -28.99  0.001007045    1.646    0.392
        13 -11.3570    240.8382    249.9485   5.2758084477e+01  -3.5088535221e+00    0.2870291    0.1355778  19.91  0.001854093    1.861    0.463
        14 -11.7919    250.0765    231.7990   4.8976133355e+01  -2.3523336415e+00    0.2967961    0.1270186 -28.62  0.001900547    1.820    0.450
        15 -11.9605    243.3680    244.4744   5.1664360608e+01  -3.1444253351e+00    0.3719341    0.1542308 -22.55  0.001761489    2.059    0.514
        16 -12.2183    247.5958    238.2883   5.0225078096e+01  -2.8373820689e+00    0.3514066    0.1548955 -23.85  0.001986054    1.808    0.447
        17 -11.8584    240.4992    238.0055   5.1186569566e+01  -2.2263702664e+00     0.243975     0.121223 -21.06  0.001384601    1.601    0.375
        18 -11.8149    243.8738    233.9211   5.0137768944e+01  -2.0671507854e+00    0.2067135    0.1071368 -23.84  0.001141407    1.482    0.325
        19 -11.3583    233.4096    249.8076   5.3815723408e+01  -2.8985271173e+00    0.2498462    0.1374222   9.68  0.001744492    1.482    0.325
        20 -12.7305    234.4309    243.1332   5.2768976581e+01  -2.2726358435e+00    0.4031933     0.193272 -14.78  0.002230981    1.893    0.472
        21 -11.9981    225.8199    247.2390   5.4604529919e+01  -1.9924322301e+00    0.2964455    0.1528219 -21.77  0.002101946    1.599    0.375
        22 -11.5684    156.9725    250.4841   6.6754003561e+01   4.1586619095e+00    0.2994354   0.08775418  27.69  0.001375526    2.779    0.640
        23 -11.4664    104.4092    250.3738   7.7349159980e+01   9.8367192556e+00    0.3088453   0.07360991  31.43  0.001257982    2.925    0.658
        24 -11.6583     87.0470    250.1765   8.1074957374e+01   1.1759485367e+01    0.4133131     0.142895  22.91   0.00180524    2.604    0.616
        25 -11.9181     75.4566    249.2412   8.3546784258e+01   1.3163147448e+01    0.5129875    0.1497765  37.61  0.002287769    2.455    0.593
        26 -11.6695     51.3832    249.1298   8.8904886430e+01   1.5680376262e+01    0.4562187    0.1684629  36.81  0.002206595    1.899    0.473
        27 -12.0374     37.8039    247.8527   9.1882371690e+01   1.7246681860e+01    0.5970598    0.1998501  45.50  0.002868464    2.246    0.555
        28 -10.7548     27.3022    248.4740   9.4259962166e+01   1.8118019624e+01    0.3372946    0.1668738  48.84  0.001949815    1.592    0.372
        29 -11.8993     20.7346    247.9972   9.5704427217e+01   1.8799817065e+01    0.4444493    0.2065853  47.83  0.001988541    1.627    0.385
        30 -12.4436     16.4298    239.1426   9.6377857632e+01   2.0862525998e+01    0.7547048    0.2107977  39.69  0.003507251    2.229    0.551
        31 -10.3726      1.4073    233.6851   9.9676860104e+01   2.3197760077e+01    0.2251299    0.1324492  82.16  0.001169537    1.721    0.419
        32 -12.7269      2.7425    209.0629   9.8774621321e+01   2.8284312538e+01     1.034273    0.3104625  79.58  0.003975744    3.560    0.719
        33 -11.7547      7.0358    234.8892   9.8410486072e+01   2.2499835974e+01    0.4631447    0.2267467  69.06  0.001994404    1.918    0.479
        34 -11.3475     14.6210    230.7229   9.6519567024e+01   2.2690229509e+01    0.4512445    0.1967374  47.91  0.002220976    1.732    0.422
        35 -11.2091     11.5530    224.5551   9.7049792644e+01   2.4221132873e+01    0.4067636    0.1706518  44.05  0.001618554    1.736    0.424
        36 -11.8003      5.1952    226.8070   9.8634639891e+01   2.4285816726e+01    0.5158277    0.2282723  57.44  0.001999715    1.850    0.459
        37 -11.8118      2.5081    219.2426   9.9092196068e+01   2.6087079273e+01    0.4300359    0.2311204  70.31  0.001782314    1.697    0.411
        38 -11.7811     12.7574    247.9803   9.7470564668e+01   1.9499049153e+01    0.4684531    0.1917348  40.22  0.002052899    1.657    0.397
        39 -12.0155      4.1945    249.5177   9.9382268691e+01   1.9928912153e+01    0.3955711    0.2643664  35.91  0.002079131    1.134    0.118
        40 -12.3202      3.5205    241.6727   9.9366218174e+01   2.1463504490e+01    0.5747002    0.2288271  50.41  0.002367645    1.828    0.453
        41 -11.9232     85.0876    242.9096   8.0884594520e+01   1.3214001307e+01    0.3239695    0.1200718  35.60  0.001546204    2.037    0.509
        42 -12.1875    226.2051    239.9515   5.3557794732e+01  -1.2203774919e+00    0.3097112     0.124371 -28.57   0.00188942    2.153    0.536
        43 -11.7747     57.7283    240.5291   8.6921328792e+01   1.6600975750e+01    0.4181632    0.1845088  45.83  0.002128074    1.925    0.480
        44 -12.1270     30.3122    239.5469   9.3201115310e+01   1.9521636675e+01    0.4574734    0.2240273  53.12  0.002206065    1.747    0.428
        45 -11.8016     73.4175    239.3259   8.3225499366e+01   1.5139122427e+01    0.3384692    0.1365666  45.97  0.001588397    2.300    0.565
        46 -10.5669     38.6724    239.1387   9.1246715920e+01   1.8797238579e+01    0.2796876    0.1255575  45.65  0.001464813    1.754    0.430
        47 -11.3613    108.0125    239.5005   7.5488677575e+01   1.1212049336e+01    0.1965531    0.0971921  27.58  0.001043195    1.621    0.383
        48 -10.8606     45.5037    235.9311   8.9473346597e+01   1.8734443354e+01    0.2599426    0.1235756  40.68  0.001373934    1.606    0.377
        49 -10.5282     82.6671    235.3227   8.0761199636e+01   1.4837139458e+01    0.1299834   0.07686936  49.63 0.0003979841    1.704    0.413
        50 -12.0292    231.5419    233.0742   5.1800452762e+01  -9.1533166182e-01    0.2661948    0.1403618 -19.14   0.00184694    1.553    0.356
        51 -11.1903     39.9470    229.6894   9.0429415048e+01   2.0524589961e+01    0.2959222    0.1612584  59.73  0.001595576    1.791    0.442
        52 -11.0681     60.7379    230.0120   8.5463081593e+01   1.8283333396e+01    0.2900603   0.08956038  44.30  0.001181052    2.717    0.632
        53 -12.5134     26.2273    227.0617   9.3602731629e+01   2.2388451764e+01    0.5167767    0.2479863  76.23  0.002597475    2.301    0.565
        54 -10.6257     49.1709    228.9739   8.8165196361e+01   1.9723402543e+01    0.2162237    0.1101996  58.35  0.001088721    2.015    0.504
        55 -12.0751    248.6560    223.4495   4.7976579926e+01  -1.3276811248e+00    0.3257871    0.1424403 -26.94  0.002139531    1.786    0.440
        56 -11.5399     19.0614    220.5240   9.5071748639e+01   2.4410436990e+01     0.404173    0.1629831  55.82  0.001822398    2.148    0.535
        57 -12.2097     13.0458    215.5765   9.6378207958e+01   2.6001642076e+01    0.4918892    0.2639278  52.60  0.002039726    1.510    0.338
        58 -11.3493    238.9858    217.0125   4.8384854146e+01   2.5957787558e-01    0.2551658    0.1122815 -27.07  0.001587906    1.849    0.459
        59 -11.0439     35.2602    215.7490   9.0776911763e+01   2.3893378760e+01    0.3085727    0.1360444  65.85  0.001364374    2.533    0.605
        60 -12.0704    248.5030    213.6663   4.6554942247e+01  -2.1664752979e-01    0.3629742    0.1483885 -28.75  0.002247501    1.920    0.479
        61 -11.9147    236.6964    226.6274   5.0124927041e+01  -6.4095145286e-01    0.3100222     0.133321 -29.45  0.001968544    1.889    0.471
        62 -10.6960     28.9847    210.7554   9.2100316601e+01   2.5600607747e+01    0.2011443    0.1140908  60.55  0.001046222    1.637    0.389
        63 -11.2281     21.2488    210.0887   9.4065574318e+01   2.6477323063e+01    0.2581903    0.1478328  64.47  0.001374441    1.621    0.383
        64 -13.0813     12.9713    203.6319   9.5946359165e+01   2.8667309827e+01    0.5668745    0.2900261  55.24  0.002790776    1.644    0.392
        65 -10.1400    250.4859    199.4506   4.4111197916e+01   1.2530378040e+00      0.21367   0.07698371 -34.25  0.001211132    2.167    0.538
        66 -12.3761      3.9828    195.3183   9.8050240241e+01   3.1332704004e+01    0.5141203    0.2330275  65.82  0.002365507    1.980    0.495
        67 -11.8866     17.3085    194.9060   9.4396136869e+01   3.0318379384e+01     0.331273    0.1310302  38.82   0.00147718    1.940    0.485
        68 -10.9578     17.9732    188.9769   9.3914851607e+01   3.1679702127e+01    0.2407634    0.1218165  54.60  0.001139176    1.719    0.418
        69 -12.6536      3.8074    186.6190   9.7814041814e+01   3.3426822495e+01    0.6631813    0.2084603  56.60  0.002594017    2.692    0.629
        70 -12.6157      2.2191    176.8849   9.7936474516e+01   3.5950767891e+01    0.5193805    0.2140632  84.99   0.00220139    2.350    0.574
        71 -12.2993     11.9377    182.1026   9.5306388576e+01   3.3886809605e+01    0.3398316    0.1633594  77.45  0.001527845    2.053    0.513
        72 -13.2094      1.6916    163.2928   9.7595346885e+01   3.9472590629e+01    0.5968291    0.4175286  68.06  0.003252032    1.244    0.196
        73 -11.9156     11.1404    165.8340   9.4735062055e+01   3.8099908112e+01    0.2380762      0.16128  55.61  0.001114007    1.285    0.222
        74 -12.3123      3.9183    152.7250   9.6413848388e+01   4.2123083365e+01    0.3910088    0.1645831 -73.14  0.001612423    2.238    0.553
        75 -11.2728      4.5283    135.0094   9.5248229406e+01   4.6942432545e+01    0.2268252    0.1298329 -84.92  0.001037564    1.609    0.378
        76 -10.7704      3.0000    125.9548   9.5273818830e+01   4.9577692049e+01    0.2444755    0.0753104 -82.31 0.0008071233    2.975    0.664
        77 -11.3844      3.3368     65.5337   8.8863220056e+01   6.6572230444e+01    0.2638337    0.1217069 -75.21  0.001095095    1.993    0.498
        78 -12.6571      3.7606     49.0074   8.5223351845e+01   7.0931687086e+01    0.6513095    0.2736291 -60.40  0.002765249    2.021    0.505
        79 -11.7190      8.8029     42.2926   7.9332914174e+01   7.2288644536e+01    0.3153181    0.1745386 -63.92  0.001350579    1.694    0.410
        80 -12.8140    212.0497    246.3894   5.6626570675e+01  -6.9453349268e-01    0.4663644    0.2361568  -6.83  0.002928245    2.004    0.501
        81 -12.1970    168.2526    248.8006   6.4446068673e+01   3.2224502016e+00    0.3702348    0.1625231  15.75  0.001962142    2.270    0.559
        82 -11.9247     66.3410    247.8029   8.5469357323e+01   1.4378892377e+01    0.4142929    0.1757447  43.11  0.002129094    1.940    0.484
        83 -12.1119    127.7022    246.4512   7.2067130573e+01   7.8845906334e+00    0.3398839   0.07120892  32.87  0.001311971    3.466    0.711
        84 -12.2501    193.6133    243.7516   5.9308652509e+01   1.3409749222e+00    0.3071644    0.1595659 -12.88  0.001852427    2.025    0.506
        85 -12.5330    144.1577    245.3579   6.8622926246e+01   6.2422332662e+00     0.353735    0.1138647  29.13  0.001653714    2.490    0.598
        86 -11.3594     45.6362    243.7012   8.9891952739e+01   1.7247458775e+01    0.3727377    0.1683633  45.32  0.001980567    1.768    0.435
        87 -12.2340     13.5759     36.5386   7.3227802028e+01   7.3245487640e+01    0.4327236     0.199435 -50.25  0.001889185    1.985    0.496
        88 -11.8126     19.3029     29.0311   6.4755388842e+01   7.4254762173e+01    0.4007973    0.2345568 -28.68  0.001829126    2.068    0.516
        89 -11.9654     98.6580    243.2413   7.7908969103e+01   1.1643951102e+01    0.3443336    0.1351391  38.09  0.001672977    2.099    0.524
        90 -11.8911    116.5472    242.8768   7.4009087609e+01   9.6891615271e+00    0.2528153    0.1188581  38.53  0.001333569    1.911    0.477
