#   1 NUMBER                 Running object number                                     
#   2 MAG_AUTO               Kron-like elliptical aperture magnitude                    [mag]
#   3 X_IMAGE                Object position along x                                    [pixel]
#   4 Y_IMAGE                Object position along y                                    [pixel]
#   5 X_WORLD                Barycenter position along world x axis                     [deg]
#   6 Y_WORLD                Barycenter position along world y axis                     [deg]
#   7 A_WORLD                Profile RMS along major axis (world units)                 [deg]
#   8 B_WORLD                Profile RMS along minor axis (world units)                 [deg]
#   9 THETA_WORLD            Position angle (CCW/world-x)                               [deg]
#  10 FWHM_WORLD             FWHM assuming a gaussian core                              [deg]
#  11 ELONGATION             A_IMAGE/B_IMAGE                                           
#  12 ELLIPTICITY            1 - B_IMAGE/A_IMAGE                                       
         1 -12.2271    178.6250     23.5115   5.2497539623e+01   3.6934573889e+01     0.722863    0.4123452  30.33  0.002974979    2.305    0.566
         2 -13.3721    174.6162     19.9117   5.1814373728e+01   3.8379319198e+01    0.9450346    0.7123786  38.16  0.004509458    1.447    0.309
         3 -12.2011    179.1485      4.5172   4.6173196755e+01   3.8691269110e+01     0.549945    0.4199518  10.65  0.002728441    1.513    0.339
         4 -10.5117    137.7995      5.0664   5.1459930720e+01   4.9739050526e+01    0.2244997    0.1913788 -59.26 0.0005538578    1.231    0.188
         5 -10.0166      2.5005      5.0073   1.0669598595e+02   7.6466082483e+01    0.1576852   0.09769717 -88.35 0.0007373583    2.545    0.607
         6 -11.7434    158.0792      2.7877   4.7854128151e+01   4.4467915438e+01    0.5261686    0.2676778  89.32  0.002110172    2.288    0.563
         7 -12.3765    171.5989      4.2793   4.6866879503e+01   4.0711780201e+01    0.5389555    0.4590912  20.00  0.001887816    1.298    0.230
         8 -10.7957    135.4799    238.2851   1.0789110678e+02   1.2166532418e+01    0.2630368    0.2073917  36.46  0.001187607    1.074    0.069
         9 -11.0205    249.0602    248.9380   9.1000317035e+01  -3.5019393098e+00    0.2664955    0.1465425  17.36  0.002023755    1.365    0.267
        10 -18.8255     68.2705    225.4138   1.1899672539e+02   2.2592044142e+01     3.620785     2.593081  49.75   0.01798267    1.034    0.033
        11  -9.6621     24.8579    203.0613   1.2602211549e+02   3.1025751686e+01    0.2284601    0.1203349 -66.91  0.001476055    2.159    0.537
        12 -10.5584    192.3815    195.1512   9.2211809298e+01   9.3558019445e+00    0.5470604     0.318256 -59.18  0.002405613    4.581    0.782
        13  -8.8730    139.2118    198.9974   1.0265294110e+02   1.7068041183e+01    0.1503395    0.1301054  34.98            0    1.067    0.062
        14  -9.7726    133.2605    198.3385   1.0373325417e+02   1.8072321892e+01       0.2367     0.173069 -33.16 0.0005487974    1.765    0.433
        15  -9.0820      5.7031    227.7060   1.3042145411e+02   2.8615198303e+01   0.07516516   0.07238292  80.71 0.0003315498    1.563    0.360
        16 -10.2940    111.7390    193.2847   1.0743781677e+02   2.2100685362e+01    0.3340002    0.2019678  74.35  0.001717273    2.518    0.603
        17  -9.6131    236.8217    193.7922   8.4681577155e+01   2.9076927993e+00    0.1393602    0.1239952  10.74  0.001073382    1.385    0.278
        18 -10.1408    162.9734    225.2966   1.0160896717e+02   9.9914825198e+00    0.1619533    0.1126091  33.56 0.0003305159    1.091    0.083
        19 -10.2659    223.5353    188.1612   8.5830104933e+01   5.4330738282e+00     0.241049     0.139319  41.51  0.001447319    1.669    0.401
        20 -14.4139     41.7108    247.9883   1.2495186172e+02   2.2096393722e+01     0.375678    0.2393734  38.58  0.001729204    1.333    0.250
        21 -10.7499    158.6620    228.5568   1.0275751929e+02   1.0199462316e+01    0.2333398    0.2100345 -24.82   0.00102956    1.414    0.293
        22  -9.4901    225.8660    183.8740   8.4726423792e+01   5.5582986487e+00    0.1777503    0.1256829  13.36 0.0003762603    1.195    0.163
        23 -10.6033    187.8187    177.1046   9.0059379294e+01   1.2426422107e+01    0.2958927    0.2402063  17.78  0.001171015    1.075    0.070
        24 -10.4997    193.9754    175.1166   8.8602488168e+01   1.1674131885e+01    0.3222192    0.1716169 -35.66  0.001095254    2.056    0.514
        25  -8.9153    141.2742    170.4272   9.8055050621e+01   2.1290202203e+01    0.1727354    0.1084478  48.29 0.0004219895    1.493    0.330
        26 -10.6106    187.6622    231.0665   9.8117123996e+01   5.8865260143e+00    0.2054037    0.1697977 -23.11  0.000719471    1.496    0.332
        27 -10.2425    109.0214    168.2746   1.0473808596e+02   2.6940491480e+01    0.1845531    0.1449943  45.09 0.0003663411    1.115    0.103
        28 -10.5279     42.4596    165.9511   1.1993087094e+02   3.6327231932e+01    0.3489289     0.187636 -66.28   0.00199075    1.891    0.471
        29 -11.3966     44.1889    155.0490   1.1856344196e+02   3.8412086165e+01    0.5081438    0.3054303  43.89  0.002985962    1.482    0.325
        30 -12.6725     54.5945    147.5289   1.1517065340e+02   3.8828212708e+01     1.413875    0.3412086  43.97  0.005289916    3.396    0.706
        31 -13.1453     67.9831    143.9510   1.1127417799e+02   3.7904952971e+01    0.9656861    0.5247802  63.77   0.00425369    2.096    0.523
        32 -13.5680     68.1056    134.5572   1.0993502482e+02   3.9951788200e+01     1.517782    0.9886894  65.91   0.00581458    1.611    0.379
        33 -12.7546     36.7101    157.5246   1.2061335242e+02   3.8687236851e+01     1.014773    0.3369738 -67.04  0.004655018    2.779    0.640
        34 -11.3892     38.0634    150.0780   1.1963999394e+02   4.0133909712e+01    0.4762149    0.2384496 -62.90  0.001715736    1.994    0.499
        35 -10.7588    166.0224    218.5275   1.0022005615e+02   1.0390924526e+01    0.1989943    0.1629208 -38.03 0.0005802086    1.559    0.359
        36  -9.9298    121.8088    165.9374   1.0153695141e+02   2.5319275481e+01     0.229086    0.1630302  46.47  0.000303738    1.251    0.200
        37  -9.6329    152.0267    219.4336   1.0284193333e+02   1.2295760235e+01    0.1714206    0.1505699  65.61 0.0008336031    1.442    0.306
        38 -11.8091     54.9904    164.6217   1.1685589697e+02   3.5175801247e+01    0.5403071    0.2369132  33.24   0.00219672    2.190    0.543
        39  -8.2886    214.2643    159.2376   8.2151293056e+01   1.0344009171e+01    0.1188283    0.0817088  14.02  0.000673798    1.419    0.295
        40 -10.0817    188.4527    214.1078   9.5710613083e+01   7.6697400654e+00    0.1817045    0.1056717 -28.56  0.001131301    2.045    0.511
        41  -9.7890     17.7063    154.6400   1.2502047612e+02   4.1103612750e+01    0.1908854    0.1499504  89.69 0.0003094111    1.157    0.135
        42 -10.4783    108.2190    153.0567   1.0261389487e+02   2.9986975051e+01    0.2950968     0.228649  62.37 0.0006413543    1.301    0.232
        43 -10.5663    110.2092    148.5820   1.0140375469e+02   3.0542894571e+01    0.3128017    0.2505905 -70.40  0.000989777    1.369    0.270
        44 -10.5120    150.4995    230.5673   1.0442424337e+02   1.1088199040e+01    0.2341269    0.1914452 -58.93  0.001806803    1.729    0.422
        45  -9.4884      8.0037    149.2725   1.2707801781e+02   4.3036907000e+01    0.1593956    0.1261467  73.25  0.001151119    1.027    0.026
        46 -10.2107     27.1116    146.7118   1.2213422792e+02   4.1950839663e+01    0.2634393    0.2362411  56.82  0.001091787    1.194    0.163
        47 -11.7551     44.5976    146.8224   1.1766452471e+02   4.0136506571e+01    0.4425479    0.3588023  52.95  0.002025871    1.145    0.127
        48  -9.0440    238.4992    211.5441   8.7249887388e+01   9.4729152935e-01    0.1094934   0.07798301  15.17 7.927365e-05    1.020    0.020
        49 -12.0799     11.5323    206.5318   1.2873470889e+02   3.1642924885e+01    0.4263133    0.2808937  22.36   0.00260795    1.926    0.481
        50  -9.1256    117.5060    134.0015   9.6986466394e+01   3.2199964256e+01    0.2032783    0.1364169 -48.79  0.001020578    1.577    0.366
        51 -10.4739    107.5354    133.7315   9.9420709356e+01   3.4013016368e+01    0.2415073    0.2159943  51.75 0.0003472492    1.052    0.050
        52 -10.3425     95.5194    125.5286   1.0099595982e+02   3.7794778303e+01     0.307455    0.2363606  49.56 0.0006017461    1.249    0.199
        53  -9.1784    109.9612    122.6633   9.6608712958e+01   3.5896686798e+01    0.1962531    0.1685502  44.39   0.00051305    1.131    0.116
        54 -11.0238     60.3219    109.6698   1.0820413339e+02   4.6691249936e+01     0.443897    0.3742427 -20.56  0.001642571    1.549    0.354
        55 -11.2111     66.0005    109.5092   1.0643192496e+02   4.5956855943e+01    0.4323583    0.3376195  41.86  0.001665769    1.311    0.237
        56 -10.4063    245.0000    104.9781   6.5918534558e+01   1.1698735501e+01    0.2169689   0.06433493 -27.80 0.0008057429    2.965    0.663
        57  -9.3649    214.8554    104.4948   7.0187318668e+01   1.7598514169e+01    0.1927481     0.168033  -8.54 0.0006275648    1.038    0.036
        58  -9.9031    117.3017     66.0424   7.9449305619e+01   4.6085093204e+01     0.226278    0.2084094  46.77  0.000417271    1.102    0.093
        59 -10.3700    151.0092     64.0284   7.0626007401e+01   3.8437035837e+01    0.3401848    0.3261408  56.55 0.0007892847    1.064    0.060
        60 -12.3409    162.6755     50.2438   6.3825281433e+01   3.7653194495e+01    0.9518976    0.8005039   7.70  0.003641257    1.319    0.242
        61 -11.5650    167.0971     41.6710   6.0214778181e+01   3.7716884374e+01    0.4509124    0.3965411   3.15  0.000790686    1.216    0.178
        62  -9.0851    171.9431     50.0764   6.2142682209e+01   3.5318185979e+01    0.2077176    0.1870078 -60.26 -0.001320134    1.158    0.136
        63  -9.0209    183.1751    207.1844   9.5640035496e+01   9.2708646559e+00    0.1440176    0.1219123  40.59  0.000409034    1.295    0.228
        64 -10.1930    115.7988    248.5746   1.1226627531e+02   1.3426688589e+01    0.1828998    0.1491609  -9.99 0.0006581442    1.810    0.448
        65  -9.8172     15.0011     18.0023   1.0359755643e+02   7.2839270698e+01    0.1870203    0.1173538 -34.89  0.001065817    1.495    0.331
        66 -10.5189    128.6254    244.9737   1.0973377430e+02   1.2231670554e+01    0.1759299    0.1479333  44.01 0.0005969987    1.176    0.149
        67  -9.5897    128.0259    238.1290   1.0918562199e+02   1.3181001033e+01    0.1521399    0.1123107  41.00 0.0002948945    1.028    0.027
        68 -10.4307    123.7993    205.6753   1.0649646356e+02   1.8349944224e+01    0.2070039    0.1661922  69.77   0.00143021    1.423    0.297
        69 -10.1730    158.6581    223.9852   1.0220942671e+02   1.0765203669e+01    0.2031087    0.1290037  35.88 0.0006427869    1.201    0.167
