#   1 NUMBER                 Running object number                                     
#   2 MAG_AUTO               Kron-like elliptical aperture magnitude                    [mag]
#   3 X_IMAGE                Object position along x                                    [pixel]
#   4 Y_IMAGE                Object position along y                                    [pixel]
#   5 X_WORLD                Barycenter position along world x axis                     [deg]
#   6 Y_WORLD                Barycenter position along world y axis                     [deg]
#   7 A_WORLD                Profile RMS along major axis (world units)                 [deg]
#   8 B_WORLD                Profile RMS along minor axis (world units)                 [deg]
#   9 THETA_WORLD            Position angle (CCW/world-x)                               [deg]
#  10 FWHM_WORLD             FWHM assuming a gaussian core                              [deg]
#  11 ELONGATION             A_IMAGE/B_IMAGE                                           
#  12 ELLIPTICITY            1 - B_IMAGE/A_IMAGE                                       
         1 -12.0572    210.1443     34.0000   3.7476782692e+01   2.9379812038e+01    0.5955918    0.5926868  51.84  0.001446371    1.296    0.228
         2 -11.0710     21.9270     29.4939   8.6237841821e+01   6.9768331222e+01    0.3902514    0.2200082 -52.53  0.002039315    1.994    0.498
         3 -10.6014     32.4399     17.6349   7.4486600096e+01   7.0365516041e+01    0.3400796    0.1435233 -37.32   0.00149273    2.379    0.580
         4 -12.0066    235.7739      7.7663   2.9944085728e+01   2.7145128301e+01    0.7911121    0.5925434 -64.53  0.004648971    1.028    0.027
         5  -8.8599     45.3385      5.3204   6.1316048653e+01   6.9801188356e+01     0.133615   0.08006133  20.84 0.0007050055    1.712    0.416
         6  -9.8231     32.6647      3.2308   6.6345168511e+01   7.2211918693e+01    0.3136662    0.1035946 -32.88   0.00136333    3.145    0.682
         7  -9.3657     22.1300      1.5123   7.1390278954e+01   7.4017502523e+01    0.2397704   0.09951566  34.56  0.001188483    2.165    0.538
         8  -9.4664    110.4904    238.9874   1.0024324665e+02   1.0116062463e+01    0.1653078    0.1077103  78.74 0.0008104665    2.558    0.609
         9  -9.5060    139.7284    250.2457   9.5311570284e+01   4.2742333446e+00    0.3809048   0.07728224  34.17  0.001313325    3.770    0.735
        10  -8.2846    127.6516    250.3007   9.7864072263e+01   5.8526113528e+00    0.1245134   0.08348497  50.48 0.0007038102    1.689    0.408
        11  -9.5267    107.5859    249.7463   1.0208799091e+02   8.5720715825e+00    0.1895171    0.1618285 -84.18  0.001267057    1.486    0.327
        12  -9.4003     72.2083    250.2419   1.0973109310e+02   1.2918921017e+01    0.2103399    0.1410483  38.37 0.0009445422    1.209    0.173
        13  -9.7909     72.5889    245.5408   1.0924721701e+02   1.3751064114e+01    0.3657419    0.2348836  62.17  0.001411333    1.640    0.390
        14 -12.3329     43.1376    196.3775   1.1171874298e+02   2.7629516804e+01     1.585535    0.6902866  60.80   0.00129816    2.777    0.640
        15 -16.6350     10.2120    242.7076   1.2215550706e+02   2.0947819173e+01     13.12098     4.730047 -80.32   0.05735373    2.782    0.641
        16  -8.3594    191.4882    191.9506   7.5369671796e+01   6.8526410900e+00    0.1744054    0.1181887 -63.36  0.000809366    2.623    0.619
        17 -11.6089     54.8669    185.0153   1.0749144326e+02   2.8988906621e+01     0.674885    0.6555494  67.37  0.002482736    1.077    0.071
        18  -8.6175    115.0000    181.9839   9.1076363233e+01   2.1143545861e+01    0.2296887   0.08319554 -54.57 0.0006873563    2.903    0.655
        19  -9.0199     81.4878    181.8903   9.9914677433e+01   2.6262966553e+01    0.3679191    0.1842541  37.42 0.0009886872    1.851    0.460
        20  -8.9553     99.3174    181.0514   9.5014922060e+01   2.3825590444e+01    0.2419896      0.19822  17.02 0.0006444668    1.275    0.216
        21  -9.0762     40.5052    177.5422   1.1055755680e+02   3.2432528487e+01    0.2516066    0.2021493 -42.40 0.0007469975    1.422    0.297
        22  -8.5150    185.7546    173.5682   7.3029477017e+01   1.1046303456e+01    0.2652851    0.1293277  32.38   0.00114605    2.157    0.536
        23 -10.2939     68.6453    171.0110   1.0189946409e+02   3.0674937188e+01    0.4777835    0.3017224 -27.48  0.001755909    2.231    0.552
        24 -10.4448     73.0013    166.4942   9.9990821162e+01   3.1202633271e+01    0.4017914    0.2777748 -48.06  0.001343383    1.505    0.336
        25  -9.4693    104.0195    172.2010   9.2281897183e+01   2.5153923009e+01    0.2586701    0.1600368  57.72  0.001092248    2.041    0.510
        26  -8.1216    110.5245    167.5243   8.9696756905e+01   2.5186288171e+01     0.147261    0.1424784  33.47 0.0001723173    1.026    0.025
        27 -11.2580     58.4668    131.4715   9.8611927591e+01   4.2091275175e+01    0.9533952    0.3976127 -74.96  0.002974629    3.696    0.729
        28 -10.9517     81.4300    158.3320   9.6225066467e+01   3.2024447184e+01    0.7828242    0.5136206  55.28 0.0004904506    1.717    0.418
        29 -11.7351     69.6768    153.2329   9.8858059063e+01   3.4997938748e+01    0.4879375    0.4299653 -15.37 0.0008872141    1.276    0.216
        30 -12.0702     69.0457    144.3085   9.7519790499e+01   3.7360807464e+01    0.9926447    0.6536719  68.89  0.004342413    1.981    0.495
        31 -10.3737     87.9858    152.2323   9.3209893687e+01   3.2539378093e+01    0.5508289    0.3785929 -14.60   0.00142647    2.055    0.513
        32  -9.4475    134.3794    149.3678   7.9770168892e+01   2.5131292397e+01    0.4815269    0.1466555 -52.90  0.001380368    3.891    0.743
        33  -9.9292    134.2547    216.8709   9.1953854027e+01   1.0917905897e+01    0.2733749    0.1697938   4.38  0.001266467    2.143    0.533
        34 -14.3322      9.6070    207.1987   1.2059858781e+02   2.8397836134e+01     1.990731     1.334151 -63.25  0.007124789    1.599    0.375
        35  -9.2212    101.6674    138.7020   8.6451572647e+01   3.3591805865e+01    0.3374165    0.2455853 -19.76  0.001503515    1.735    0.424
        36 -10.5079     89.8150    137.4340   8.9740912618e+01   3.5923133247e+01    0.2834304    0.2598058 -14.36 0.0002971853    1.152    0.132
        37 -10.4683     25.7630    137.3751   1.1035356291e+02   4.4077520002e+01    0.3807606    0.1973445  33.75  0.001390069    1.970    0.492
        38  -9.4136    105.8369    131.1773   8.3549978410e+01   3.4657300557e+01     0.447958    0.2901632 -51.79  0.001969795    1.543    0.352
        39 -10.1504    119.7911    211.7240   9.4557959077e+01   1.4059138467e+01    0.2578529    0.2014324 -70.95  0.001429678    1.599    0.374
        40  -8.9402     75.9152    209.8781   1.0493351779e+02   2.0609813759e+01    0.2883358    0.1948129 -84.36  0.001066727    1.737    0.424
        41  -9.0789    111.4988    129.0461   8.1406728755e+01   3.4111686642e+01      0.29176    0.2209672  15.26 0.0009745662    1.549    0.354
        42 -10.1464    125.9079    209.2690   9.2753852353e+01   1.3643132793e+01    0.3528043     0.211267 -10.13  0.001448018    2.818    0.645
        43  -9.6359     40.8655    207.2174   1.1323293365e+02   2.5390066702e+01    0.3108507    0.2097276  80.01 0.0008584684    1.491    0.329
        44  -9.0831     98.7794    124.8970   8.4207624493e+01   3.7445556341e+01    0.2923784    0.2362943   2.63 0.0008094084    1.454    0.312
        45  -8.2311    163.6611    121.3217   6.6288872088e+01   2.5320065725e+01    0.1506771    0.1193798 -82.66 0.0005320233    1.717    0.417
        46 -10.1422     33.1372    100.1795   1.0177585628e+02   5.3001769496e+01    0.4480958    0.1635875 -64.42  0.001670037    2.535    0.606
        47  -9.9830     33.0000    113.4940   1.0431385640e+02   4.9618856684e+01    0.6204848   0.05766941 -65.41   0.00132731    7.482    0.866
        48  -9.5600     33.0000    107.4135   1.0322314683e+02   5.1178892676e+01    0.3602602    0.1589423 -64.56  0.001477842    2.056    0.514
        49  -8.4414    107.9255    118.0749   7.9792808109e+01   3.7358656104e+01    0.2349296    0.1844944  -9.03 0.0003749164    1.563    0.360
        50  -8.8226    231.2054    113.7709   5.2630654323e+01   1.3731262767e+01    0.2222694    0.1888351 -42.46 0.0009581522    1.061    0.058
        51  -7.8505    205.6839    110.3050   5.5722620736e+01   1.8948074975e+01    0.1360459    0.1021746 -67.27 0.0003379391    1.625    0.384
        52  -9.2434     89.2687    233.6342   1.0439878989e+02   1.3942222471e+01    0.2132932    0.1253028  54.42  0.001027356    1.810    0.447
        53  -9.6267     41.7941    103.8766   9.9159079218e+01   5.1172964707e+01    0.3652888    0.2434561  51.99  0.001744623    1.797    0.444
        54  -9.7515    111.0721    203.9526   9.5524213237e+01   1.6957225168e+01    0.2143412    0.1920083  14.77 0.0006845956    1.093    0.085
        55  -9.6604    122.7083    199.4194   9.2004900371e+01   1.6147383460e+01    0.2977905    0.2242743  71.41  0.001219772    1.832    0.454
        56  -8.2531    168.5246    233.1165   8.6943380651e+01   3.2016048023e+00    0.1729493     0.119227 -37.69  0.001019929    1.555    0.357
        57  -9.7238    113.4954    195.8319   9.3706189363e+01   1.8328274609e+01    0.3463578    0.1822552 -21.45  0.001102677    4.382    0.772
        58  -8.0362    150.9770     82.9942   5.9077987395e+01   3.5423665320e+01    0.1792898    0.1632629 -43.07 0.0003551717    1.088    0.081
        59  -8.5976    111.4589     81.4828   6.8550703082e+01   4.4588282428e+01    0.2843843    0.1426344  57.30  0.001028005    2.521    0.603
        60  -8.9532     17.6422     56.7009   9.8356939841e+01   6.4694122185e+01     0.142657   0.08188625 -28.45 0.0007035896    1.708    0.414
        61 -11.1589    189.6612     51.5288   4.3994744279e+01   3.1562453678e+01     0.629041    0.3331352  49.41   0.00184097    2.152    0.535
        62 -11.8097    200.2827     43.4479   4.0714602292e+01   3.0305663505e+01    0.7719589     0.690818 -77.47  0.003134149    1.058    0.055
        63 -10.7852    116.3331    248.8484   1.0010944272e+02   7.5866007682e+00    0.4406981    0.1623065  38.62  0.001979623    2.234    0.552
        64  -8.6989     58.9188    196.0743   1.0766188856e+02   2.5879800650e+01    0.1921218    0.1837056  64.77 0.0003404774    1.066    0.062
        65 -10.0419    119.5027    245.5362   9.9042522389e+01   7.7423354514e+00    0.2138109    0.1648156 -59.75  0.001343321    1.612    0.380
        66  -9.9023    102.0000    240.9981   1.0234972899e+02   1.0875057940e+01    0.3896378   0.08120205 -49.03  0.001251107    5.653    0.823
        67  -9.8934     49.4140    250.4242   1.1455508402e+02   1.5513299367e+01    0.2078967    0.1239125  37.59  0.001254915    1.359    0.264
        68 -10.2039     78.9428    238.4955   1.0720873652e+02   1.4316184289e+01    0.3532322     0.224527 -54.23  0.002022703    1.831    0.454
        69 -10.0872     94.1276    236.9631   1.0366102774e+02   1.2665719557e+01    0.3451185    0.1875448 -68.17  0.001667806    2.309    0.567
