#   1 NUMBER                 Running object number                                     
#   2 MAG_AUTO               Kron-like elliptical aperture magnitude                    [mag]
#   3 X_IMAGE                Object position along x                                    [pixel]
#   4 Y_IMAGE                Object position along y                                    [pixel]
#   5 X_WORLD                Barycenter position along world x axis                     [deg]
#   6 Y_WORLD                Barycenter position along world y axis                     [deg]
#   7 A_WORLD                Profile RMS along major axis (world units)                 [deg]
#   8 B_WORLD                Profile RMS along minor axis (world units)                 [deg]
#   9 THETA_WORLD            Position angle (CCW/world-x)                               [deg]
#  10 FWHM_WORLD             FWHM assuming a gaussian core                              [deg]
#  11 ELONGATION             A_IMAGE/B_IMAGE                                           
#  12 ELLIPTICITY            1 - B_IMAGE/A_IMAGE                                       
         1 -14.4677     40.4373     38.3614   8.1194675930e+01   6.5066106152e+01    0.5939786    0.4305789 -13.69  0.001576191    1.275    0.216
         2 -11.0067    223.3519     16.3717   3.3541789052e+01   2.8121790403e+01     0.331128    0.2647859  44.53 0.0009826861    1.740    0.425
         3 -13.0971    216.4992     13.5029   3.3481765046e+01   2.9942792167e+01    0.4231561    0.3390794  65.76  0.001581959    1.377    0.274
         4 -12.6535     41.6694     20.6245   7.2911301340e+01   6.7583634235e+01    0.3970737    0.2634917  42.60  0.000779301    1.732    0.423
         5 -12.5491     90.7252     18.7391   5.4556712593e+01   5.8861313495e+01    0.2898864    0.2403569  57.53 0.0004483598    1.223    0.183
         6 -11.7825    130.3903     14.9219   4.4386384204e+01   5.0175685790e+01    0.3110867    0.2066942  53.68 0.0005817249    1.331    0.249
         7 -10.4409    115.1637     11.9926   4.6249668595e+01   5.4046571622e+01    0.2199059    0.1652042  57.06 0.0004529555    1.150    0.130
         8 -12.7717     64.7246     10.9553   5.9187965633e+01   6.4874586418e+01    0.4821668    0.2204389  43.17  0.001558359    1.874    0.466
         9 -13.0206     54.4773      6.0265   6.0535399474e+01   6.7220423699e+01    0.7476066    0.4359473  62.76  0.003628308    2.673    0.626
        10 -10.3062     46.7786     11.0999   6.6098972438e+01   6.7982561854e+01    0.2026463    0.1459173  30.32 0.0006303811    1.223    0.182
        11 -11.7166     37.2635      9.5500   6.9514461977e+01   6.9621030986e+01    0.3222509    0.2336146   9.27  0.001201657    1.162    0.140
        12 -12.7911    193.5835      8.9918   3.4476850818e+01   3.5614395105e+01    0.3925373     0.208252  65.10 0.0008503781    1.723    0.419
        13  -9.6217    114.8784      7.0000   4.4530454600e+01   5.4551245353e+01    0.2072368   0.06423999  64.27 0.0003783304    2.789    0.641
        14 -11.6338    102.3534      2.8385   4.5512762588e+01   5.7752642585e+01    0.2539848    0.1815818  62.52 0.0004165386    1.244    0.196
        15  -9.9398     25.2937    225.5890   1.1968247172e+02   2.3419420922e+01    0.2244495    0.1193427  85.14    0.0012422    1.737    0.424
        16 -10.9207    229.2841    248.7483   8.1140108699e+01  -9.7884001529e+00    0.2717102    0.1696168  27.18 0.0006791487    1.411    0.291
        17 -10.9456    223.3048    249.5802   8.2344799075e+01  -9.1302923053e+00    0.3317894    0.1912209  34.30   0.00198966    1.641    0.391
        18 -10.9604    219.3425    247.6750   8.2761509440e+01  -8.3586147398e+00    0.2045758     0.160509 -49.89   0.00110576    1.955    0.488
        19 -10.1155    135.3293    225.6563   9.6198109126e+01   7.9320956355e+00    0.1383301   0.09877028  65.89  0.000705085    1.749    0.428
        20 -11.8616      2.5185    221.4070   1.2388397639e+02   2.6587613065e+01    0.3531895    0.1807316 -87.35 0.0005700236    1.638    0.389
        21 -11.2095    149.7588    221.5645   9.2462001154e+01   6.3409005891e+00    0.5897171    0.2307576 -46.17  0.002396917    2.805    0.643
        22 -11.3238     35.8849    223.1713   1.1736938610e+02   2.2750255548e+01    0.3037243    0.1847807  75.25 0.0009517002    1.483    0.326
        23 -10.2496    183.3262    223.6511   8.5770231461e+01   5.1024457798e-01     0.124681    0.1044273  69.20 0.0007049175    1.754    0.430
        24 -10.5861    174.1449    221.7432   8.7333899418e+01   2.3085552770e+00    0.2447202     0.158675 -58.71  0.001221176    2.134    0.531
        25  -9.8576    107.3301    221.6918   1.0178975675e+02   1.3214851675e+01     0.141099   0.09387443  63.93 0.0005354542    1.663    0.399
        26 -10.2034     97.5170    221.4599   1.0393429882e+02   1.4785277062e+01    0.1354914    0.1159116  58.16 0.0001872625    1.038    0.037
        27 -11.3530     22.9855    218.3483   1.1965989129e+02   2.5214008029e+01    0.3212007    0.2321837  71.20  0.001399832    1.104    0.094
        28 -11.3496    228.9488    217.9624   7.6007040216e+01  -5.4477318775e+00    0.3011378    0.1624759  32.34  0.001612695    1.798    0.444
        29 -10.2846    179.9937    216.9722   8.5321061941e+01   2.1941849041e+00    0.1986049    0.1687788  73.30  0.001133081    1.694    0.410
        30 -10.5872    239.0000    214.9739   7.3686061611e+01  -6.3975651869e+00    0.1956497   0.06196635 -37.98 0.0007125812    2.937    0.660
        31  -9.9753    193.0167    210.5031   8.1533289486e+01   1.2032065731e+00     0.186582    0.1117386  56.19 0.0008104426    2.667    0.625
        32  -9.9626    176.8025    210.5877   8.4876914225e+01   3.8608061381e+00    0.1911046    0.1200562  45.66 0.0005736696    1.671    0.402
        33  -9.8916    124.1772    205.9978   9.5723964956e+01   1.3753555295e+01    0.1788552    0.1694566  59.30            0    1.044    0.042
        34  -9.9575     94.0136    204.9883   1.0258587406e+02   1.8893854088e+01    0.2066957    0.1707295 -10.91 0.0008320201    1.678    0.404
        35  -9.9614     80.3989    201.2305   1.0528642656e+02   2.1812494991e+01    0.1938725    0.1247244 -82.50 0.0009482722    1.704    0.413
        36 -10.1760      5.7231    195.9691   1.2177483940e+02   3.1860677091e+01    0.2596973   0.08571886  52.03  0.001161144    2.707    0.631
        37  -9.2858    202.6955    195.3185   7.6789907588e+01   2.2694537458e+00    0.1242917    0.1115287 -88.35 0.0002246607    1.629    0.386
        38 -11.3524    162.1879    193.7260   8.4983246594e+01   9.6299258969e+00    0.5535448    0.3195653  43.46  0.002515979    1.707    0.414
        39 -10.1180     66.0143    194.5044   1.0786582653e+02   2.5431130602e+01    0.2033037   0.08986733  54.63 0.0008094584    2.455    0.593
        40  -9.9926     33.6844    185.9737   1.1465952779e+02   3.1453494503e+01    0.1894824    0.1422056 -87.67  0.000520051    1.146    0.127
        41  -9.6374    183.3369    184.6647   7.8665053655e+01   7.6066543920e+00      0.14013    0.1164909  84.82  0.000464731    1.746    0.427
        42 -11.2902     42.4780    183.8010   1.1232229391e+02   3.0986545149e+01    0.2276157    0.1809236  45.55 0.0005963001    1.285    0.222
        43 -10.7950     93.7988    179.2065   9.8813415028e+01   2.4933197085e+01     0.339213    0.2136794   4.54  0.001279401    3.122    0.680
        44 -10.1975    191.5579    177.3178   7.5479526668e+01   7.5366161112e+00    0.2753304    0.1350359 -46.23  0.001139808    2.076    0.518
        45 -11.2836     58.7442    176.3252   1.0736497397e+02   3.0802468172e+01    0.3123061    0.2189334 -86.93 0.0006112148    1.401    0.286
        46 -10.2825    218.1871    175.4862   6.9905794592e+01   3.1840171088e+00    0.2793256     0.177604 -36.86  0.001422533    1.443    0.307
        47 -10.0777    128.9960    176.2096   8.9447201506e+01   1.9502676437e+01    0.2201509    0.1669285 -78.68  0.001017035    1.615    0.381
        48 -10.9867     11.5816    173.2290   1.1878134151e+02   3.6664939821e+01    0.5026752    0.1593074 -68.38 0.0009035675    2.489    0.598
        49 -10.0045    159.3971    175.2447   8.2037337418e+01   1.3982316937e+01    0.2132094    0.1418308 -58.39 0.0009508822    1.742    0.426
        50 -10.3986     38.5362    174.5265   1.1227824094e+02   3.3697452314e+01    0.1348374    0.1141445  87.95   0.00010538    1.004    0.004
        51 -10.9862     34.6006    173.7962   1.1318638712e+02   3.4307291686e+01    0.1971648    0.1109869 -86.56 0.0009543648    1.720    0.419
        52  -9.9213    176.0000    170.9769   7.7459731664e+01   1.1701409476e+01       0.2473   0.08230411 -44.81 0.0008063765    2.970    0.663
        53 -11.4438     96.7175    163.7065   9.5391312823e+01   2.8235933358e+01    0.7711663    0.3924374  57.37  0.002842331    2.596    0.615
        54  -9.9505    138.3415    164.6603   8.4867602282e+01   2.0384116572e+01    0.1602734     0.121325  79.78 0.0007049491    1.771    0.435
        55 -12.7859    119.9933    158.1246   8.8162577774e+01   2.5430879543e+01    0.7801157    0.4333474  42.11  0.001622143    1.793    0.442
        56 -11.9170     21.0330    159.2738   1.1510690944e+02   3.9237221596e+01     0.423102     0.298334  67.81  0.002339776    1.380    0.276
        57 -10.8247    107.3313    158.8490   9.1641887618e+01   2.7583667488e+01    0.5821502    0.2344285  49.15  0.001949159    2.857    0.650
        58 -11.2442    168.1432    156.6073   7.6119416642e+01   1.6252112351e+01    0.4453013    0.4113223 -39.88  0.002393337    1.064    0.060
        59 -10.5192    218.3695    156.5358   6.5930427976e+01   6.5740911964e+00     0.265543    0.2015278 -38.78  0.001147509    1.205    0.170
        60  -9.9912    196.3398    157.6800   7.0371882429e+01   1.0465260544e+01    0.1442571    0.1177497 -82.33 0.0003604642    1.714    0.417
        61 -11.1351    243.3569    151.0872   6.0541974749e+01   3.2041090436e+00    0.2245768    0.1823306  15.49  0.001338061    1.388    0.279
        62 -11.4801    107.6888    146.2758   8.8972578065e+01   3.0604219681e+01    0.4726576    0.2716677  67.88  0.001624501    3.014    0.668
        63  -9.8284    148.3821    145.1892   7.8163764011e+01   2.2812306868e+01    0.2294853    0.1454769 -58.12 0.0006385376    1.763    0.433
        64 -10.5246     88.6174    145.2439   9.4099524735e+01   3.4203008453e+01    0.2823238    0.1784685  47.48 0.0009184581    1.654    0.396
        65 -10.2507     55.3223    145.6568   1.0379096651e+02   3.8979296178e+01    0.1514945    0.1022476  72.69 0.0007050348    1.729    0.422
        66 -10.4181    249.7984    144.6090   5.8205685336e+01   3.2353218305e+00    0.2729988     0.211386  80.23  0.001522628    2.027    0.507
        67  -9.9835    124.5008    143.0049   8.3720610135e+01   2.8179007803e+01    0.2301341      0.13975 -74.81 0.0008106381    2.653    0.623
        68 -10.1646    182.4212    142.1227   6.9741641692e+01   1.6375852957e+01    0.2920944    0.2041203  64.84 0.0009820492    1.861    0.463
        69 -11.2010     21.7238    139.7352   1.1266563217e+02   4.4054235175e+01    0.3281812     0.268749  20.74   0.00112413    1.490    0.329
        70 -10.8781     68.6487    136.1504   9.8153631974e+01   3.9604542841e+01    0.3025205    0.2863944  65.05  0.001137837    1.102    0.093
        71 -10.7976     82.6685    131.5142   9.2989119123e+01   3.8632707633e+01      0.27845    0.1343815 -56.71  0.001081386    1.960    0.490
        72 -11.4542     98.4759    127.7473   8.7446881657e+01   3.6848711799e+01    0.4456556    0.3296403 -83.43 0.0009355838    1.721    0.419
        73 -10.2152    117.3887    125.7662   8.1574982579e+01   3.3702883744e+01    0.3332122    0.1813166  67.97 0.0009569165    4.164    0.760
        74 -10.5530     58.9975    124.0315   9.8737247062e+01   4.4008673537e+01    0.3329061    0.1966163 -88.51  0.001318646    2.545    0.607
        75 -11.3776     43.3175    122.7608   1.0349185950e+02   4.6231438121e+01    0.7295957    0.3514627 -81.26  0.002708993    2.940    0.660
        76 -10.5794    189.7720    123.7785   6.3918188323e+01   1.8541664693e+01    0.2774504    0.2506284  34.61 0.0006461089    1.194    0.163
        77 -10.6996     28.2145    122.6286   1.0828002977e+02   4.7780487802e+01    0.2935529     0.137389  79.43 0.0009561372    4.340    0.770
        78 -12.0590     78.8654    113.6588   9.0083646265e+01   4.3671500610e+01     0.594241    0.3234973 -65.20  0.002353513    2.149    0.535
        79 -11.5598    154.9999    115.9614   6.9431929083e+01   2.7842453990e+01    0.5542131    0.3989468  84.45   0.00177667    2.012    0.503
        80 -12.6852    144.6208    103.0722   6.8482514063e+01   3.2916565956e+01     1.091583    0.7027396 -71.46  0.003830699    2.392    0.582
        81 -11.1933    136.9390    112.2318   7.2871841667e+01   3.2672922804e+01    0.7909912    0.3984059  66.53   0.00218104    4.525    0.779
        82 -11.3406    140.2596    109.1168   7.1198769893e+01   3.2615335292e+01     0.647608    0.3363056 -37.77  0.001546619    2.031    0.508
        83 -11.5928    108.2685    110.0693   8.0145586342e+01   3.9203651347e+01    0.4729487    0.3080212 -43.61 0.0005791356    1.507    0.337
        84  -9.7478     89.3151    116.3233   8.7456272627e+01   4.1267413765e+01    0.1569553    0.1178655 -20.08 0.0004116514    1.663    0.399
        85 -11.1918     24.7185    112.9991   1.0783755915e+02   5.0484226057e+01    0.3006818    0.1869205 -52.55 0.0007045001    1.389    0.280
        86  -9.5744    187.6771    113.6913   6.1871806846e+01   2.0988512071e+01    0.1504779    0.1203348   4.38 0.0007036111    1.648    0.393
        87 -11.5757    162.6520    112.6549   6.6828258372e+01   2.6813723842e+01    0.5540863    0.3224034  57.02  0.001404969    1.919    0.479
        88 -11.2460    164.1926    106.6255   6.4916789066e+01   2.7700584203e+01    0.5032927    0.2720888  55.63 0.0009116111    2.006    0.501
        89 -11.9402    158.1565    104.6567   6.5737528323e+01   2.9487800270e+01    0.7775226    0.3651008 -57.93  0.002469526    3.208    0.688
        90 -11.0860     91.7489    111.1249   8.5395150821e+01   4.2084708278e+01    0.5936798    0.2024526 -56.34  0.001789353    3.375    0.704
        91 -10.8360     19.5606    111.4447   1.0929158986e+02   5.1284833241e+01    0.3061883    0.1439002 -39.16  0.001053354    2.331    0.571
        92 -11.7769     14.2279    108.2511   1.1056029878e+02   5.2459845432e+01    0.6545137    0.2792029 -63.65  0.003047502    1.830    0.454
        93 -12.6854    127.1508    101.8845   7.2613701729e+01   3.7078605486e+01    0.8979836    0.5615212  41.71  0.003830426    1.646    0.392
        94 -10.7103    129.1701     92.4413   6.9391571302e+01   3.8619523244e+01    0.3151537    0.2325211 -46.10 0.0009481565    1.352    0.260
        95 -11.2219     57.7324    105.4695   9.5110615579e+01   4.8776945102e+01     0.379805     0.269905  11.36  0.001515224    1.717    0.417
        96 -10.0948    105.4691     94.0240   7.6502039567e+01   4.3361556727e+01    0.2797242    0.1946228 -52.42 0.0005505094    1.481    0.325
        97 -12.3365    112.6305    102.3211   7.6766804116e+01   4.0075670181e+01    0.8726656    0.4158621  48.85   0.00245416    2.253    0.556
        98 -11.8738     64.5564    103.1315   9.2216447717e+01   4.8399118188e+01     0.390097     0.313091  88.36 0.0006380413    1.556    0.357
        99 -12.1219     48.6604     99.4928   9.6863639613e+01   5.1361745127e+01    0.5779957    0.4211319 -44.11  0.001069896    1.250    0.200
       100 -10.7733     35.7138    103.1091   1.0223374032e+02   5.1904446080e+01    0.2232346    0.1911995 -12.32 0.0004755527    1.300    0.231
       101 -11.5352     19.7797    105.4389   1.0821431496e+02   5.2738394870e+01    0.2317407    0.1786558  17.57 0.0009752975    1.541    0.351
       102 -10.2703      6.5527    102.9827   1.1233936853e+02   5.4231069191e+01    0.2682591    0.1446483  89.83  0.001292543    2.145    0.534
       103 -10.0530     81.6897    100.3500   8.5758963001e+01   4.6373860903e+01    0.1511543    0.1189123  85.68 0.0007044844    1.716    0.417
       104 -11.6967     43.8306    101.8080   9.9099558447e+01   5.1362893510e+01    0.6725366    0.3120437 -72.30  0.001960069    2.842    0.648
       105 -11.4922    160.0051     96.2526   6.3062978635e+01   3.0744184059e+01    0.2836668    0.2677957  26.12 0.0003644323    1.149    0.130
       106 -10.4781     94.4101     96.6450   8.0646005248e+01   4.4943997163e+01    0.3017359    0.1385981 -60.73 0.0009563278    3.324    0.699
       107  -9.3669     77.2861     97.3123   8.6392366614e+01   4.7811200169e+01    0.1498599     0.110763 -21.36 0.0002110902    1.579    0.367
       108 -11.4663    128.0556     97.0021   7.0995879646e+01   3.7919806391e+01     0.447868    0.3271569  32.38 0.0004175653    1.521    0.342
       109 -10.7171     34.2224     89.5475   9.9801706169e+01   5.5288636496e+01    0.4065431    0.1629678 -70.91  0.001394835    3.631    0.725
       110  -9.9128    233.1061     90.4451   4.8935497321e+01   1.5497928358e+01    0.1795723    0.1338689  62.24 0.0003599347    1.505    0.336
       111 -10.9293     86.6418     87.0006   8.0329787062e+01   4.8501154501e+01     0.489499    0.3223068  82.65   0.00177141    3.391    0.705
       112  -9.7450     74.2117     87.8383   8.4771521731e+01   5.0457564878e+01    0.1943597    0.1602109 -13.14 0.0003595999    1.304    0.233
       113  -9.9599     79.5425     87.5351   8.2858123648e+01   4.9635196575e+01    0.1466979    0.1368201 -26.23 3.930288e-05    1.008    0.008
       114 -10.2403     44.1575     86.6066   9.5338890270e+01   5.4913401708e+01    0.2339569    0.1725121 -11.95 0.0006315842    1.537    0.349
       115 -12.0805     44.8384     82.2391   9.3927949762e+01   5.5827053924e+01    0.4117428    0.3190854  60.33 0.0003357711    1.735    0.424
       116 -11.2070      5.3434     85.9852   1.0997251208e+02   5.8319005931e+01    0.2313413    0.1375852 -35.78 0.0008114816    1.628    0.386
       117 -11.4470    104.3592     82.6401   7.3419454304e+01   4.5980791352e+01    0.8126293    0.3270441 -47.17  0.002874503    2.565    0.610
       118 -10.6484    140.4434     83.1580   6.3847670899e+01   3.7870563592e+01    0.3632181    0.1301809 -47.76  0.001137969    3.120    0.679
       119 -10.6396     37.0310     84.0424   9.7398568230e+01   5.6278424765e+01    0.2090325    0.1634879  74.73  0.001142616    1.755    0.430
       120 -10.9998     24.1423     78.6362   1.0111839920e+02   5.8712365115e+01    0.5689678    0.2446116 -70.69  0.002256852    2.982    0.665
       121  -9.8187     60.3312     77.3510   8.6647481226e+01   5.4878023038e+01    0.2569961    0.1306057  15.60  0.000958737    3.090    0.676
       122 -11.0446     62.3933     74.6018   8.5032754559e+01   5.5158871185e+01    0.3514658    0.1664685 -52.65  0.001463968    2.150    0.535
       123 -11.2340     81.8242     72.5907   7.7436961574e+01   5.2365388949e+01    0.4413258    0.2965635 -76.34  0.001775522    2.895    0.655
       124 -11.2390     51.6083     70.1082   8.7761518959e+01   5.7617814047e+01    0.4565307    0.2654012 -68.36  0.001910964    2.788    0.641
       125 -13.8736      9.2503     49.5641   9.9865897457e+01   6.6023327106e+01      1.11115    0.4847665  17.26  0.001181315    2.524    0.604
       126 -12.5187     42.9083     66.2167   9.0040794299e+01   5.9521019048e+01     0.939043    0.6191986 -33.44  0.003797094    1.401    0.286
       127 -12.6391     35.1994     57.6187   9.0546929562e+01   6.2146922837e+01    0.6555811    0.4440138  -7.76  0.003169643    1.597    0.374
       128 -11.6360      8.0178     65.6050   1.0467729866e+02   6.2749307759e+01    0.4899954    0.2467049  27.93  0.001968384    2.316    0.568
       129 -10.2203    100.6918     65.3518   6.8945190226e+01   5.0061817947e+01    0.2300115     0.176286  44.33  0.001170693    1.290    0.225
       130 -13.1455     29.1199     61.0013   9.4257185076e+01   6.2085845891e+01    0.8360919    0.6785433 -76.80 0.0008572348    1.640    0.390
       131  -9.7122     18.2704     62.3172   9.9379471274e+01   6.2753656000e+01    0.1315019    0.0753964 -35.00 0.0001954373    1.559    0.359
       132 -10.9879    130.3802     58.6164   5.8724728190e+01   4.4565228604e+01     0.259896    0.2318281  44.17 0.0004866419    1.094    0.086
       133 -10.1984     72.4963     58.5359   7.5918859128e+01   5.6690587335e+01    0.2493865    0.1281991 -51.73  0.001039083    2.398    0.583
       134 -10.5108    112.3244     48.8715   5.9991494872e+01   5.0256279310e+01     0.350459    0.2120718 -76.79  0.001178384    4.161    0.760
       135  -9.6182    124.5046     47.4238   5.6458912719e+01   4.7662854372e+01    0.1418988    0.1321491  49.88 0.0001797786    1.012    0.012
       136 -10.5525    146.9890     45.0106   5.0881076647e+01   4.2601505610e+01    0.2267657    0.1663465  29.53 0.0006184972    1.663    0.399
       137 -12.1707     75.5723     43.2571   6.9118515383e+01   5.8715920836e+01     0.385384    0.3510745  71.80 0.0006978263    1.457    0.314
       138 -12.0837     73.4971     39.4902   6.8366590254e+01   5.9671123534e+01    0.4629166    0.2658058 -46.65    0.0022042    2.142    0.533
       139 -10.9339      5.1004     42.0772   9.9618299272e+01   6.7761526363e+01    0.3523305    0.1831727 -68.28  0.001178576    2.491    0.599
       140 -10.9753     61.2767    248.2877   1.1425753300e+02   1.4495105213e+01    0.2483549    0.2034721  24.94 0.0005682557    1.549    0.354
       141 -10.5490     81.3688     37.8552   6.5033064277e+01   5.8415300112e+01    0.2712131    0.2186137  77.35  0.001479259    1.819    0.450
       142 -11.0089    145.0190     36.6226   4.8668640880e+01   4.4200671422e+01    0.2904586    0.2312733  68.92 0.0006234052    1.176    0.150
       143  -9.6101    188.5013     33.9937   4.1261444852e+01   3.3955049902e+01    0.1609707    0.1176369  14.09  0.000489926    2.196    0.545
       144 -10.7857     73.3309     31.8193   6.5314647243e+01   6.0793950830e+01    0.2643451    0.2154686  73.84  0.001499812    1.818    0.450
       145 -11.8645      2.1070     30.3198   9.7253388155e+01   7.0146396676e+01    0.3716574    0.1484033 -49.41 0.0007098822    1.947    0.486
       146 -10.5252    196.3298     30.7376   3.9497867082e+01   3.2514573394e+01     0.233718    0.1687526  69.82   0.00133018    1.314    0.239
       147  -9.5896    249.9894     27.0090   3.3649805485e+01   2.1312877529e+01    0.1426119    0.1102847 -67.47            0    1.022    0.022
       148 -10.7486    176.8645     26.3148   4.0739901157e+01   3.7681995771e+01    0.2636676    0.1825664  71.11 0.0005824307    1.312    0.238
       149 -11.9051    205.0567     21.9945   3.6456604373e+01   3.1546625220e+01    0.5351428     0.313682 -72.01  0.002802432    1.707    0.414
       150 -10.2981     19.6360    249.7014   1.2218629524e+02   1.9165180631e+01    0.0942233   0.08604407 -45.07 0.0007033521    1.722    0.419
       151 -10.8014    211.4049     19.1145   3.5184597784e+01   3.0442421428e+01    0.2827356    0.1629746  70.80 0.0005281735    1.619    0.382
       152 -10.5821     15.0188    249.4951   1.2300180792e+02   1.9693819835e+01    0.1589023   0.09167165  41.48 0.0005177131    1.566    0.361
       153  -9.8058     36.7966     25.3995   7.7345769622e+01   6.7584730635e+01     0.171072    0.1008712  19.08 0.0006718796    1.699    0.412
       154  -9.7086    123.5071     23.4107   4.8545762160e+01   5.0945472193e+01    0.1359494    0.1173856  51.20 0.0001515789    1.051    0.049
       155 -11.3354     38.4778    243.6908   1.1832751397e+02   1.8220276847e+01    0.2550952    0.1895052  82.96 0.0008188525    1.187    0.157
       156  -9.5913    193.4398     21.4873   3.7537599214e+01   3.4294490110e+01     0.129148    0.1113489 -83.52 9.184313e-05    1.028    0.027
       157 -10.5645     31.7134     20.5837   7.7570818645e+01   6.8942624623e+01    0.2876606    0.1354741  26.52  0.001480145    2.122    0.529
       158 -11.3511     38.0000    238.5016   1.1806238582e+02   1.9313865268e+01    0.5604855    0.1893692  61.06  0.002287939    3.302    0.697
       159 -10.4370    196.1584     18.8269   3.6599981568e+01   3.3961338411e+01    0.2030239    0.1521878 -74.23 0.0007997373    1.191    0.160
       160 -10.3994      1.3643     17.2268   9.2549430395e+01   7.2448628421e+01    0.1908296   0.08253898 -45.01 0.0004273651    1.875    0.467
       161 -10.9659    210.0031    237.1862   8.2799428650e+01  -5.6145690136e+00    0.2742899    0.2061719 -64.76  0.001525457    2.571    0.611
       162  -9.7501    193.4939     15.4850   3.6059568536e+01   3.4950904581e+01    0.1280518    0.1086637 -85.41 -5.957982e-05    1.027    0.026
       163 -11.0644     25.7924    237.8090   1.2036720800e+02   2.0840634470e+01    0.2275556    0.1408788  82.66 0.0008593148    1.396    0.284
       164 -13.4036     18.5294    236.0218   1.2163659254e+02   2.1983226431e+01    0.6495607    0.2477947  50.73  0.001838388    2.057    0.514
       165 -10.2480      3.0244    235.0071   1.2445660869e+02   2.3744607505e+01    0.1717132    0.1226677  69.72 0.0003846099    1.026    0.025
       166  -9.5562    166.4940    233.4817   9.0790796200e+01   1.5069467578e+00    0.1308148    0.1125365  22.35 0.0004623493    1.006    0.006
       167 -10.1635    108.9027    232.8716   1.0287308432e+02   1.0725365448e+01    0.1947415    0.1658739  26.98  0.001154891    1.243    0.196
       168 -11.3969     72.7082    230.5924   1.1033534529e+02   1.6498384131e+01    0.4501113    0.3324725  63.28  0.002742209    1.192    0.161
       169 -11.0147    127.2776    230.2360   9.8583293854e+01   8.3532318097e+00    0.2844366    0.1820517 -52.76  0.001060916    1.765    0.433
