#   1 NUMBER                 Running object number                                     
#   2 MAG_AUTO               Kron-like elliptical aperture magnitude                    [mag]
#   3 X_IMAGE                Object position along x                                    [pixel]
#   4 Y_IMAGE                Object position along y                                    [pixel]
#   5 X_WORLD                Barycenter position along world x axis                     [deg]
#   6 Y_WORLD                Barycenter position along world y axis                     [deg]
#   7 A_WORLD                Profile RMS along major axis (world units)                 [deg]
#   8 B_WORLD                Profile RMS along minor axis (world units)                 [deg]
#   9 THETA_WORLD            Position angle (CCW/world-x)                               [deg]
#  10 FWHM_WORLD             FWHM assuming a gaussian core                              [deg]
#  11 ELONGATION             A_IMAGE/B_IMAGE                                           
#  12 ELLIPTICITY            1 - B_IMAGE/A_IMAGE                                       
         1 -14.5673    160.2203     47.9390   8.3605855789e+01   3.9599879156e+01     1.867655     1.250877  10.28  0.006187072    2.170    0.539
         2 -14.2030    172.1965     31.7927   7.6176258719e+01   3.8681976812e+01    0.9861886    0.8814376 -24.29  0.003302046    1.195    0.163
         3 -13.2593    175.9381     24.6641   7.3314685833e+01   3.8561636317e+01    0.5221459    0.4679646  27.02  0.001120746    1.230    0.187
         4 -12.7207    188.9464      1.9504   6.4685134529e+01   3.7500464829e+01    0.6526873    0.2306674  74.20  0.002415201    2.666    0.625
         5 -11.4413    181.2381    195.2615   1.1571221083e+02   8.0159830280e+00    0.3548172    0.2592845  88.79  0.001081919    2.292    0.564
         6 -18.4751     61.9294    244.6833   1.4377358715e+02   1.8964869194e+01      6.09856     3.672222  41.12   0.04144005    1.645    0.392
         7 -12.4977    130.3764    206.1266   1.2741779500e+02   1.5403746050e+01     0.263527    0.2169729  54.63 0.0006788166    1.015    0.015
         8 -11.9708    207.9561    186.0149   1.0896396920e+02   4.4228574449e+00    0.3209619     0.245102  22.46  0.001044092    1.259    0.206
         9 -12.3424    212.3843    182.6007   1.0749736749e+02   4.1025531368e+00    0.3914197     0.249881  16.78  0.001182331    1.904    0.475
        10 -12.4156     11.6278    205.2045   1.4995786809e+02   3.1707562065e+01    0.2732055    0.1934645  85.19  0.001451215    1.135    0.119
        11 -13.4316     99.3696    180.6032   1.3034937304e+02   2.5533476369e+01     1.274078    0.6982197 -39.12  0.004881017    3.186    0.686
        12 -12.5295     95.2515    176.7229   1.3071212723e+02   2.7000028045e+01      0.38528    0.2370005 -42.06  0.001884161    2.329    0.571
        13 -12.8629     97.4305    171.8151   1.2953689659e+02   2.7685332944e+01    0.4594002    0.3083892 -54.50 0.0008747674    1.618    0.382
        14 -11.6776    199.2151    178.7721   1.0924367514e+02   7.2224660896e+00    0.3402454    0.2744811 -60.14  0.001053429    1.621    0.383
        15 -13.4136    197.1355    197.0704   1.1299071077e+02   4.7745513481e+00    0.6909072    0.4334199  44.84  0.002376118    1.422    0.297
        16 -11.2839     33.5920    212.8579   1.4653631649e+02   2.7999047468e+01    0.2259854    0.1258771  36.23  0.001360627    2.018    0.504
        17 -12.2107    189.4705    187.1366   1.1268400841e+02   7.7617983988e+00    0.5967891    0.3773259 -50.43  0.003027466    1.943    0.485
        18 -12.1309     34.3661    184.2415   1.4436815356e+02   3.3534395089e+01    0.1987498    0.1763601  78.45 0.0005364164    1.281    0.219
        19 -11.3008    138.0430    171.2332   1.2044007876e+02   2.0609140643e+01    0.3424949    0.2282532 -80.89   0.00158983    2.085    0.520
        20 -11.6725    112.9998    170.1985   1.2580932917e+02   2.5405543774e+01    0.4065132    0.2981995 -43.76  0.001167085    1.663    0.399
        21 -10.6981    225.6369    167.2922   1.0205216202e+02   3.8807475070e+00    0.1273816    0.1098516  86.14 0.0007028296    1.704    0.413
        22 -11.5259    102.1254    162.9945   1.2713470188e+02   2.8801194230e+01    0.2214954    0.1936813 -83.10 0.0003637914    1.098    0.089
        23 -11.4726    105.1618    157.3285   1.2550328839e+02   2.9516265393e+01    0.3521797    0.2679824 -47.77 0.0008603498    1.489    0.329
        24 -11.7277    107.5113    153.5127   1.2429444094e+02   2.9943644309e+01    0.3911519    0.2361516  52.56  0.001406245    1.611    0.379
        25 -12.4296     23.7061    157.3730   1.4437111879e+02   4.0291053524e+01     0.482588    0.2816134  21.88  0.002794211    2.499    0.600
        26 -11.7598    133.8597    145.4914   1.1652492552e+02   2.6738026096e+01     0.904606    0.2135894 -54.49  0.002207182    6.021    0.834
        27 -10.3957     96.3474    150.5647   1.2646340649e+02   3.2494080805e+01    0.2416285    0.1233353  46.40 0.0005692117    1.893    0.472
        28 -11.1990    174.7103    148.9861   1.0811870043e+02   1.7481983115e+01    0.2050122    0.1976164 -47.46 0.0005159302    1.098    0.089
        29 -11.4637     90.1500    147.3013   1.2742303963e+02   3.4230497835e+01    0.4913794     0.217812  57.42  0.001332707    2.855    0.650
        30 -11.2704      3.8899    144.6488   1.4773768241e+02   4.4694812732e+01    0.2314586    0.1789668 -10.22  0.001585756    2.131    0.531
        31 -12.1346      8.8217    143.3699   1.4652354591e+02   4.4601734297e+01    0.3332787    0.2290474   8.22  0.002165143    2.339    0.573
        32 -11.8936    114.2575    140.7398   1.2028615041e+02   3.1548745200e+01     0.526058    0.2594289 -47.14  0.002177174    2.150    0.535
        33 -12.5607    103.8557    140.6275   1.2284009480e+02   3.3445558850e+01    0.2904231    0.2627923  61.40 0.0006356959    1.089    0.082
        34 -12.0564      4.2249    137.7466   1.4712538620e+02   4.6164003615e+01    0.3534758    0.1458792  82.28  0.001740593    2.450    0.592
        35 -12.5732     27.2735    134.8789   1.4131756900e+02   4.4935849231e+01    0.3192889    0.2362895  -6.45  0.000669813    2.211    0.548
        36 -11.1386    105.6238    130.7930   1.2045171684e+02   3.5350323576e+01     0.355416    0.2655638  88.34  0.001190954    1.544    0.352
        37 -11.4852    107.5240    126.9824   1.1916339611e+02   3.5867801562e+01    0.3783975    0.2348623 -46.43  0.001067947    1.666    0.400
        38 -11.3559    119.3683    130.5434   1.1690529501e+02   3.2843619948e+01    0.2902794    0.2602369 -17.66 0.0007578842    1.369    0.269
        39 -12.2932      3.5075    130.2066   1.4667010551e+02   4.7858980245e+01    0.2786627    0.1477287  83.23  0.001562271    1.669    0.401
        40 -19.2079     49.9843     99.6283   1.2973501703e+02   5.0734715811e+01     18.00713     1.071839 -61.76   0.02924395   15.497    0.935
        41 -11.3169    125.5238    127.3811   1.1466432752e+02   3.2328765997e+01    0.4918876    0.2828318  76.76  0.001599464    3.728    0.732
        42 -12.2603     89.1303    122.3855   1.2307290931e+02   4.0087152807e+01    0.3391313    0.2661091 -68.45 0.0008509985    1.207    0.171
        43 -11.7912    169.8863    115.6309   1.0132746548e+02   2.5044429972e+01    0.6023129    0.3710651 -71.98  0.002136811    2.923    0.658
        44 -11.1347    166.1400    208.6827   1.2080121382e+02   8.6427098991e+00    0.3058494    0.1867772  50.58  0.001637561    1.471    0.320
        45 -11.2972      4.6771    112.2060   1.4467411292e+02   5.1753350112e+01    0.2012002    0.1579395  22.44  0.001211073    1.692    0.409
        46 -10.9408    205.2206    110.1720   9.2765634040e+01   1.7711641941e+01    0.3115641    0.2016136  40.85 0.0009966313    1.622    0.383
        47 -10.8869     73.4839    110.4526   1.2497030572e+02   4.5233469198e+01     0.136933    0.1230542 -70.63 5.931089e-05    1.009    0.009
        48 -10.7756    113.0824    119.5193   1.1606096459e+02   3.6509395355e+01    0.2212086    0.1923278 -58.48 0.0004168198    1.121    0.108
        49 -10.0184     13.5214     59.9211   1.3386635829e+02   6.2705495081e+01    0.1729345   0.09254677 -63.56  0.000369049    1.481    0.325
        50 -10.2059    176.6335    243.1930   1.2374163728e+02   1.8563950826e+00    0.1330598    0.1094814 -17.98 0.0004118148    1.571    0.364
        51 -12.0563    135.3151    195.8721   1.2497694964e+02   1.6393391142e+01     0.328332    0.2314195  81.25  0.001064534    1.757    0.431
        52 -11.4404    184.0271    215.4987   1.1847427751e+02   4.4144809715e+00     0.202245     0.105455  43.43 0.0006805562    1.589    0.371
        53 -10.2268    131.4851     28.5935   8.2970733466e+01   4.9568910183e+01    0.1425121    0.1344898  47.24 0.0001070758    1.038    0.036
        54  -9.7816      2.1627     19.3926   1.2771914755e+02   7.1370007204e+01     0.114703   0.09861067  14.74 0.0003211509    1.471    0.320
        55 -11.9024    189.5018     14.9873   6.8465669863e+01   3.6051134876e+01    0.2312221    0.1842297  75.06 0.0007888142    1.160    0.138
