#   1 NUMBER                 Running object number                                     
#   2 MAG_AUTO               Kron-like elliptical aperture magnitude                    [mag]
#   3 X_IMAGE                Object position along x                                    [pixel]
#   4 Y_IMAGE                Object position along y                                    [pixel]
#   5 X_WORLD                Barycenter position along world x axis                     [deg]
#   6 Y_WORLD                Barycenter position along world y axis                     [deg]
#   7 A_WORLD                Profile RMS along major axis (world units)                 [deg]
#   8 B_WORLD                Profile RMS along minor axis (world units)                 [deg]
#   9 THETA_WORLD            Position angle (CCW/world-x)                               [deg]
#  10 FWHM_WORLD             FWHM assuming a gaussian core                              [deg]
#  11 ELONGATION             A_IMAGE/B_IMAGE                                           
#  12 ELLIPTICITY            1 - B_IMAGE/A_IMAGE                                       
         1 -15.5564     45.4183    202.5448   1.3372861930e+02   2.8157040032e+01     11.04952     4.085418  67.48   0.04880028    3.538    0.717
         2 -13.1118    196.1503     32.9307   6.2093837538e+01   3.1864919160e+01     1.235593     1.086556  47.02  0.006123567    1.138    0.121
         3 -13.9460    210.0651     16.2890   5.5506591063e+01   3.0150547691e+01      1.76053     1.142556  25.74  0.008447532    1.950    0.487
         4 -10.2588      2.0000      3.4528   1.1717839782e+02   7.4640449178e+01    0.3201903   0.09443621 -54.79  0.001502591    2.390    0.582
         5 -11.4430      2.6644     15.3362   1.2124679670e+02   7.2256514820e+01    0.5005449    0.2130792 -70.33  0.002329906    2.610    0.617
         6 -14.0311     10.2879    206.6446   1.4055559853e+02   3.0736303139e+01     1.488238    0.7172775  78.90  0.006066137    1.780    0.438
         7 -12.0606    139.8026    248.9307   1.1998706492e+02   8.7173938891e+00    0.4368694    0.2424554  51.75  0.002716678    1.758    0.431
         8 -11.8787     92.5991    249.4191   1.2837844000e+02   1.4920298809e+01    0.4219917    0.2996771  32.79 0.0004641202    1.373    0.272
         9 -11.4519     89.0206    244.4803   1.2863124562e+02   1.6086211307e+01    0.4341431    0.2054023  70.32  0.001273478    3.233    0.691
        10 -11.8556     21.1105    236.0541   1.3981869360e+02   2.4823995037e+01    0.2779104    0.1995855  57.53  0.002375464    1.067    0.062
        11 -12.1890      3.9712    227.2467   1.4233991603e+02   2.7754324300e+01    0.4819174    0.4114578  23.99  0.004352574    1.696    0.411
        12 -12.3467     31.2829    247.6443   1.3861502502e+02   2.2050870442e+01    0.5348381     0.361298  35.97  0.004352523    1.509    0.337
        13 -13.1092     14.4974    240.0828   1.4103602709e+02   2.4791244874e+01     1.097471    0.4670951  66.97  0.006408657    1.890    0.471
        14 -11.7814      3.8437    249.1140   1.4296155900e+02   2.4339067414e+01    0.5035815    0.2252698  51.49  0.003845411    1.472    0.321
        15 -10.9216      1.8691    239.5352   1.4301817661e+02   2.5969435743e+01    0.3991812    0.1579149 -86.77   0.00270426    2.351    0.575
        16 -10.5379    185.1865    249.8563   1.1208276784e+02   2.2105148800e+00    0.2963021   0.05739055  37.23  0.001098694    3.906    0.744
        17 -10.7803    227.9152    204.3485   9.7812389670e+01   1.0625927835e+00    0.3001689     0.227519 -45.37 0.0007266154    2.156    0.536
        18 -10.6406     26.0168    222.5024   1.3842771838e+02   2.6584465323e+01    0.2460372   0.08329062  47.24  0.001442735    2.065    0.516
        19  -9.5129     42.1139    231.6425   1.3605973187e+02   2.3474258055e+01    0.1404123      0.10215  52.61 0.0005302747    1.091    0.083
        20  -9.6626    192.7791    194.3641   1.0257547804e+02   7.9742520195e+00    0.2293165    0.1576951 -72.41 0.0009499779    4.385    0.772
        21 -11.5860     61.2870    193.3370   1.2982134006e+02   2.8114207326e+01    0.2991868    0.2415383 -43.09   0.00116869    1.693    0.409
        22 -11.8607     18.6570    229.3816   1.3997394484e+02   2.6125830511e+01    0.2665303    0.2346333  69.66   0.00222157    1.327    0.247
        23  -8.4527    181.5148    192.4501   1.0445606520e+02   1.0144354977e+01     0.131897     0.106543  24.18 6.985314e-05    1.017    0.017
        24 -11.7538     67.2361    185.9867   1.2789411504e+02   2.8820177740e+01    0.2439712    0.2238176 -50.06 0.0004909077    1.377    0.274
        25 -13.8959     41.3722    217.3941   1.3541488181e+02   2.5937648946e+01    0.8181619    0.5645293  59.46   0.00271287    1.107    0.096
        26 -11.1699    150.2758    229.0003   1.1583016952e+02   9.8807176917e+00    0.3491788    0.1428952  30.33  0.001620036    2.464    0.594
        27 -10.8239     77.2606    174.1057   1.2441413762e+02   2.9919309930e+01      0.21645    0.1998686 -80.47  0.000414582    1.161    0.138
        28 -13.1924     64.1416    171.5428   1.2713667583e+02   3.2085522397e+01    0.4456262    0.2566654 -46.23  0.001683846    2.250    0.556
        29 -12.0032     85.0827    165.5260   1.2153352372e+02   3.0624977703e+01    0.7907184    0.4813432  50.03  0.004257706    1.541    0.351
        30 -12.6966     67.3079    143.9430   1.2305871449e+02   3.7613222600e+01    0.8523412    0.5272964  74.55  0.002437463    1.934    0.483
        31 -12.0845     56.7131    129.7241   1.2392160750e+02   4.2088714481e+01      1.53626    0.5430923 -79.37  0.004462619    5.631    0.822
        32  -9.0341    100.9601    145.7559   1.1463114841e+02   3.2455988477e+01    0.3173983    0.1925623 -27.11  0.001338975    2.730    0.634
        33 -12.0581     86.2525    148.8656   1.1889159146e+02   3.3995548514e+01    0.2666826    0.2365324 -40.72 0.0005494845    1.281    0.220
        34 -12.6189     34.2874    225.9563   1.3714035090e+02   2.5203868589e+01     0.267123    0.2223627  59.29 0.0007471566    1.194    0.163
        35  -9.5809    109.4710    135.6197   1.1057449147e+02   3.3246447687e+01    0.3456809    0.2207249 -19.14  0.001426328    2.670    0.626
        36 -10.4722     96.6334    132.6405   1.1342684368e+02   3.6000812067e+01    0.2561673    0.2276594 -17.79 0.0008077367    1.303    0.232
        37  -9.2237    106.6610    122.9289   1.0875460513e+02   3.6495293481e+01    0.1897027    0.1718909 -55.83 0.0003214502    1.115    0.103
        38 -10.2062    167.8527    112.8169   9.0739059577e+01   2.6305758921e+01    0.3338734     0.288355 -78.12  0.001040399    1.547    0.354
        39  -9.7985     97.8367    149.9747   1.1612805217e+02   3.2039238081e+01    0.2799537    0.2190256  26.92 0.0007769458    1.371    0.270
        40  -9.3193    204.1011    111.1801   8.2740316056e+01   1.8605733716e+01    0.3272298    0.1513241  31.90  0.001163731    2.767    0.639
        41 -11.3434    242.9114     92.6092   7.1568967377e+01   1.3092328698e+01    0.2992467    0.2061117   6.44  0.001512015    1.637    0.389
        42 -11.8875      2.0547     88.5544   1.3517026544e+02   5.5977172231e+01    0.7367657     0.122494 -74.16  0.002525169    4.188    0.761
        43 -11.5038      2.1274     78.7983   1.3408847950e+02   5.8215433726e+01    0.4331837    0.1691051 -66.25  0.002202657    1.874    0.467
        44 -11.3046     55.2710    238.9375   1.3417501758e+02   2.0903569913e+01    0.3077773    0.1867242  48.48  0.001080842    1.215    0.177
        45 -13.3584    107.9948    245.7264   1.2536068512e+02   1.3470902496e+01     1.086559    0.3736933  35.06  0.005393287    2.457    0.593
        46 -10.5059    249.1649    243.8281   1.0051732972e+02  -5.9059660138e+00    0.1587431    0.0919845  14.45 0.0006894176    1.334    0.250
        47 -12.4091     39.2642    245.8866   1.3723817180e+02   2.1521860091e+01    0.6616185    0.3025371  63.75  0.003840964    1.856    0.461
        48 -10.1967    189.9283     15.3158   5.7549973002e+01   3.5397088421e+01    0.2064706    0.1804719  71.39 0.0008947678    1.109    0.098
