#   1 NUMBER                 Running object number                                     
#   2 MAG_AUTO               Kron-like elliptical aperture magnitude                    [mag]
#   3 X_IMAGE                Object position along x                                    [pixel]
#   4 Y_IMAGE                Object position along y                                    [pixel]
#   5 X_WORLD                Barycenter position along world x axis                     [deg]
#   6 Y_WORLD                Barycenter position along world y axis                     [deg]
#   7 A_WORLD                Profile RMS along major axis (world units)                 [deg]
#   8 B_WORLD                Profile RMS along minor axis (world units)                 [deg]
#   9 THETA_WORLD            Position angle (CCW/world-x)                               [deg]
#  10 FWHM_WORLD             FWHM assuming a gaussian core                              [deg]
#  11 ELONGATION             A_IMAGE/B_IMAGE                                           
#  12 ELLIPTICITY            1 - B_IMAGE/A_IMAGE                                       
         1 -14.2503     68.4758    144.3973   9.3583514822e+01   3.7313254163e+01     4.453266     2.320546  73.84  0.003326107    4.493    0.777
         2 -13.3039    221.4500     31.4496   3.1565160389e+01   2.7009904492e+01     1.001924    0.8061983  37.90  0.006440134    1.800    0.444
         3 -13.5061    207.7863     43.2142   3.5514678479e+01   2.8396494301e+01     1.794848     1.335311  33.17   0.00823338    1.987    0.497
         4 -10.2188      2.0000     10.4439   8.4506273362e+01   7.4739251332e+01    0.4385776   0.05750538 -49.81  0.001276161    7.193    0.861
         5 -12.4327    246.9127      7.0222   2.4872114358e+01   2.4790079110e+01    0.7326356    0.4437657 -45.38  0.004981198    1.351    0.260
         6  -9.5057      2.3575      2.6142   7.9896854531e+01   7.5909330342e+01    0.2667783   0.08231831 -39.50  0.001233884    2.849    0.649
         7  -9.8928    119.5149    211.9529   9.0881507733e+01   1.3445942133e+01    0.2000912    0.1375528 -53.99  0.001035398    1.598    0.374
         8 -10.0519    102.3114    250.0882   9.9597415737e+01   8.5239503951e+00    0.2463084    0.1613239  34.63 0.0007055278    1.262    0.208
         9 -11.3583    101.5691    244.0433   9.9097824417e+01   9.7283350447e+00    0.5443465    0.2930548 -72.75  0.002550992    2.664    0.625
        10 -15.1193      6.1222    186.1363   1.1615666210e+02   3.3454566682e+01     8.185793     1.272963 -75.81  0.002054845    5.138    0.805
        11 -16.4431     15.1690    241.5885   1.1725988046e+02   2.0452080985e+01     7.368615     5.343203  27.07   0.04989062    1.523    0.343
        12  -9.4117    116.2500    187.1949   8.7759762355e+01   1.9306386010e+01    0.3024006    0.1965302  69.79   0.00090963    2.400    0.583
        13 -14.6014      9.2113    207.7481   1.1673693365e+02   2.8187032878e+01     1.383267     1.190825 -61.34  0.004850383    1.368    0.269
        14  -9.2158     99.2410    180.9608   9.1112294016e+01   2.3489065342e+01    0.2463583    0.2095294  29.79  0.000990724    1.160    0.138
        15 -11.7127     83.6664    152.1833   9.0418350299e+01   3.3038406979e+01    0.8320324     0.560831 -37.68  0.003755885    1.667    0.400
        16 -12.8700     75.8683    157.8847   9.3737751480e+01   3.2774192301e+01     2.038716     1.081034  67.92 0.0008835158    3.400    0.706
        17 -12.8325     63.2529    154.1028   9.6852631063e+01   3.5525084366e+01    0.5369242    0.3883109 -31.77  0.001180728    1.651    0.394
        18  -7.8737    224.2754    206.6882   6.7978009443e+01  -1.1401502710e+00    0.1051359   0.09655377 -41.53 0.0002204135    1.558    0.358
        19 -10.2972     47.9122    169.4646   1.0353640939e+02   3.3505639032e+01    0.4010794    0.2813643 -77.02  0.001206833    1.377    0.274
        20 -10.8285    239.7076    169.1383   5.8394188209e+01   2.6396739909e+00    0.2245226     0.174878  15.25 0.0007636805    1.365    0.267
        21  -8.7877    110.5103    167.4446   8.5725671707e+01   2.4848139310e+01    0.2592333    0.1498979 -68.33  0.001017976    2.254    0.556
        22  -8.9971    123.6020    201.7363   8.8339052004e+01   1.4944853196e+01    0.1876942    0.1385956 -68.25  0.000948587    1.662    0.398
        23  -8.1685     43.4844    164.4960   1.0417170127e+02   3.5280449971e+01    0.1404306    0.1272449  84.93 0.0001240959    1.020    0.020
        24 -11.1853     32.9662    156.7845   1.0628372393e+02   3.8381788893e+01    0.6326211      0.36249  69.03 0.0006377416    2.022    0.505
        25  -9.8596    134.2359    147.2619   7.5303151230e+01   2.5250833636e+01    0.5607353    0.2503721 -55.56  0.001939529    2.633    0.620
        26 -10.0059    133.3990    142.5954   7.4467508460e+01   2.6477722664e+01    0.7039033     0.241832 -55.71  0.001945179    4.099    0.756
        27  -8.9253    127.5525    152.1892   7.8114563060e+01   2.5386326832e+01    0.2914234     0.214739 -73.37 0.0009704462    1.765    0.433
        28  -9.0546    174.6283    148.7963   6.6164579261e+01   1.7134602566e+01    0.2108895    0.1324772 -50.80 0.0005268713    1.683    0.406
        29 -10.7683     55.0191    146.5336   9.8140309661e+01   3.8564960636e+01    0.5128297    0.3504271 -16.63  0.002331507    2.014    0.504
        30 -10.0261     29.5539    143.2346   1.0562572523e+02   4.2234332314e+01    0.4410725    0.3299207  -9.36  0.002338077    1.685    0.407
        31 -10.0982     99.1150    138.3374   8.3017661503e+01   3.3933844057e+01     0.602523     0.390214 -14.63  0.002296478    2.500    0.600
        32 -11.6036     85.8605    137.7433   8.6889449078e+01   3.6348946270e+01    0.3170303    0.2874215 -36.57 0.0003870732    1.120    0.107
        33  -9.8698    135.7934    130.1287   7.0916734914e+01   2.8823839879e+01      0.53899     0.121345 -45.82  0.001383796    4.336    0.769
        34 -10.2243    107.3517    130.2468   7.8749983187e+01   3.4404926580e+01    0.5624927    0.3742951  18.58  0.002339292    1.920    0.479
        35 -11.3858     61.3109    171.9896   1.0010296520e+02   3.1210560971e+01    0.4834102    0.3052518 -34.48  0.002178819    2.063    0.515
        36 -11.2365     66.3501    167.1954   9.7987340229e+01   3.1752555922e+01    0.3548288    0.2782764 -29.18 0.0009429699    1.528    0.346
        37  -9.1698     96.9390    124.7761   8.0561212125e+01   3.7661867946e+01    0.2414415    0.2050173  -8.27 0.0009942696    1.340    0.254
        38  -8.7455     82.3481    129.1171   8.6126177114e+01   3.9107110811e+01    0.2130226    0.1977179 -69.88 0.0006351475    1.092    0.084
        39  -9.7312    161.4934    118.5695   6.1920721459e+01   2.5933383059e+01    0.5794916    0.3343537 -68.64  0.001936484    3.438    0.709
        40  -9.2043    106.2977    118.2111   7.6109132793e+01   3.7480353681e+01    0.2370334    0.2072534  19.65 0.0004887272    1.211    0.174
        41  -9.8242    231.3134    113.6745   4.8369322908e+01   1.3065062919e+01    0.2511673    0.2155892 -44.62 0.0007955211    1.061    0.057
        42  -8.4952     77.5117    112.5121   8.3830052931e+01   4.4053048663e+01    0.1512243    0.1471504 -70.56 2.472582e-05    1.069    0.065
        43  -9.1733    205.4939    110.1467   5.1498511393e+01   1.8468942057e+01     0.279409     0.202332  38.37  0.001067676    1.620    0.383
        44 -10.3367    247.5916    106.7731   4.4784665450e+01   1.1384283631e+01    0.1924195   0.09398434 -45.21 0.0009613663    1.712    0.416
        45  -9.5763     51.6848    100.3474   9.0109467703e+01   5.0882938189e+01    0.2979194    0.1703109  66.45  0.001051411    3.399    0.706
        46 -11.0358    240.8974    101.4856   4.4523202208e+01   1.3346001201e+01    0.3320205    0.2215776  14.98  0.001630646    2.763    0.638
        47  -9.6332     53.2485     90.9896   8.7128353091e+01   5.2951775865e+01    0.2120769    0.1830709 -44.31  0.000644003    1.077    0.072
        48 -10.2262    247.1976     87.9946   4.0983995552e+01   1.4317102606e+01    0.1635239    0.1391287  19.01  0.001061815    1.627    0.385
        49 -13.1844     34.0085    196.0123   1.1002454549e+02   2.8510337447e+01    0.9273795    0.7130635 -83.05  0.002410819    1.221    0.181
        50 -11.0099    119.5932    244.9931   9.5294554294e+01   7.0884577764e+00     0.311185    0.2360619  85.25   0.00129303    1.903    0.475
        51 -11.3665    198.7310     49.3848   3.8002879305e+01   2.9539008154e+01    0.5587754    0.3760953  56.56  0.001470847    1.607    0.378
        52 -10.5741    192.9271    195.0973   7.1769123508e+01   5.2033064153e+00    0.8763522     0.452289 -61.77  0.002474579    7.154    0.860
        53  -9.5955     43.6933     60.2509   8.1830580957e+01   6.1106202814e+01    0.2593581    0.2264245  39.25 0.0007519362    1.338    0.253
        54 -10.6674     13.2786     59.8698   9.6364598650e+01   6.4324836996e+01    0.2549316    0.2403085 -39.01 0.0004972423    1.171    0.146
        55 -14.2791     43.9022    186.8375   1.0662342468e+02   2.9636826546e+01     3.176448     1.690784  63.34   0.01342599    2.102    0.524
        56  -8.1150     25.3057     58.2447   8.9888863384e+01   6.3658225417e+01    0.1320015   0.08722632 -22.26 0.0001808338    1.497    0.332
        57  -9.1052    198.0262     23.5039   3.1868814115e+01   3.2929902805e+01    0.1931288    0.1485957 -45.14 0.0006542816    1.251    0.200
        58 -10.5686    104.5977    215.7876   9.4953169336e+01   1.4881631026e+01     0.286214    0.2056086  47.89  0.001545295    1.346    0.257
        59  -8.5723    189.5127     14.5571   3.0515655986e+01   3.5801313154e+01    0.1243836    0.1037561 -78.53 0.0001817546    1.007    0.007
        60 -10.5901    109.0980    214.2193   9.3671625301e+01   1.4544823167e+01    0.3085088    0.1898081 -72.49  0.001452273    2.174    0.540
