#   1 NUMBER                 Running object number                                     
#   2 MAG_AUTO               Kron-like elliptical aperture magnitude                    [mag]
#   3 X_IMAGE                Object position along x                                    [pixel]
#   4 Y_IMAGE                Object position along y                                    [pixel]
#   5 X_WORLD                Barycenter position along world x axis                     [deg]
#   6 Y_WORLD                Barycenter position along world y axis                     [deg]
#   7 A_WORLD                Profile RMS along major axis (world units)                 [deg]
#   8 B_WORLD                Profile RMS along minor axis (world units)                 [deg]
#   9 THETA_WORLD            Position angle (CCW/world-x)                               [deg]
#  10 FWHM_WORLD             FWHM assuming a gaussian core                              [deg]
#  11 ELONGATION             A_IMAGE/B_IMAGE                                           
#  12 ELLIPTICITY            1 - B_IMAGE/A_IMAGE                                       
         1 -14.0949     68.5797    144.5070   9.4517494686e+01   3.7469617675e+01     4.507808     2.438726  77.81  0.002934754    4.139    0.758
         2 -13.6144    207.6268     42.8805   3.6955190959e+01   2.8722991874e+01     1.695661     1.332002  32.28  0.008341484    1.957    0.489
         3 -13.4344    221.3355     30.8081   3.3014557186e+01   2.7397402519e+01     1.065276    0.8529199  43.12  0.006903251    1.831    0.454
         4 -11.9012    246.9534      9.4461   2.7013931320e+01   2.4877362487e+01    0.5247422    0.3666126 -87.29  0.003831662    1.230    0.187
         5 -11.8063    245.4569      3.4263   2.6032539966e+01   2.5813696153e+01    0.5343208     0.263061  69.18  0.003313732    2.039    0.510
         6  -9.8907      2.0774      2.5802   8.0154167039e+01   7.4458610738e+01    0.2328469    0.1164949 -32.75  0.001442205    1.761    0.432
         7  -8.4196    168.9866    235.9512   8.4872208295e+01   2.9266228602e-01    0.1550307    0.1373381  -6.72 0.0005357552    1.092    0.084
         8 -10.0679    102.2120    250.2285   1.0132369852e+02   7.5182459773e+00    0.2867887    0.1815475  88.20  0.001434508    2.321    0.569
         9 -14.9721      6.0758    185.9072   1.1725613554e+02   3.3726834845e+01     8.135169      1.10768 -74.67  0.005153378    5.675    0.824
        10 -12.7266     33.6790    197.2384   1.1151661540e+02   2.8316533115e+01    0.6793986    0.4858647 -39.59  0.001665148    1.804    0.446
        11 -11.3636    119.4728    212.7377   9.2386655831e+01   1.2633475338e+01    0.4472477    0.2882544  30.17  0.001772732    1.511    0.338
        12 -14.0599     43.9901    187.4205   1.0789913759e+02   2.9577749337e+01      2.26678     1.544472  62.56  0.008944008    1.461    0.316
        13  -9.2580     99.4241    180.8678   9.2262295202e+01   2.3360278121e+01    0.2735166    0.2178603  27.12 0.0006113091    1.319    0.242
        14 -11.3902     61.5140    172.4059   1.0124508624e+02   3.1204401581e+01    0.4734667    0.3011824 -34.80  0.001527567    2.040    0.510
        15 -11.2201     66.3759    167.6244   9.9155423499e+01   3.1775125977e+01    0.3904657    0.2987292 -28.17  0.001056248    1.615    0.381
        16  -8.9303     84.4999    173.4807   9.5044680302e+01   2.7601104180e+01    0.2582208    0.2396774 -82.68 0.0006161622    1.049    0.046
        17  -9.1065     87.3002    171.6522   9.3962163769e+01   2.7626106991e+01    0.2768362    0.2239982  87.99 0.0008703867    1.350    0.259
        18  -8.7607    186.2243    173.4013   6.9847215990e+01   9.5213023283e+00    0.1979058    0.1364538  49.49 0.0009494023    1.683    0.406
        19 -10.4461    114.1231    173.1711   8.6977508256e+01   2.2741607210e+01    0.4715782     0.185654  41.64  0.001640665    2.497    0.600
        20 -11.8504     83.7486    152.4811   9.1483586515e+01   3.3098327015e+01     1.584118    0.5960849 -55.50   0.00550107    2.484    0.597
        21 -11.8233     76.0860    158.5667   9.4851494153e+01   3.2715347468e+01    0.6714047    0.5352829 -80.85 0.0004515648    1.309    0.236
        22 -12.8587     63.3925    154.4417   9.7867201789e+01   3.5612109992e+01    0.5353609    0.3688062 -36.16  0.001060347    1.680    0.405
        23  -8.8189    111.1638    203.8443   9.3022130307e+01   1.5966112268e+01     0.193734    0.1698514  -3.49 0.0003227198    1.301    0.231
        24  -9.4742    230.4688    166.4835   6.0101298552e+01   3.4355800675e+00    0.1333167     0.113151 -32.48 0.0001100932    1.044    0.042
        25  -9.1029     42.9295    164.5468   1.0535987860e+02   3.5539848567e+01    0.2389795    0.1445969  20.72  0.001113422    1.962    0.490
        26  -8.1096    100.6876    162.2713   8.8532339890e+01   2.7787838360e+01    0.1544765    0.1177311  68.83 0.0002212789    1.552    0.355
        27 -10.7406     32.9765    157.0868   1.0722491306e+02   3.8546759745e+01    0.5464094    0.2953238 -81.13  0.002140718    1.879    0.468
        28 -10.1866    133.8156    144.8482   7.5874539345e+01   2.5866887352e+01     1.107363    0.2538667 -53.93  0.002339813    6.572    0.848
        29 -10.6748     24.2452    148.5547   1.0868583751e+02   4.1592024010e+01    0.3241191    0.2035718 -71.37  0.001655309    1.389    0.280
        30 -10.3705    150.9786    228.6417   8.7615786563e+01   4.3626281876e+00    0.3344409    0.1178653  34.40  0.001272078    2.591    0.614
        31  -9.9395     48.3256    170.1201   1.0459356479e+02   3.3467489980e+01    0.3716252    0.2639931 -58.82 0.0008568789    1.340    0.254
        32  -8.5344    143.3218    145.6671   7.3647847631e+01   2.3772735862e+01    0.1600446    0.1255187  87.13 0.0005585637    1.702    0.412
        33 -10.0621     29.6520    143.3219   1.0635065407e+02   4.2445265341e+01    0.4043819    0.3278127  -1.49  0.001868879    1.502    0.334
        34 -10.2230     99.2281    138.5749   8.4027662481e+01   3.4004364462e+01    0.6322137    0.3937136 -15.71  0.002237224    2.916    0.657
        35 -11.6163     86.0068    137.9952   8.7860251898e+01   3.6438313830e+01    0.3205472    0.2794533 -46.77 0.0003961287    1.121    0.108
        36 -10.2073    107.5532    130.2034   7.9663614358e+01   3.4525202661e+01    0.5595201    0.3747434  21.28  0.002232912    1.865    0.464
        37  -9.4195    135.7527    130.0631   7.1900993817e+01   2.8911508799e+01    0.3850156    0.1298552 -45.12  0.001187796    2.924    0.658
        38 -10.8389    239.5696    170.0047   5.9278107813e+01   1.4384684647e+00    0.2914842    0.1837498  -4.36  0.001425072    2.288    0.563
        39  -8.6826    110.6839    167.3091   8.6772216964e+01   2.4786714311e+01    0.2759195     0.187489 -69.53 0.0009864826    1.701    0.412
        40  -9.0507     96.9617    124.8537   8.1525959991e+01   3.7804383566e+01    0.2430949    0.2027539 -14.02  0.000826515    1.385    0.278
        41 -16.3683     16.4142    242.1185   1.1868592948e+02   1.9971241011e+01     7.441359     5.865492  33.34   0.05125159    1.436    0.304
        42  -9.9097    161.1522    118.2230   6.2891394746e+01   2.6099230059e+01    0.5220953    0.3032151 -67.23  0.001880885    2.755    0.637
        43  -9.0582    106.2516    118.3788   7.7139674863e+01   3.7604854035e+01    0.2416381    0.1988739 -36.16 0.0005470141    1.238    0.192
        44 -10.0320    231.2293    113.8710   4.9254648429e+01   1.2719735220e+01    0.2785305    0.2381226 -49.17 0.0007291617    1.011    0.011
        45  -8.3376     77.8333    112.8501   8.4656764531e+01   4.4044242583e+01    0.2029125    0.1772608  76.28 0.0005367589    1.347    0.258
        46  -8.6032    156.5208    111.6982   6.2302369737e+01   2.8469052280e+01    0.2066959    0.1426319 -55.82 0.0007560384    1.519    0.342
        47  -9.3209    205.3687    110.2690   5.2465938568e+01   1.8330330814e+01    0.3175985    0.2198474  37.33  0.001271725    1.806    0.446
        48  -9.9960    191.5112    192.0213   7.2432876979e+01   4.9385392785e+00     0.511648    0.2816778 -64.72  0.001744735    4.227    0.763
        49 -10.5774    243.1862    103.0839   4.5425851544e+01   1.2414311625e+01    0.3343385    0.1905049 -83.11  0.001396258    3.440    0.709
        50  -9.9048     53.0087     91.2885   8.7894350928e+01   5.2820576328e+01     0.256974    0.1438843 -52.81 0.0008619992    1.676    0.403
        51 -10.5655    248.3908     89.9916   4.2183432748e+01   1.3622091223e+01    0.2939752    0.1503402 -29.73  0.001358832    2.473    0.596
        52  -8.6425    160.9917     83.9642   5.4167222593e+01   3.2851807455e+01    0.1764528    0.1667127 -70.84 0.0004248578    1.021    0.020
        53 -10.8131     13.5221     60.1822   9.5984726923e+01   6.3684147519e+01    0.2801213     0.201634 -48.44  0.000472467    1.220    0.180
        54 -12.0106    198.5345     48.8804   3.9372819280e+01   2.9882551622e+01    0.6298131    0.4605569  65.65  0.001057386    1.366    0.268
        55 -10.6230    119.9696    245.4834   9.6874017119e+01   5.8472115770e+00    0.3151761    0.1861323 -54.70  0.001637566    1.932    0.482
        56  -9.6972     44.1825     60.3727   8.2218287737e+01   6.0510125676e+01    0.2424397    0.2075256  31.43 0.0008202108    1.303    0.233
        57 -10.1562    139.1299    216.8082   8.8413473607e+01   8.5903346648e+00    0.2196029      0.18961  56.47 0.0008068353    1.282    0.220
        58  -9.7402      7.8043     50.8569   9.6062350772e+01   6.5971383013e+01    0.1487963     0.143023   9.56 0.0006794232    1.333    0.250
        59  -9.1143     90.2917    246.3219   1.0348117400e+02   9.9751203700e+00    0.1201479   0.09945062 -13.11 0.0003518281    1.609    0.379
        60  -9.2751    198.0067     24.0881   3.3797332500e+01   3.3175951745e+01    0.2486269      0.17228 -32.72  0.001145638    1.661    0.398
        61 -10.0599      2.3925     21.6998   8.8850508117e+01   7.1614578226e+01    0.2097892    0.1004412 -51.91  0.001150592    2.207    0.547
        62  -8.7784    189.5075     15.0225   3.2597067068e+01   3.6069053048e+01    0.1673655    0.1149626 -38.92 0.0007373908    1.550    0.355
        63 -11.0316     94.8446    241.4155   1.0192934330e+02   1.0316301055e+01    0.5512413    0.2210125 -62.80  0.002340401    2.857    0.650
        64 -14.7041      9.5505    207.8714   1.1800474395e+02   2.8201564437e+01     3.449417     1.197091 -63.90   0.01535945    2.609    0.617
