#   1 NUMBER                 Running object number                                     
#   2 MAG_AUTO               Kron-like elliptical aperture magnitude                    [mag]
#   3 X_IMAGE                Object position along x                                    [pixel]
#   4 Y_IMAGE                Object position along y                                    [pixel]
#   5 X_WORLD                Barycenter position along world x axis                     [deg]
#   6 Y_WORLD                Barycenter position along world y axis                     [deg]
#   7 A_WORLD                Profile RMS along major axis (world units)                 [deg]
#   8 B_WORLD                Profile RMS along minor axis (world units)                 [deg]
#   9 THETA_WORLD            Position angle (CCW/world-x)                               [deg]
#  10 FWHM_WORLD             FWHM assuming a gaussian core                              [deg]
#  11 ELONGATION             A_IMAGE/B_IMAGE                                           
#  12 ELLIPTICITY            1 - B_IMAGE/A_IMAGE                                       
         1 -14.9709      6.5258     70.7094   8.6354197754e+01   6.0939361531e+01     1.057324     0.646827 -43.70  0.005573792    1.252    0.201
         2 -13.4944    103.4268     50.5549   4.4481591117e+01   5.1252311949e+01    0.8626265     0.450727 -44.24  0.002505252    2.282    0.562
         3 -15.8825     11.2059     23.4516   6.9680425064e+01   6.9048147310e+01     1.730295    0.8568838 -23.27   0.01009567    1.798    0.444
         4 -14.5227     27.3404     10.8470   5.6537063399e+01   6.9059445569e+01    0.7955686    0.4656393   2.32  0.002861973    1.598    0.374
         5 -13.9131    187.6940     11.0618   1.7467621401e+01   3.6274373690e+01    0.6062884    0.5215334 -60.01  0.003548178    1.245    0.197
         6 -12.8304      7.8829      2.6636   6.2372389656e+01   7.2097855766e+01    0.4882955    0.2812796  31.40  0.003289327    1.983    0.496
         7 -13.9838    122.2450     36.2039   3.4972804879e+01   4.9003000839e+01    0.9705787    0.5222279  34.55  0.004359095    2.116    0.527
         8 -14.7631    188.3671     23.3718   2.0223411953e+01   3.4782005504e+01     1.393956    0.9213488 -67.20  0.007820386    1.524    0.344
         9 -14.7875    166.7317     28.5715   2.4445428951e+01   3.9335116277e+01     1.173142    0.8115304  66.99  0.004795524    1.242    0.195
        10 -14.4791    147.6357     29.7088   2.7884219232e+01   4.3793614401e+01     1.291737    0.6151784  63.81  0.004608062    1.849    0.459
        11 -13.5087    141.0659     21.5790   2.6730271484e+01   4.6235641539e+01     1.227595    0.3328198  64.06  0.002712672    3.313    0.698
        12 -11.4635    232.5985      1.7790   1.1525670985e+01   2.7326992243e+01    0.3284388    0.1487053  65.92  0.001818675    2.038    0.509
        13 -13.6263    216.8788     28.3712   1.8120238203e+01   2.7647312286e+01    0.6563328    0.3782724 -75.81  0.003287541    1.744    0.427
        14 -14.8737    216.9676     13.1918   1.4995551002e+01   2.9422874728e+01      1.35195     1.061586 -60.24  0.007199888    1.223    0.183
        15 -15.1925     99.2390     11.2344   3.2057755988e+01   5.6663450092e+01     1.441571    0.7788622  51.06  0.004434862    1.477    0.323
        16 -12.5003     85.8566     13.9866   3.6506052791e+01   5.9182076532e+01    0.3509547    0.2979938 -34.08  0.001445565    1.480    0.324
        17 -11.6434     70.9875     16.2758   4.1844383895e+01   6.1808810454e+01    0.2487923    0.1739848 -22.59  0.000796521    1.552    0.356
        18 -12.1997     60.2802     15.1733   4.5020718162e+01   6.3799850567e+01    0.4949303    0.2574155  26.23  0.002635012    1.841    0.457
        19 -11.7495     46.7681     12.6816   4.9027772259e+01   6.6216717793e+01    0.2659833    0.1885125  31.40  0.001365466    1.261    0.207
        20 -10.5880     40.5285     12.5537   5.1507271936e+01   6.7140401248e+01    0.1827824     0.125385 -16.37 5.133955e-06    1.362    0.266
        21 -13.7377     42.0170      3.9239   4.7038251798e+01   6.7798663017e+01     0.585234    0.3889298  22.11  0.003181742    1.168    0.144
        22 -11.8830    168.2805      9.7140   1.9449333289e+01   4.0952219055e+01    0.1998895    0.1572061 -43.37  0.001025007    1.447    0.309
        23 -13.0364    152.0511      8.9477   2.1456349709e+01   4.4852299058e+01    0.3750242    0.2378896  51.37  0.001337106    1.455    0.313
        24 -11.6062     75.5686      9.5891   3.7783065609e+01   6.1580838292e+01     0.254669    0.1892763  23.74  0.001185135    1.161    0.139
        25 -10.9361     80.6584      7.5420   3.5518522755e+01   6.0773504003e+01    0.1711313    0.1426251 -44.29 0.0006451495    1.655    0.396
        26 -13.1423    120.6327     25.8414   3.2042694778e+01   5.0547340030e+01    0.7736989    0.4681702  33.77  0.003937528    1.766    0.434
        27 -12.0115     75.2880      2.7707   3.5184838461e+01   6.2195386124e+01    0.4187928    0.1717241  43.99  0.002127599    1.869    0.465
        28 -12.1838    119.2419      2.6884   2.5010115605e+01   5.2959948733e+01    0.4628108    0.2270954  77.83  0.002113609    2.481    0.597
        29 -11.9600    169.7400      1.7102   1.7315119468e+01   4.1343613081e+01    0.3856009   0.09193523  63.90  0.001496817    2.946    0.661
        30 -10.8584    183.0028      1.4429   1.5788727007e+01   3.8293676544e+01    0.1921988   0.09800142  72.54  0.000604414    1.580    0.367
        31 -11.0826     61.3923      1.4320   3.8892597872e+01   6.4855733655e+01    0.3004268   0.09388032  50.33  0.001127959    2.692    0.629
        32 -11.7131    123.7561     11.1654   2.6797093390e+01   5.1248203403e+01    0.2835693    0.2027103  70.87 0.0009528614    1.314    0.239
        33 -11.3411    103.3038    149.8950   7.2201327369e+01   3.0455203883e+01    0.4033867    0.2419812 -36.23  0.001379861    1.989    0.497
        34 -13.0073    107.7038    246.5492   8.7105080116e+01   7.2026825096e+00    0.7555349    0.5104058 -89.77  0.003966331    1.884    0.469
        35 -13.5891     97.8770    239.2923   8.8307429333e+01   1.0247751615e+01    0.7694449    0.4857388  43.17  0.004065577    1.384    0.277
        36 -14.1044     91.3418    231.5670   8.8772873844e+01   1.2913715625e+01    0.6780396    0.5304831 -67.19  0.003921973    1.356    0.263
        37 -12.5239     51.1606    248.6477   9.8859118151e+01   1.5164057177e+01    0.4018131    0.3412389  73.03   0.00277628    1.126    0.112
        38 -10.8091     41.6451    250.3079   1.0080862546e+02   1.6059150917e+01    0.1327315   0.06897929  64.15 0.0007042529    1.722    0.419
        39 -12.2112      2.8564    249.6369   1.0771703369e+02   2.0629178836e+01    0.3529968    0.2235376  70.43  0.001759763    1.172    0.146
        40 -13.7594      9.9343    245.9224   1.0628767640e+02   2.0635383605e+01     0.851424    0.3907575  57.28  0.003852858    1.764    0.433
        41 -12.2418     39.8257    136.6239   8.8123542876e+01   4.3114105786e+01     0.380602    0.1801447  41.53   0.00166879    2.369    0.578
        42 -12.6132    246.1696    134.8105   3.6839388958e+01   4.2668591505e+00    0.3667339    0.2482339 -83.29    0.0016974    2.466    0.595
        43 -12.1930     44.0027    132.6816   8.6180846711e+01   4.3641839148e+01    0.1892158    0.1811953 -44.01 0.0007471266    1.111    0.100
        44 -11.6265    136.4435    132.0968   5.8965312800e+01   2.8094118816e+01    0.5740269    0.2041692  38.70  0.001716482    3.107    0.678
        45 -14.5744    106.1803    104.7275   6.0284927517e+01   4.0680752667e+01     1.454647      1.26169 -44.14  0.006428062    1.149    0.130
        46 -12.3626    101.3294    118.7288   6.5451148736e+01   3.8434393376e+01    0.8954807    0.5645816  19.73  0.003603345    2.114    0.527
        47 -11.7853    134.5464    125.7781   5.7881627546e+01   2.9968157601e+01    0.3343427       0.2366 -23.14  0.001389469    1.796    0.443
        48 -13.0247     28.5680    121.8162   8.8986814623e+01   4.7852455188e+01    0.4142607    0.3006971 -57.14  0.002375001    1.150    0.131
        49 -10.7852    181.3153    120.6553   4.5433848122e+01   2.0487169376e+01    0.1630658    0.1221063 -78.61 0.0007047924    1.715    0.417
        50 -11.9912      4.8179    119.2984   9.5869002967e+01   5.0222211654e+01    0.4705018    0.3254059  -9.24  0.002842861    1.817    0.450
        51 -12.4987     49.4692     98.7021   7.7199237494e+01   5.1145316006e+01    0.7496768    0.4411026   9.59  0.003470482    2.167    0.539
        52 -12.3174     48.9588     93.0089   7.5948981140e+01   5.2478891791e+01    0.3741252    0.3007208  46.58  0.001446766    1.533    0.348
        53 -12.7288     42.3211     90.5209   7.7690936277e+01   5.3781062991e+01     0.314265    0.2618927 -56.85 0.0003655816    1.234    0.190
        54 -14.6076     24.4664     92.8488   8.4661241152e+01   5.4959894668e+01     1.505614     1.046263 -11.81  0.008707588    1.580    0.367
        55 -11.8770     19.0288     86.1460   8.5141309683e+01   5.6859433272e+01    0.2713743    0.2185646 -18.07 0.0003908025    1.234    0.190
        56 -13.4544      2.2589     96.9515   9.3183006984e+01   5.5516355644e+01    0.9165612    0.3034283 -70.32  0.003741923    2.905    0.656
        57 -14.3149     18.4861    110.8817   9.0260939547e+01   5.1286266913e+01    0.9946988    0.7110046 -15.13   0.00584484    1.622    0.383
        58 -12.5428     78.6689    110.0678   7.0269436687e+01   4.4442864106e+01    0.4723053    0.3650099 -69.07  0.002294153    1.515    0.340
        59 -11.4849     86.7115    114.8391   6.8931253357e+01   4.1989792375e+01    0.3378868    0.2781096  11.84  0.001071515    1.343    0.256
        60 -12.6935     82.0208    115.0202   7.0450399016e+01   4.2736236003e+01    0.3865826    0.3335669  45.99  0.002037834    1.257    0.205
        61 -11.7592    121.8658    111.9792   5.7731593150e+01   3.5834581268e+01    0.2465594    0.2160913  -5.29 0.0006407523    1.270    0.213
        62 -11.7590     63.3184    110.7657   7.5443450653e+01   4.6578607396e+01    0.3910165    0.2844405  55.79  0.001932763    1.747    0.428
        63 -13.9072     10.8017    103.4363   9.1460653667e+01   5.3547543953e+01    0.6815264    0.6418996 -58.53  0.004045302    1.175    0.149
        64 -11.3440     87.8971    109.0849   6.7075535154e+01   4.3121257479e+01    0.3766768    0.2539159 -66.13  0.001651326    1.857    0.462
        65 -11.6601     41.8732    106.3198   8.1585431907e+01   5.0247668272e+01    0.3204271    0.1953472  39.31  0.001601251    1.908    0.476
        66 -12.1435    135.9973    103.0037   5.1482363330e+01   3.4659386368e+01    0.7211567    0.2736036  49.45  0.002355989    2.690    0.628
        67 -13.4467    111.7870    116.5069   6.1798564883e+01   3.6903068791e+01    0.6058142    0.4197689  40.24  0.002060955    1.460    0.315
        68 -12.2129     61.5222     98.0996   7.2879141884e+01   4.9737234988e+01    0.5813631    0.4053312  84.95  0.002533254    2.638    0.621
        69 -11.2755    249.6688     99.3479   2.8988264436e+01   9.9346109485e+00    0.1426389   0.09050409 -67.71 0.0007049064    1.765    0.434
        70 -11.1828    163.3552     96.8146   4.3246714774e+01   2.9513404216e+01    0.2822752    0.2382726 -75.09  0.001064505    1.297    0.229
        71 -12.7199    137.0385     94.8623   4.8960132511e+01   3.6087585690e+01    0.5776115    0.4166822  64.40  0.002599372    1.585    0.369
        72 -13.5584    107.5999    123.7371   6.4869323076e+01   3.6045773890e+01     1.251794    0.6920476  35.55  0.004970361    1.906    0.475
        73 -12.3614     36.6496     92.8575   8.0304978871e+01   5.3855534131e+01    0.4291626    0.2636124   6.91  0.001577159    1.940    0.485
        74 -12.6163    188.5729     83.8354   3.4885020104e+01   2.5908686058e+01     0.576612     0.351876  40.05  0.002255731    2.028    0.507
        75 -12.8658    237.7566     80.4216   2.6618179896e+01   1.5503830291e+01    0.3916613     0.245322  81.40  0.001983841    1.854    0.460
        76 -13.6384    163.6434     71.4548   3.6403189030e+01   3.4041979177e+01     1.247902    0.9277211  65.61   0.00623445    1.313    0.239
        77 -13.0948    162.1438     79.5464   3.8893630445e+01   3.3016127250e+01    0.9244925    0.5459578  26.49  0.003375885    2.963    0.663
        78 -13.8759    169.2038     77.1312   3.6812627181e+01   3.1729878663e+01     1.195068    0.6343743  45.77  0.003946819    1.974    0.493
        79 -10.5818     97.8357     84.1921   5.6905593369e+01   4.6617031109e+01    0.2135257    0.1700746   7.38  0.001068747    1.381    0.276
        80 -13.1902     65.8680     48.8964   5.6048037505e+01   5.8536345289e+01    0.6875127     0.582621 -32.80  0.004279301    1.314    0.239
        81 -13.8803     56.4455     64.7832   6.4995176386e+01   5.7256143473e+01     1.907321     1.091353  11.97  0.008914204    2.152    0.535
        82 -13.6202     91.6937     57.8030   5.0413940772e+01   5.2530557403e+01    0.5254939    0.4722759  10.75  0.002650228    1.024    0.023
        83 -13.5855     87.2920     65.2853   5.4304941098e+01   5.2126425227e+01     1.020924    0.5922427  16.90  0.003843743    2.432    0.589
        84 -12.7308     54.5046     80.9162   7.0655680269e+01   5.4371889346e+01    0.6102952    0.4725048 -49.12  0.003458298    1.300    0.231
        85 -13.8932     61.2368     75.4302   6.6571430762e+01   5.4556454667e+01    0.8077793     0.503915 -23.69  0.003857236    1.730    0.422
        86 -13.1850     71.1276     75.0640   6.2924444723e+01   5.3134072233e+01    0.6036041    0.3990162   3.75  0.001321928    1.873    0.466
        87 -12.1119     77.2320     73.4863   6.0313286950e+01   5.2433874250e+01    0.5547073    0.2932477 -29.49  0.001974505    2.137    0.532
        88 -11.8652    114.1002     79.9763   5.0799668494e+01   4.4088501056e+01    0.4251215    0.3502199 -49.65  0.001691574    1.326    0.246
        89 -12.7228    210.5600     76.9775   2.9636800554e+01   2.1979412057e+01    0.6489697    0.3815202 -72.72  0.002798692    2.228    0.551
        90 -12.2375    135.7826     79.5370   4.4908972848e+01   3.9300409843e+01    0.6446224    0.2863453  49.61  0.002297661    2.142    0.533
        91 -11.5185     41.6248     76.1644   7.4103452471e+01   5.6896440110e+01    0.2792751    0.1930588 -58.11  0.000985192    1.599    0.375
        92 -13.3210     28.5086    246.2058   1.0295640608e+02   1.8500051131e+01    0.4630657    0.3060236  77.68  0.002861744    1.236    0.191
        93 -14.1667      3.9829     63.2203   8.5572021498e+01   6.2591007470e+01    0.7081947    0.5283893 -17.33  0.002814177    1.261    0.207
        94 -10.9625     97.4007     78.7607   5.5384150444e+01   4.7752024252e+01    0.1967753    0.1358695 -28.86 0.0003340124    1.522    0.343
        95 -11.3273     26.9576     74.9913   7.9426376945e+01   5.8587095943e+01    0.4704658    0.2777461 -77.86  0.002067325    3.216    0.689
        96 -12.5347    214.8391     71.8305   2.7842100877e+01   2.1861488284e+01    0.3139899    0.2734385 -86.76  0.001278673    1.058    0.055
        97 -13.3904    199.5973     69.7354   2.9616769389e+01   2.5699080154e+01    0.7862139    0.4677657  47.72   0.00319743    1.893    0.472
        98 -11.0002    117.8536     72.2159   4.7392459627e+01   4.4673432232e+01    0.2103982    0.2011963  66.74 0.0005060403    1.137    0.121
        99 -12.7715    134.3916     65.1709   4.1025886215e+01   4.2088725410e+01    0.6565922    0.5868436  41.34  0.002720492    1.070    0.065
       100 -11.6271     99.6893     64.8876   5.0293296698e+01   4.9779728651e+01    0.2807187    0.2415809  76.37  0.001517301    1.534    0.348
       101 -11.6873    200.0427     61.6161   2.7628258500e+01   2.6879108945e+01     0.294645    0.2496208 -33.93  0.001327679    1.365    0.267
       102 -13.0507     78.8819     60.3017   5.5439178683e+01   5.4500167056e+01    0.7178372    0.4431662 -35.68  0.003141059    1.626    0.385
       103 -11.4916     38.9441     59.8699   7.0243770985e+01   6.0352409490e+01    0.2593719    0.1975764  60.39  0.001422903    2.351    0.575
       104 -10.9720     34.8297     60.1135   7.1989511061e+01   6.0752403521e+01    0.4042752    0.1448055 -37.46  0.001689234    2.615    0.618
       105 -12.0445     37.2521     52.8362   6.8626840231e+01   6.1801651550e+01    0.5191322    0.1946963 -32.65  0.002129411    2.877    0.652
       106 -11.6144     24.8681     58.7291   7.5670450566e+01   6.1972745519e+01    0.4294458    0.1950087 -44.52  0.002190147    1.807    0.446
       107 -11.2587    111.1999     58.7533   4.4992586609e+01   4.8356085002e+01    0.2629808    0.2141131  13.17 0.0003389766    1.310    0.237
       108 -14.4188    120.1047     54.4951   4.1280037167e+01   4.7031520301e+01    0.9588934    0.6201425  45.53  0.004721152    1.407    0.290
       109 -12.6611    248.3445     51.8161   1.9633380356e+01   1.7769144343e+01    0.6558335    0.3033488 -38.37  0.003219191    2.154    0.536
       110 -11.3682     17.6967     55.4392   7.7705083355e+01   6.3184392268e+01    0.2921888    0.1615149 -51.48  0.001649349    1.659    0.397
       111 -13.3559    171.1815    242.9803   7.2976148188e+01  -2.7348217768e+00    0.5153285    0.4360559  11.38  0.003121388    1.128    0.114
       112 -11.8680    135.7973     49.8710   3.6129935911e+01   4.4065729564e+01     0.423222    0.2413443  37.24  0.001569278    1.957    0.489
       113 -13.5022    177.8037     56.7911   2.9943324553e+01   3.2917579528e+01    0.8905504    0.5424592 -50.74  0.003472388    1.709    0.415
       114 -13.0964    157.4836     43.7771   3.0035477360e+01   3.9687386456e+01    0.8536213    0.5063692  38.27  0.003926771    2.032    0.508
       115 -11.0551     38.9594     45.9580   6.5532526611e+01   6.2769402050e+01    0.2108313    0.1548446 -29.69 0.0004477754    1.222    0.181
       116 -11.8201     35.0542     34.7355   6.3039561867e+01   6.4983732979e+01    0.5396659    0.2558807  11.66  0.002389382    2.776    0.640
       117 -12.8085     33.0658     40.3701   6.6018731013e+01   6.4345073647e+01    0.4239064    0.2363675   9.89  0.001153291    1.892    0.471
       118 -12.5081     41.1335     40.0302   6.2458238916e+01   6.3445639353e+01    0.6060896    0.3390785  -0.57  0.003033717    2.197    0.545
       119 -12.7971     46.1415     33.1155   5.7736425110e+01   6.3802288299e+01    0.6750341    0.4773538  41.35  0.004117463    1.733    0.423
       120 -10.4672     29.6843     46.6798   6.9725924282e+01   6.3669471956e+01    0.1296887   0.07651162 -17.27 0.0007040449    1.657    0.397
       121 -12.1945     27.3550     32.5438   6.5603627891e+01   6.6171620415e+01    0.5467745     0.245071  24.47  0.002293573    2.169    0.539
       122 -13.2469      7.0828     42.9980   7.8569567564e+01   6.6192756606e+01    0.9253324    0.3501809  18.04  0.004719502    2.756    0.637
       123 -12.5321     24.3675    216.7529   1.0153017641e+02   2.5300168071e+01    0.6881852     0.309717  58.33  0.003381287    2.116    0.527
       124 -13.7657     26.2978    226.3532   1.0190888999e+02   2.2957579052e+01    0.7845448    0.3841654 -54.09  0.003949058    2.508    0.601
       125 -14.3296    212.4749     40.9835   2.1299095999e+01   2.6996447317e+01      2.15275    0.6647175  72.61   0.00725492    3.994    0.750
       126 -13.9877     20.5355    224.0925   1.0287141510e+02   2.4091827921e+01    0.6796442    0.5197874  59.80  0.004315754    1.188    0.158
       127 -14.0739     65.9246    223.2728   9.3361112191e+01   1.8571837444e+01     1.075692    0.7882081  48.37  0.006205121    1.256    0.204
       128 -12.1219    109.8727     41.9578   3.9867163222e+01   5.1051777470e+01    0.4208472    0.1768603  52.53 0.0007161179    2.140    0.533
       129 -11.8890    135.0439     39.0383   3.3041873639e+01   4.5678554766e+01    0.4931415    0.2750345  67.74  0.001891305    1.883    0.469
       130 -12.9748    113.7836     37.8355   3.7515016639e+01   5.0713268079e+01      0.35993      0.34326   5.31  0.001410296    1.137    0.121
       131 -12.9578     59.6625    212.4620   9.3533648224e+01   2.1919226783e+01    0.4960872    0.3477148 -29.27    0.0016058    2.373    0.579
       132 -12.9769    131.9151     32.9875   3.1866511418e+01   4.7144477103e+01    0.5019418    0.3918293   3.99  0.001691828    1.585    0.369
       133 -13.7583     64.5103    214.2805   9.2653623420e+01   2.0820943947e+01    0.5540882    0.4101244  55.51  0.002757283    1.228    0.186
       134 -12.4470     75.9504     37.0040   4.8169923826e+01   5.8514433451e+01    0.4335428    0.2448674  34.66  0.001370758    1.597    0.374
       135 -11.5472     70.6813     35.9905   4.9584094048e+01   5.9582776550e+01    0.2406821    0.2348097  15.44 0.0008138086    1.360    0.265
       136 -13.0071    242.4165     35.9342   1.7139675340e+01   2.1187953580e+01    0.6109449    0.2909625  76.86  0.002222181    2.066    0.516
       137 -13.3658     97.8715     50.1136   4.5939082083e+01   5.2469924827e+01    0.7785074    0.3977622 -37.13  0.002958911    2.102    0.524
       138 -12.4517     94.3149    218.1963   8.6363085230e+01   1.5379690282e+01    0.2802563    0.2217076  53.65  0.001546036    1.146    0.127
       139 -12.6297     72.3340    207.0849   8.9980609967e+01   2.1369870381e+01    0.3915577    0.3085156  87.58  0.002190098    1.207    0.172
       140 -12.2849     57.4830    203.1086   9.2943401986e+01   2.4418158939e+01      0.59324    0.2781088 -83.02    0.0023754    2.647    0.622
       141 -12.1374     41.1405    205.8684   9.6957739429e+01   2.5862066876e+01    0.2162501    0.1537735  71.91  0.001240818    1.275    0.216
       142 -13.0166     17.1310    195.4563   1.0125083200e+02   3.0947785743e+01    0.7752482    0.1713363 -61.03  0.002866783    3.550    0.718
       143 -11.3798     10.0000    203.9480   1.0346234864e+02   2.9674789411e+01    0.2035837   0.05735536 -74.72 0.0008061118    2.968    0.663
       144 -11.2459    245.4964     29.7545   1.5692877468e+01   2.1367563986e+01    0.3113841    0.1039656 -38.78  0.001393007    2.848    0.649
       145 -13.0339     55.9977     26.8622   5.1362139577e+01   6.3175975611e+01    0.5671362    0.3227487  39.24  0.002055603    1.650    0.394
       146 -12.3232     62.7915     25.5856   4.8344153497e+01   6.2230034076e+01    0.4324179    0.2537073  26.18  0.001968736    1.561    0.360
       147 -11.8411     30.7098     25.5103   6.1300842534e+01   6.6809517285e+01    0.3759107    0.1792444  17.99  0.001752648    2.185    0.542
       148 -11.3182     36.2597     23.1933   5.7891303336e+01   6.6443388685e+01    0.2934376    0.1625575 -20.52   0.00168884    1.722    0.419
       149 -12.5440     40.4265    194.7281   9.5936491313e+01   2.8596084643e+01    0.4163563    0.2179679 -85.58  0.001861153    1.976    0.494
       150 -12.5697     36.8366    194.5696   9.6747993788e+01   2.9054520889e+01    0.3801476    0.2499225 -84.54  0.001873616    1.364    0.267
       151 -11.1204     51.2649     20.4168   5.0547828326e+01   6.4679878658e+01    0.3845414    0.1687476  49.13  0.001739754    3.048    0.672
       152 -11.4256     45.3439     20.3302   5.2866468777e+01   6.5568356299e+01    0.3289793     0.156352  17.86  0.001540614    2.592    0.614
       153 -13.3849     30.0131    169.2749   9.5514503086e+01   3.5979510852e+01    0.9681391    0.6027777 -31.02  0.004734351    2.351    0.575
       154 -12.5857     22.0490    166.1291   9.7144234867e+01   3.7534733487e+01    0.5296682    0.3186557 -11.68   0.00217268    2.990    0.666
       155 -13.5302     22.2035    180.7326   9.8697960544e+01   3.3957459905e+01    0.9384961    0.3282738 -59.67  0.004019777    2.426    0.588
       156 -15.2426      8.3650    183.1462   1.0210465535e+02   3.4657936253e+01     1.416526     1.028133 -73.96  0.009021546    1.166    0.143
       157 -15.0997     15.4721    174.7727   9.9679159041e+01   3.6031498482e+01     1.930929    0.8307683  55.81  0.008663468    2.625    0.619
       158 -10.9230    142.5194     11.5174   2.3617469465e+01   4.6863931501e+01    0.1291288    0.1070339  71.30 0.0001029283    1.053    0.050
       159 -10.3274     55.4704     11.4151   4.5176297768e+01   6.4976612794e+01    0.1216735   0.09020803  20.18 0.0002676737    1.055    0.052
       160 -11.3589    155.6746    184.6712   6.5926279081e+01   1.1816704222e+01    0.1599858    0.1218703  -5.46 0.0007050211    1.700    0.412
       161 -11.9872    198.5911    181.2095   5.5529663267e+01   4.1567647500e+00      0.28272    0.2478024  76.55  0.001488633    1.493    0.330
       162 -11.4773     48.9329    181.3904   9.2297865515e+01   3.0824241229e+01    0.2863071    0.1849696 -61.94  0.001475166    1.423    0.297
       163 -12.5907    124.2448    166.5352   7.0055397186e+01   2.2332938795e+01    0.6204278    0.4109592 -77.32  0.002469829    2.113    0.527
       164 -11.1191      2.1072    159.3180   1.0135489443e+02   4.0833323581e+01    0.3048181    0.1156656 -64.91   0.00143441    1.997    0.499
       165 -10.8504    200.9814    191.5255   5.7153115640e+01   1.6648784145e+00    0.2179452    0.1395341  37.60 0.0008526049    1.571    0.364
       166 -11.6396    111.6868    156.3595   7.1267863949e+01   2.7272815464e+01    0.4082063    0.2703437  86.78  0.001544907    2.423    0.587
       167 -13.2447     74.5282    154.0733   8.1177489865e+01   3.4226618363e+01    0.8833534    0.6065141  52.12  0.004189607    1.580    0.367
       168 -12.1101      8.9184    149.5301   9.8593260627e+01   4.2693967693e+01    0.4563519    0.2799457  10.46  0.002514526    2.242    0.554
       169 -12.2352     60.5297    147.1478   8.3909103957e+01   3.7981889581e+01    0.3907757    0.3193699  -8.69  0.002065886    1.527    0.345
