#   1 NUMBER                 Running object number                                     
#   2 MAG_AUTO               Kron-like elliptical aperture magnitude                    [mag]
#   3 X_IMAGE                Object position along x                                    [pixel]
#   4 Y_IMAGE                Object position along y                                    [pixel]
#   5 X_WORLD                Barycenter position along world x axis                     [deg]
#   6 Y_WORLD                Barycenter position along world y axis                     [deg]
#   7 A_WORLD                Profile RMS along major axis (world units)                 [deg]
#   8 B_WORLD                Profile RMS along minor axis (world units)                 [deg]
#   9 THETA_WORLD            Position angle (CCW/world-x)                               [deg]
#  10 FWHM_WORLD             FWHM assuming a gaussian core                              [deg]
#  11 ELONGATION             A_IMAGE/B_IMAGE                                           
#  12 ELLIPTICITY            1 - B_IMAGE/A_IMAGE                                       
         1 -12.4974    200.3516     38.0536   4.5303910085e+01   3.0472405117e+01      1.04253     0.970345  10.65  0.005712598    1.306    0.234
         2 -12.4476    211.5950     26.7260   4.1078291521e+01   2.9222456937e+01    0.8854791    0.7532126  21.69  0.003151769    1.570    0.363
         3  -9.5547     32.7461     11.8361   7.8294748959e+01   6.9677218327e+01    0.2629419   0.08802462 -37.68   0.00117894    2.789    0.641
         4 -10.2227    233.4895      2.4964   3.3502564105e+01   2.6969718318e+01    0.3349402    0.2180939  77.39  0.002035007    1.444    0.308
         5  -9.8670     20.9618      3.2296   7.9700560697e+01   7.2225552033e+01    0.1931623    0.1310003 -11.15  0.001125212    1.175    0.149
         6 -10.7002    238.0848      3.3490   3.3365413913e+01   2.5886642032e+01    0.5280564    0.2962312  62.38  0.002981976    1.891    0.471
         7  -8.1934     44.7698    219.2012   1.1919403934e+02   2.3044845569e+01    0.2349833    0.1818934  23.17  0.001191987    1.798    0.444
         8  -8.8462    117.8997    250.5741   1.0810894781e+02   7.1057960357e+00    0.1786388    0.0969786  41.06 0.0003774265    1.504    0.335
         9 -12.0701     85.9373    223.5824   1.1141666715e+02   1.6734497129e+01     2.581563     0.699025  50.24  0.001601616    3.820    0.738
        10 -12.1922     52.9671    191.0507   1.1490402630e+02   2.8104255190e+01     2.137037    0.8705557 -80.01   0.00878341    2.839    0.648
        11 -11.7781     68.4908    243.1695   1.1665854987e+02   1.5397972209e+01    0.6814597    0.3768982  69.89  0.001866292    1.829    0.453
        12 -14.2193     46.5594    247.3994   1.2093137682e+02   1.7379272153e+01     8.489497     2.601634  28.31   0.02096196   12.396    0.919
        13 -14.5541      2.5812    197.8314   1.2589802069e+02   3.1866189228e+01      10.2637          nan -72.64   0.02352568   11.365    0.912
        14 -10.9885     28.1833    215.8293   1.2213574961e+02   2.5612251400e+01      1.04445    0.2865068 -80.46  0.003981977    4.114    0.757
        15  -8.6054     65.9586    207.2746   1.1380896748e+02   2.2869491944e+01    0.2278113    0.1643163 -68.04 0.0006315898    1.393    0.282
        16  -7.7982     23.2809    207.5917   1.2250833396e+02   2.7841967606e+01    0.1292557   0.06565116  70.44 0.0003214553    1.791    0.442
        17 -11.5333     13.0914    189.4581   1.2327283298e+02   3.2741152794e+01    0.4470514    0.3215341 -68.53  0.002619551    1.383    0.277
        18  -9.0400     63.4419    199.9763   1.1357151503e+02   2.4781500926e+01    0.3993125    0.1651189 -59.08  0.000986271    2.385    0.581
        19 -15.3343      8.1722    241.6618   1.2715476582e+02   2.2627917927e+01     17.22983     1.545606 -77.59   0.03146537   10.779    0.907
        20  -8.3406     66.6534    195.3281   1.1235504713e+02   2.5379384395e+01    0.2402338    0.1722461  74.41  0.001380714    1.317    0.240
        21  -8.4501     54.7174    222.0583   1.1749102941e+02   2.1249916557e+01    0.2226918    0.1288475  56.28 0.0006656489    1.477    0.323
        22  -8.4331     99.3575    180.8266   1.0289102874e+02   2.3808375787e+01    0.2378876    0.1786696  53.16 0.0007617076    1.284    0.221
        23  -8.1389    145.1979    180.5957   9.2169921608e+01   1.5806962743e+01    0.2065995    0.1342971  29.39 0.0009436414    1.671    0.401
        24 -10.3482     67.9275    176.1474   1.0969580424e+02   2.9594257203e+01    0.3930163    0.2590055 -44.71   0.00200884    1.840    0.457
        25 -10.3875     72.7116    170.9758   1.0782634792e+02   3.0152136437e+01    0.3788263    0.2799685 -41.24 0.0009928461    1.652    0.395
        26 -12.2496     43.1319    201.9576   1.1806805747e+02   2.6872011035e+01     2.279446    0.9523264  75.33  0.002623778    3.420    0.708
        27  -9.1806     28.4220    168.7531   1.1817462557e+02   3.5991033459e+01     0.245275    0.1059785 -77.51  0.001136199    2.057    0.514
        28 -11.0071     81.6839    161.9995   1.0422025950e+02   3.0992967357e+01    0.6814942     0.415774  65.63 0.0006599629    1.989    0.497
        29 -11.9082     69.5687    157.2451   1.0656173811e+02   3.3895198618e+01    0.5996343    0.4685619 -20.89  0.001256708    1.801    0.445
        30 -11.7935     68.7242    144.4829   1.0469322823e+02   3.7143255644e+01    0.8172801    0.5619803  86.49   0.00277839    1.677    0.404
        31 -10.6344     87.8357    155.1244   1.0147312728e+02   3.1707268670e+01    0.5730081    0.4037298 -26.15  0.001608811    2.043    0.511
        32  -9.5816     31.8318    156.4862   1.1604592006e+02   3.8565231884e+01     0.248821    0.1952807  38.07  0.001547292    1.455    0.313
        33  -7.9372    157.4529    160.2287   8.5291178995e+01   1.7750873014e+01     0.207892    0.1446124 -58.64 0.0009380223    1.642    0.391
        34  -7.6589    174.6576    148.3370   7.8798256564e+01   1.6729968061e+01    0.1551322    0.1233234 -86.36 0.0007050023    1.766    0.434
        35  -8.6754     39.0706    146.6117   1.1297349019e+02   4.0219140085e+01    0.2615587    0.1675528  55.98 0.0008942169    1.660    0.398
        36  -9.1482    133.4707    143.7148   8.7405497629e+01   2.6212018424e+01    0.5896186    0.1527006 -53.58  0.001445897    5.029    0.801
        37 -10.2997     31.8525    144.3964   1.1458253578e+02   4.1489326713e+01    0.4045078     0.351579 -71.04  0.002620393    1.112    0.101
        38  -9.6413    101.9536    140.3299   9.4864382477e+01   3.2947002700e+01    0.5301566    0.3265528 -23.94  0.002005717    2.768    0.639
        39 -10.5006     89.4842    139.9883   9.8181329561e+01   3.5133559866e+01    0.2917022     0.254618 -40.60 0.0005678135    1.214    0.176
        40 -11.2652     58.2570    131.4429   1.0532642968e+02   4.1754789243e+01    0.9650043    0.3668187 -71.31  0.003240324    3.336    0.700
        41  -8.9405    111.1091    130.7217   9.0263922065e+01   3.3592024839e+01    0.2692961    0.2137423  11.76  0.000689013    1.593    0.372
        42  -8.3630    106.0988    130.8889   9.1668888783e+01   3.4478433836e+01    0.2455776    0.2106365 -88.68  0.001245372    1.288    0.224
        43  -8.0687     83.4578    143.0016   1.0041456915e+02   3.5349801561e+01    0.2157985    0.1356721 -62.58 0.0005385439    1.509    0.337
        44  -9.0355     98.5574    126.5403   9.2770763984e+01   3.6873995914e+01    0.2995761    0.2400744 -12.45 0.0009312099    1.595    0.373
        45  -8.8957    119.2546    123.0098   8.6211295850e+01   3.3836653231e+01    0.2795406    0.1762495   1.95 0.0009073513    3.548    0.718
        46  -7.9586    107.8081    119.2280   8.8422535043e+01   3.6935210614e+01    0.1980259    0.1752604 -15.30  0.000300709    1.263    0.208
        47  -9.8242     32.7304    110.4435   1.0923052324e+02   4.9712274085e+01    0.5210115     0.120352 -68.57  0.001457298    4.988    0.800
        48  -8.2820    205.4339    110.2590   6.3350986490e+01   1.7572425437e+01    0.2154283    0.1319945 -46.82 0.0009417327    1.594    0.372
        49  -7.9406    243.3505    107.3276   5.6483982359e+01   1.0153278822e+01    0.1400153    0.1051209   3.06 0.0002920513    1.763    0.433
        50  -9.9134     42.4278    104.4787   1.0500381282e+02   5.0203053144e+01    0.3921029    0.2048672  46.38  0.001802682    2.355    0.575
        51  -9.7345     49.4539    216.6756   1.1806713975e+02   2.3000124654e+01     0.499647    0.2317165  73.38  0.002339784    2.535    0.606
        52  -9.1823     32.8106     95.5854   1.0636759946e+02   5.3275215958e+01    0.3380448    0.1052523 -63.96  0.001245042    2.839    0.648
        53  -9.0158     48.9790    224.7110   1.1882208802e+02   2.1424556979e+01    0.1941839    0.1530219 -82.12 0.0005189914    1.248    0.199
        54  -7.6903     41.3150     91.7048   1.0261131141e+02   5.3361120369e+01    0.1278426    0.1009953  78.86  0.000228635    1.602    0.376
        55  -7.9230     58.2595    220.6353   1.1666999379e+02   2.1090515191e+01    0.1272442   0.07504137  71.50 0.0005249666    1.636    0.389
        56  -7.9080     56.2846     66.3195   9.0215624358e+01   5.7242488857e+01    0.1403746   0.09385207 -23.23 0.0002355769    1.590    0.371
        57 -11.9773    190.3326     45.4297   4.8667691240e+01   3.1913601996e+01     0.804934    0.6220742  16.38  0.002562064    1.752    0.429
        58  -9.5941    125.2270    242.9369   1.0582975615e+02   7.2779669283e+00    0.3437911   0.08865315 -50.82  0.001295266    4.496    0.778
        59  -8.9860     28.6028    235.2705   1.2332061899e+02   2.1708378921e+01    0.2020337   0.09081289 -83.61  0.001128835    2.088    0.521
        60  -8.8046    143.2466     48.1446   5.7836338479e+01   4.3184458615e+01    0.2702793    0.1888403 -87.30   0.00078746    1.995    0.499
        61  -8.3941    145.9498     42.6804   5.5486317869e+01   4.3303446541e+01    0.2029421    0.1828411  65.76  0.001126197    1.093    0.085
        62 -10.5420     13.4257     31.2957   9.6492790617e+01   6.8529744973e+01    0.2666089    0.1638752 -61.06  0.001533606    1.995    0.499
        63  -8.1228     92.9165    217.4754   1.0929829130e+02   1.6930353210e+01    0.1815311    0.1565434  85.33 0.0004019813    1.127    0.113
        64  -9.2451     60.1606    232.3255   1.1731225371e+02   1.8527682218e+01    0.2076267     0.149891  76.42 0.0004386597    1.204    0.169
        65  -8.8914     33.8709    227.3368   1.2185846022e+02   2.2667362755e+01    0.1811956    0.1375413 -82.27 0.0003243743    1.277    0.217
        66 -12.9124     10.2584    206.4686   1.2493923186e+02   2.9356498193e+01    0.6668891    0.5649385  33.10  0.002698906    1.575    0.365
