#   1 NUMBER                 Running object number                                     
#   2 MAG_AUTO               Kron-like elliptical aperture magnitude                    [mag]
#   3 X_IMAGE                Object position along x                                    [pixel]
#   4 Y_IMAGE                Object position along y                                    [pixel]
#   5 X_WORLD                Barycenter position along world x axis                     [deg]
#   6 Y_WORLD                Barycenter position along world y axis                     [deg]
#   7 A_WORLD                Profile RMS along major axis (world units)                 [deg]
#   8 B_WORLD                Profile RMS along minor axis (world units)                 [deg]
#   9 THETA_WORLD            Position angle (CCW/world-x)                               [deg]
#  10 FWHM_WORLD             FWHM assuming a gaussian core                              [deg]
#  11 ELONGATION             A_IMAGE/B_IMAGE                                           
#  12 ELLIPTICITY            1 - B_IMAGE/A_IMAGE                                       
         1 -12.1808     57.5297     17.2939   9.3142862612e+01   6.3461625969e+01    0.3597242    0.2643418  32.40  0.002401262    1.282    0.220
         2 -10.9884      6.4467     17.2773   1.1420076393e+02   6.9291706889e+01    0.2344826    0.2027771 -57.21  0.001325507    1.960    0.490
         3 -11.5412    114.9564     15.7674   7.6263539770e+01   5.2836501900e+01    0.4742707    0.2335855  54.78  0.002053464    1.711    0.415
         4 -11.7314     24.6755      6.9935   1.0174443098e+02   6.8947323861e+01    0.2348243    0.1576582 -33.73 0.0005957651    1.647    0.393
         5 -12.7012     19.7388      8.3568   1.0451401979e+02   6.9305806069e+01     0.504381    0.3570857  27.62  0.001145297    1.597    0.374
         6 -10.9479     26.1739     13.4092   1.0382797148e+02   6.8010944931e+01     0.214894    0.1615171 -14.86 0.0008000651    1.136    0.119
         7 -10.6544      9.8528      5.1970   1.0769987659e+02   7.0627413146e+01    0.2278572    0.1371527   6.17 0.0006042251    1.443    0.307
         8 -10.7787     11.4596      1.5429   1.0533385408e+02   7.0922985742e+01    0.1896123    0.1593983 -24.02  0.001528091    1.592    0.372
         9 -12.5513    211.7368      9.4736   5.9916789669e+01   3.0869754555e+01    0.4788977     0.336371   8.07 0.0003588175    2.546    0.607
        10 -12.0046    208.8801      5.1062   5.9251250385e+01   3.1973930110e+01    0.2716344    0.1987405 -82.30 0.0003409026    1.195    0.163
        11 -11.2747    149.5292     11.6627   6.8416170018e+01   4.5345910056e+01    0.2974123    0.1798506  39.77 0.0007268112    1.721    0.419
        12 -12.2924    219.5424     13.7750   6.0066919388e+01   2.8625501581e+01    0.3305352    0.2210855 -58.16  0.001875713    1.414    0.293
        13 -11.5684     86.0716     14.1008   8.2882232738e+01   5.8891435106e+01    0.2106179    0.1658989  13.67  0.000303189    1.163    0.140
        14 -10.9995     87.2268      8.1938   8.0360875175e+01   5.9215524428e+01    0.3180793    0.1690943   3.14  0.001577267    2.454    0.593
        15 -12.0672     65.6841     13.2809   8.8754038388e+01   6.2597949451e+01    0.3872183    0.2486753  25.05  0.001567086    1.350    0.259
        16 -11.0464    173.1745     13.8658   6.5482511440e+01   3.9509357581e+01    0.2342695    0.1789766  47.49 0.0003956015    1.343    0.256
        17 -11.9174     74.7720      9.9220   8.4564603788e+01   6.1367294141e+01    0.3031166    0.2101448 -32.61  0.001409303    1.719    0.418
        18  -9.9612     32.6912     12.1502   1.0054773313e+02   6.7426086774e+01     0.209523    0.1051785  23.38  0.001223302    1.879    0.468
        19 -10.5147    102.0122     10.0173   7.7279026397e+01   5.6103664604e+01    0.2050234    0.1209261  30.58 0.0005955853    1.648    0.393
        20  -9.9913      5.2517      9.9968   1.1189453657e+02   7.0388456485e+01    0.1364975   0.07089264 -36.94 0.0008964021    1.607    0.378
        21 -11.5753    248.3198      7.5987   5.6322763239e+01   2.3023209239e+01    0.2176647    0.1828005 -76.63 0.0005646372    1.135    0.119
        22 -10.6706     46.2539      8.9727   9.3826019246e+01   6.6021459683e+01    0.1891196    0.1260158  20.43  0.000381555    1.245    0.197
        23 -11.3736    107.4344      7.5827   7.5181334907e+01   5.5179484661e+01    0.2345394    0.1982049  53.72 0.0006166878    1.139    0.122
        24 -11.8741    231.2404      5.9128   5.7378720825e+01   2.6867994140e+01    0.2887029     0.245151  22.63 0.0009009325    1.848    0.459
        25 -10.6865    175.8784      7.1538   6.3419480653e+01   3.9511934161e+01    0.1744698    0.1290374  53.75 0.0004208807    1.300    0.231
        26 -10.1543     61.7790      6.7965   8.7416424809e+01   6.3877242172e+01    0.1436706    0.1325315   1.24  0.001067335    1.359    0.264
        27 -10.8919    191.4402      6.0658   6.1297120880e+01   3.5934416937e+01    0.2122229    0.1503362 -84.21 0.0006799992    1.323    0.244
        28 -11.5682     73.7419      2.3803   8.1900052483e+01   6.2217859120e+01    0.2764773    0.2134402  35.58  0.001904074    1.106    0.096
        29 -11.7103    180.3237      1.9942   6.1601317377e+01   3.8931921070e+01    0.2536813    0.2230399  78.93 0.0001281864    1.086    0.079
        30 -11.3508    160.6272      2.8197   6.4319591331e+01   4.3511157759e+01    0.3080495    0.2419126 -85.66  0.000789381    1.288    0.224
        31 -11.2448     30.9842      3.6787   9.7591379262e+01   6.8586895320e+01    0.1987466    0.1451251 -13.65 0.0005990795    1.218    0.179
        32 -10.4317      1.3729      3.1462   1.1090876413e+02   7.1578148573e+01    0.2470856   0.08308695 -43.47 0.0006957902    2.895    0.655
        33 -10.9260    195.2215      3.5917   6.0310635205e+01   3.5285993785e+01    0.1810137   0.09490542  62.74 0.0009469408    1.626    0.385
        34  -9.7228    123.6017      3.4902   7.0502617370e+01   5.1997585712e+01    0.1241586    0.1038791  50.15 8.875137e-05    1.022    0.021
        35 -11.0144     90.4793      2.3116   7.7331275030e+01   5.9071459859e+01     0.300755    0.1854188  57.11 0.0008258144    1.537    0.349
        36 -11.1307     37.4034      2.4346   9.4419724979e+01   6.7901961762e+01    0.2644728    0.1347836  24.97  0.000799539    1.751    0.429
        37 -12.0691    217.6655      3.4245   5.8063314607e+01   3.0145445099e+01    0.2711359    0.2234613  78.37  0.001845812    1.146    0.127
        38  -9.9895    138.2467      1.3271   6.7265739397e+01   4.8851935964e+01     0.169355    0.1014474  71.19 0.0003437111    1.527    0.345
        39  -9.6856    228.6167    228.8398   1.0499301398e+02  -7.9985408670e+00    0.1497811    0.1162637 -39.46 0.0002343107    1.514    0.339
        40 -12.0073    157.4438    248.9913   1.2209724096e+02   8.0417748973e-01    0.3297424      0.22895  62.53  0.001538053    1.701    0.412
        41 -10.6897    141.7758    250.3206   1.2535112999e+02   3.2376194955e+00    0.4100849    0.1107273  48.15   0.00124838    3.648    0.726
        42 -12.5763    121.5372    246.6792   1.2884046587e+02   7.2520178841e+00    0.5196618    0.4833552  22.20  0.001971401    1.311    0.237
        43 -10.8147     95.0665    229.9966   1.3205262523e+02   1.4694180066e+01    0.1922564     0.157196  65.90 0.0003252699    1.047    0.045
        44 -11.3619     91.9747    225.1048   1.3208861586e+02   1.6160789660e+01    0.5030538    0.2661055  59.28  0.001475157    1.931    0.482
        45 -11.7220    115.4265    244.3353   1.2974731651e+02   8.6802108136e+00    0.2472032    0.2064366  89.19 0.0002908846    1.268    0.211
        46 -12.4756    114.4917    236.3780   1.2893583679e+02   1.0312482210e+01    0.7343683    0.5132287 -74.75   0.00413692    1.645    0.392
        47 -11.5474    118.8202    233.4387   1.2767876766e+02   1.0147314375e+01    0.3458068    0.2239774  71.02 0.0009404736    1.839    0.456
        48 -10.4557     85.9250    226.2711   1.3345464109e+02   1.6858760901e+01     0.221448    0.1802195  73.81 0.0006942733    1.077    0.072
        49 -11.4432    129.7669    247.3941   1.2731885290e+02   5.7577132488e+00    0.2993917    0.2473321  24.34   0.00130452    1.395    0.283
        50 -12.3541    128.1659    241.0651   1.2680813641e+02   7.1549171574e+00    0.6320431    0.4936218  72.10  0.003812302    1.355    0.262
        51 -11.5854     88.3998    231.2850   1.3353833013e+02   1.5474313716e+01    0.4105581    0.2113141  53.97  0.001443133    1.763    0.433
        52 -11.3880     95.9395    248.2936   1.3396872395e+02   1.1056597356e+01    0.4036724     0.230895  69.60  0.002100224    1.978    0.494
        53 -10.9790    105.9773    235.5081   1.3053309817e+02   1.1873546815e+01      0.22771     0.196342  49.09 0.0006317412    1.136    0.120
        54 -11.8579    102.2036    234.2204   1.3113036295e+02   1.2730539421e+01    0.3291372    0.2882284  23.63 0.0004629408    1.450    0.311
        55 -12.1606    100.4552    243.5400   1.3257342400e+02   1.1234094984e+01     0.277078    0.2719289  84.88 0.0005008712    1.302    0.232
        56 -12.9619    101.9386    239.7762   1.3184764115e+02   1.1707743815e+01    0.3996423     0.255877  53.01 0.0006840432    1.332    0.249
        57 -13.6149     52.6495    197.3627   1.3703377488e+02   2.7709003188e+01     1.542814    0.4929647 -56.87  0.003666674    2.989    0.665
        58 -13.1053     40.7778    198.2326   1.3962133474e+02   2.8969012326e+01     1.335335    0.7717921  76.82  0.007228775    1.771    0.435
        59 -13.3766     30.9635    202.6015   1.4203917539e+02   2.9137656906e+01    0.6339014    0.3488454  53.99  0.001940611    1.693    0.409
        60 -13.4346     18.0659    202.1868   1.4453433177e+02   3.0581546740e+01    0.6772631    0.4168373 -57.37  0.002147816    1.777    0.437
        61 -13.8771     18.8978    195.6193   1.4381960710e+02   3.1901589205e+01     1.536906     0.828061 -89.83  0.008748576    1.676    0.403
        62 -13.5133     39.1678    246.9224   1.4416326526e+02   1.9198693864e+01     1.722087    0.8077505  61.11  0.009146475    1.847    0.458
        63 -12.4604     47.2608    244.4188   1.4255830296e+02   1.8667900850e+01    0.3089348    0.2033105  44.51   0.00106835    1.477    0.323
        64 -12.2998      3.0975    190.0810   1.4647724039e+02   3.4543402951e+01    0.3026932    0.2278194  84.92 0.0003422046    1.043    0.041
        65 -13.6598     22.3697    224.9576   1.4549614654e+02   2.5426284461e+01      1.22095     0.415847 -75.96  0.005871412    2.655    0.623
        66 -14.3165     37.8801    221.5363   1.4237634928e+02   2.4363503009e+01     1.674414    0.9648255 -85.02  0.009928429    1.567    0.362
        67 -13.0094      7.8329    206.7373   1.4681619478e+02   3.0619386217e+01    0.7621854    0.3294573  82.68  0.003061724    2.358    0.576
        68 -13.4296      2.3824    198.5719   1.4724416327e+02   3.2813897809e+01     0.445581    0.2038202 -57.51  0.002288416    2.291    0.563
        69 -14.5385     12.1063    217.2777   1.4678540030e+02   2.8043965309e+01    0.8749607    0.6011972 -42.13  0.005559317    2.401    0.584
        70 -13.9730      4.6869    214.2480   1.4790367604e+02   2.9375176636e+01    0.9357903    0.3254316 -78.02  0.004742353    2.407    0.585
        71 -14.8109     13.3579    229.6196   1.4739938815e+02   2.5451402671e+01      1.03485    0.7728478 -28.72  0.006627876    2.792    0.642
        72 -13.7821     12.2282    238.4360   1.4814731339e+02   2.3859530677e+01    0.6633415    0.3244527  52.69  0.004212546    1.690    0.408
        73 -14.1919     26.2753    249.2969   1.4650547422e+02   2.0274539340e+01    0.5909182    0.3479806  51.14  0.002498768    1.440    0.305
        74 -14.3719      4.6218    245.8536   1.4980728215e+02   2.3241144857e+01    0.4654104    0.2947583  81.85  0.002400029    1.171    0.146
        75 -14.2886      9.1203    249.6439   1.4930324799e+02   2.2080757493e+01    0.4606825    0.3124444  84.77  0.001474434    1.137    0.120
        76 -15.2049     14.6848    246.2561   1.4821649547e+02   2.2122573603e+01    0.7815244    0.5670282 -63.94  0.005801328    1.717    0.418
        77 -10.3777    173.0600    226.9463   1.1557461835e+02   1.7911242949e+00    0.3769725    0.2508539  54.36  0.001941509    1.636    0.389
        78 -10.9535    249.1680    226.3241   1.0079317922e+02  -1.0786598792e+01    0.3182388    0.1277282 -34.66 0.0008547544    2.452    0.592
        79 -11.3548    106.1978    223.6773   1.2897910972e+02   1.4162645767e+01    0.3806892    0.2554447  58.56  0.001465792    1.393    0.282
        80 -11.5182    111.9013    223.9594   1.2783083164e+02   1.3157169117e+01      0.29818    0.2009042  44.45 0.0003247059    1.328    0.247
        81  -9.8578    202.6234    226.1763   1.0950750596e+02  -3.2902869328e+00    0.1787444    0.1168974 -23.02 0.0005487669    1.755    0.430
        82  -9.6833    100.3588    226.2456   1.3051549144e+02   1.4599243792e+01    0.1651464    0.1126115 -35.11 0.0008288586    2.289    0.563
        83  -9.7934    100.5242    223.4158   1.3012096759e+02   1.5142414086e+01    0.1844053    0.1227737 -51.80 0.0001530399    1.733    0.423
        84 -11.1851    225.3115    225.0760   1.0494048755e+02  -6.9141111128e+00    0.2631737    0.1636437  33.70            0    1.459    0.315
        85 -10.2084    164.5860    225.1969   1.1702775509e+02   3.6234112929e+00    0.2052093    0.1792705  -9.30 0.0008363604    1.307    0.235
        86  -9.8579    162.3971    222.1849   1.1698812031e+02   4.5629825141e+00    0.1684474    0.1326779 -65.73  0.000552881    1.577    0.366
        87 -11.3515    123.3315    224.7792   1.2556075212e+02   1.1048135020e+01    0.3819278    0.1941115  49.16  0.001162545    1.785    0.440
        88 -10.9170    148.2804    222.9144   1.2005493152e+02   6.9885203014e+00    0.3520074    0.2354154 -23.05    0.0012615    2.295    0.564
        89 -10.6945     78.1956    222.2548   1.3455382132e+02   1.8840663254e+01    0.3084721    0.1839438  77.50  0.001225851    1.897    0.473
        90 -10.3072    216.8904    223.1648   1.0619922867e+02  -5.2378563245e+00    0.1790466    0.1617036  21.79 0.0003243302    1.143    0.125
        91 -10.4810    131.1821    221.2147   1.2339252538e+02   1.0372942911e+01    0.2128266    0.1951947 -73.04 0.0005006689    1.190    0.160
        92 -10.4340    133.9984    218.7757   1.2242694335e+02   1.0350260586e+01     0.212926     0.195278  48.36 0.0004877492    1.056    0.053
        93 -10.8056     90.0367    217.2586   1.3151801873e+02   1.8077500578e+01    0.2551997    0.1759699 -63.30 0.0009283798    1.503    0.335
        94 -11.4334     85.3779    220.6661   1.3290290649e+02   1.8089684164e+01     0.442709     0.239037 -48.61 0.0008308452    2.327    0.570
        95 -11.1983     84.4079    216.0032   1.3253690833e+02   1.9209670460e+01    0.3898857    0.3089697 -23.24  0.001732707    2.046    0.511
        96  -9.9261    169.1856    220.7573   1.1533975870e+02   3.5840560616e+00    0.1742999    0.1483104   1.00  0.000267102    1.319    0.242
        97 -10.0944    125.6391    221.2774   1.2457182844e+02   1.1335050606e+01    0.2124926    0.1474312  73.72 0.0007873969    1.735    0.424
        98 -13.6612     31.0442    214.4038   1.4306285531e+02   2.6630123981e+01      1.12003    0.5707411  64.79  0.006169084    1.871    0.466
        99 -11.4319    196.1231    219.4198   1.0960575420e+02  -1.0496056404e+00    0.2260304    0.1964246 -44.96 0.0006317017    1.343    0.255
       100 -11.1402     62.6190    219.6357   1.3739778005e+02   2.1600373733e+01    0.2111704    0.1624743  67.86 0.0003955472    1.100    0.091
       101 -11.7775     58.9836    216.0836   1.3775392492e+02   2.2836644915e+01    0.2248421    0.1743727  59.01 0.0003463675    1.156    0.135
       102 -12.2218     58.7617    210.9174   1.3725159905e+02   2.3963015643e+01    0.4780514    0.2741728  70.78   0.00174188    1.825    0.452
       103 -10.1044    111.4022    227.4991   1.2840854636e+02   1.2539330776e+01    0.1884856    0.1406771  76.84 0.0001011849    1.418    0.295
       104 -11.0691     94.9631    218.5554   1.3065311978e+02   1.7030590976e+01    0.2845805     0.173822 -59.58  0.001092376    1.725    0.420
       105 -11.0485    217.5315    217.6055   1.0506766244e+02  -4.4765093359e+00    0.3051449    0.2120211  -4.61  0.001168148    1.632    0.387
       106 -11.0369    217.1450    212.8724   1.0426859448e+02  -3.6549486678e+00    0.2223576    0.1948421 -34.64 0.0004103967    1.274    0.215
       107 -10.7902    176.4750    216.8047   1.1315105914e+02   2.9586435454e+00    0.3575709    0.2612854  29.96  0.001386313    1.299    0.230
       108 -10.8794    162.6713    217.2204   1.1610406847e+02   5.4243052822e+00    0.3093432    0.2022198  36.16  0.001561072    1.412    0.292
       109 -11.1836    105.1622    208.9144   1.2716754321e+02   1.7382936962e+01    0.5201419    0.2764477  49.77  0.002428259    1.753    0.430
       110 -10.2595    117.0763    211.5045   1.2496009093e+02   1.4805288091e+01    0.2621314    0.1739784  55.01 0.0005411467    1.432    0.302
       111 -10.0454    113.5263    210.4979   1.2558070087e+02   1.5628679838e+01    0.2308847    0.1293135  31.00 0.0006691121    2.095    0.523
       112 -12.4272    108.7016    215.2823   1.2730847555e+02   1.5456511712e+01    0.7062991    0.3910223  37.29  0.002529334    1.789    0.441
       113 -10.7762    100.4788    215.4772   1.2908597424e+02   1.6779728058e+01    0.2599857    0.2083323  67.92 0.0008787226    1.149    0.129
       114 -10.6579    209.2610    216.5673   1.0648505630e+02  -2.8896259073e+00    0.2208917    0.1711387 -30.49 0.0002624675    1.341    0.254
       115 -10.8278     77.2416    216.9633   1.3413750150e+02   2.0082853604e+01    0.2263291    0.1718669  48.20 0.0005671292    1.251    0.200
       116 -10.1897     71.7604    217.5318   1.3532604824e+02   2.0760463656e+01    0.2994671      0.10785  41.08 0.0009134155    2.516    0.603
       117  -9.8191     67.2139    216.7183   1.3616057864e+02   2.1575787997e+01    0.1468658    0.1326765 -72.56 0.0004286048    1.273    0.215
       118  -9.6186     48.3159    217.2703   1.3998664651e+02   2.3972589524e+01    0.1035956   0.09388229 -45.73 0.0002798606    1.556    0.358
       119 -11.7532    146.0798    215.1642   1.1928116993e+02   8.8682255772e+00    0.2518795    0.2120639 -48.68 0.0004609476    1.323    0.244
       120 -11.1050    126.0471    215.9454   1.2369336462e+02   1.2325828150e+01     0.261238    0.1772097  48.07 0.0004701087    1.322    0.244
       121 -11.4767    193.0921    214.2400   1.0928708353e+02   3.7437626650e-01    0.2546676    0.2135785 -51.31 0.0003889066    1.420    0.296
       122 -10.9319    230.5928    212.3624   1.0161594175e+02  -5.8406297679e+00    0.3617099    0.2117852 -48.86  0.001776421    2.221    0.550
       123 -10.5240    162.2397    212.6510   1.1541706968e+02   6.3590727480e+00    0.3449898    0.2224267  39.22  0.001714101    1.410    0.291
       124 -11.3077     95.2241    212.0787   1.2974881792e+02   1.8343777215e+01     0.305165    0.2596198  27.15  0.001002616    1.429    0.300
       125 -11.7060     69.5748    211.2274   1.3505653567e+02   2.2408369186e+01     0.563201    0.3070497  66.54   0.00202307    2.018    0.504
       126 -12.4181     80.6153    209.3910   1.3251441034e+02   2.1189132265e+01    0.4947972    0.2765504 -79.79   0.00164292    2.053    0.513
       127 -10.1122     63.8075    200.1174   1.3496822095e+02   2.5626879156e+01    0.2312859     0.159107 -76.81 0.0009829021    1.355    0.262
       128 -10.8239     74.1908    204.0913   1.3322414837e+02   2.3287753204e+01    0.3642449    0.1964426  75.23  0.001597803    2.481    0.597
       129 -11.8208     68.9182    200.9929   1.3397495716e+02   2.4723184233e+01    0.3131397    0.2358092  51.47  0.000289023    1.261    0.207
       130 -11.2224    237.3968    208.8364   9.9690867998e+01  -6.4095674255e+00    0.2995158    0.2095167 -21.76  0.001191715    1.379    0.275
       131 -10.7522    184.2153    198.5120   1.0819861644e+02   4.8575002892e+00    0.2788002    0.1924841 -46.79 0.0005461585    1.577    0.366
       132 -11.2361    184.1419    209.9794   1.1034786708e+02   2.7673764399e+00    0.2171813    0.1972979  24.12 0.0004416244    1.011    0.011
       133 -12.5270    183.3089    204.2662   1.0947098813e+02   3.9625666001e+00    0.2958887     0.258164 -30.95 0.0003525944    1.214    0.177
       134 -11.7345    190.4727    200.4942   1.0727227168e+02   3.3001675074e+00    0.2672683    0.2587657 -11.54 0.0001223006    1.106    0.096
       135 -12.9517    188.4688    196.2732   1.0687941847e+02   4.4597357826e+00    0.4762206    0.2838344 -43.43 0.0003949947    1.776    0.437
       136 -11.4060    130.2910    206.0615   1.2122737887e+02   1.3580732418e+01    0.4356122    0.2027655 -45.17  0.001787966    2.493    0.599
       137 -10.7545    211.0335    207.0600   1.0437016556e+02  -1.6291308361e+00    0.2052669    0.1812229  11.01 0.0003086011    1.014    0.014
       138 -10.6232    188.6485    206.9760   1.0886588709e+02   2.4689593197e+00    0.1879627     0.176519  -3.56 0.0004969376    1.085    0.078
       139 -11.9693    144.8705    205.8250   1.1799047206e+02   1.0938530729e+01    0.3331746    0.2320202 -45.90 0.0005659489    1.582    0.368
       140 -10.6555    200.1070    204.8551   1.0613070949e+02   7.2478512523e-01     0.194052    0.1873417  66.09 0.0005393159    1.252    0.201
       141 -10.6944    121.4757    203.4949   1.2276294523e+02   1.5705377125e+01    0.3324673    0.2514977  68.63  0.001751865    1.401    0.286
       142 -10.9938    121.4921    199.4559   1.2211047871e+02   1.6560207219e+01    0.2652654     0.238491 -88.63 0.0006307302    1.125    0.111
       143 -11.3995    122.9799    195.9873   1.2120453798e+02   1.7035290213e+01    0.2334208    0.1980207 -63.62            0    1.230    0.187
       144 -11.2028    116.3214    205.0657   1.2414931331e+02   1.6284820832e+01    0.2566325    0.1869938  47.41 0.0002330619    1.259    0.206
       145 -10.7899     86.7476    198.3400   1.2972108528e+02   2.2659187155e+01    0.5939941    0.1887311 -64.76   0.00144215    3.647    0.726
       146 -11.5530    101.1181    199.5979   1.2669860418e+02   2.0063252270e+01    0.4324231    0.4017295 -88.34  0.002635802    1.088    0.081
       147 -11.9904    108.6486    196.8012   1.2457919473e+02   1.9397338063e+01    0.5344612    0.3343988  59.69 0.0007952616    1.696    0.410
       148 -10.6104     91.6923    199.7163   1.2881594579e+02   2.1575609201e+01    0.4532413    0.2944937 -19.69  0.001801719    3.624    0.724
       149 -10.2653    137.3797    203.8675   1.1930447573e+02   1.2731156632e+01    0.1868675    0.1730904 -71.68 0.0005505873    1.151    0.131
       150  -9.6921    105.3277    204.3083   1.2646158577e+02   1.8337235664e+01    0.1299589    0.1109454  -9.40 0.0001798284    1.658    0.397
       151  -9.3728    235.2852    203.2962   9.9023473102e+01  -5.1980235706e+00    0.1320981   0.09271932   1.04 0.0002155945    1.546    0.353
       152 -12.4374    205.7724    197.6806   1.0361547544e+02   9.3974560290e-01    0.5549542    0.4273907  81.14  0.001642258    2.173    0.540
       153 -10.8746    170.6055    198.8116   1.1114710372e+02   7.4204320613e+00    0.5772274    0.2884292 -55.39  0.002309453    2.556    0.609
       154 -12.0472    242.4044    199.8371   9.7056340523e+01  -5.8278744533e+00    0.4698056    0.2809405  39.57  0.002473939    1.700    0.412
       155  -9.8614    160.9335    200.0510   1.1346773916e+02   9.0421162783e+00    0.1683009    0.1599508  40.76 0.0004172306    1.030    0.029
       156 -10.1825     76.1771    198.9588   1.3213857710e+02   2.4124988556e+01    0.2369501    0.1626805 -88.77 0.0005245263    1.497    0.332
       157 -10.4858    177.8522    199.0157   1.0963724616e+02   5.9843277360e+00    0.2398314    0.1872429  37.74 0.0003312498    1.191    0.161
       158 -11.2029    224.4092    196.9650   9.9834987036e+01  -2.3068279749e+00    0.3210976    0.1932937 -29.18 0.0009421676    1.698    0.411
       159 -11.3145    139.6440    195.4487   1.1735172329e+02   1.4054649185e+01    0.4958869    0.2330506 -41.32  0.001671442    2.573    0.611
       160 -10.2960    116.7959    198.1187   1.2294994528e+02   1.7685714442e+01    0.2077659    0.1751068  74.71 0.0003558787    1.187    0.158
       161 -10.6491    241.6983    192.7021   9.5791587786e+01  -4.5791752664e+00    0.1946719    0.1227495 -32.18  0.000266111    1.497    0.332
       162 -10.7867    250.5366    194.4693   9.4566419883e+01  -6.3070941697e+00     0.209421    0.1687408 -17.04 0.0005200259    1.098    0.089
       163 -13.1494    246.2028    190.8089   9.4613254200e+01  -5.0250551394e+00    0.5624553    0.3854836   1.85 0.0005702241    1.664    0.399
       164 -11.3067    178.2346    193.4189   1.0848852558e+02   6.9819497752e+00    0.3413084    0.2119463 -51.61 0.0005609803    1.823    0.452
       165 -11.5426     67.7306    184.7357   1.3213538035e+02   2.8536206794e+01    0.3802442    0.2241223 -62.93  0.001180684    1.589    0.371
       166 -11.8508     71.6588    194.9336   1.3260917182e+02   2.5676888164e+01    0.2247482     0.215193  56.50  0.000500056    1.227    0.185
       167 -12.2320     69.4379    191.1572   1.3260870181e+02   2.6840505286e+01    0.4300281    0.2270534 -58.13  0.001255687    1.837    0.456
       168 -12.2971     66.1925    190.6028   1.3326165026e+02   2.7419721933e+01    0.3781111    0.2842243 -35.51  0.001142357    1.860    0.462
       169 -10.3635    233.4929    193.4493   9.7438062638e+01  -3.3070073431e+00    0.2115789    0.1221758 -46.73 0.0004854483    1.977    0.494
       170 -10.2371    228.8625    194.0178   9.8413673460e+01  -2.5971355013e+00    0.2845746    0.1906247  68.65  0.001235023    2.983    0.665
       171 -10.8991    113.6774    194.0670   1.2300165860e+02   1.9118042288e+01    0.2486147    0.1954778  40.79  0.000370386    1.254    0.203
       172 -12.3584    213.8262    191.3187   1.0076638184e+02   5.6884663020e-01    0.6447404    0.3578056  28.54  0.001698967    2.020    0.505
       173 -10.6937    163.8272    192.6835   1.1146762896e+02   9.9478185063e+00    0.3600932     0.229422  21.41 0.0009404129    2.067    0.516
       174 -10.8589    164.2637    188.6168   1.1059440571e+02   1.0681555237e+01    0.3337635    0.2646843  31.78 0.0007936183    1.250    0.200
       175 -11.1913    154.6966    192.3975   1.1343096590e+02   1.1791415988e+01    0.2924883    0.2643311  26.54 0.0009332236    1.122    0.108
       176 -11.3490    149.2538    191.3626   1.1445500311e+02   1.3064315191e+01     0.312516    0.2568339  19.93 0.0007376038    1.369    0.270
       177 -11.8703     71.9444    169.6854   1.2895767221e+02   3.1416037156e+01     0.365283    0.2767975  42.16  0.000569253    1.377    0.274
       178 -11.4329     86.1326    191.2551   1.2885238393e+02   2.4334851293e+01    0.6987225    0.3289941  59.91  0.002618172    2.764    0.638
       179 -12.0799     76.8460    174.0628   1.2845013031e+02   2.9683193745e+01    0.8787642    0.2406068  40.67   0.00303497    3.437    0.709
       180 -10.2975     77.9604    188.2969   1.3029159973e+02   2.6249337824e+01    0.2138008    0.1712522 -64.47 0.0003521613    1.230    0.187
       181 -12.9652     74.3073    180.4471   1.3000953935e+02   2.8580503825e+01     0.811101    0.4659231 -83.05   0.00188724    2.103    0.524
       182 -12.5301     96.3355    202.7338   1.2821708959e+02   2.0167699882e+01    0.4475072    0.3079264  74.23  0.000742928    1.596    0.373
       183 -10.1575    126.7669    190.9839   1.1949107948e+02   1.7421853904e+01    0.1957062    0.1829007 -79.47  0.001113121    1.093    0.085
       184 -11.8509    130.5372    188.8822   1.1825704736e+02   1.7174049389e+01    0.5388667    0.2637945  51.85  0.000369873    2.158    0.537
       185 -11.3637    119.7856    189.8337   1.2089688846e+02   1.8952991450e+01    0.3596042    0.3130458 -38.03  0.001572004    1.324    0.245
       186 -10.4772     33.6923    190.5466   1.4031595220e+02   3.1464509359e+01    0.2179106    0.1214471 -63.26 0.0009944022    1.633    0.388
       187  -9.9712     91.4832    189.9087   1.2743049473e+02   2.3790823199e+01    0.1903215    0.1304197 -61.54 0.0003646818    1.446    0.309
       188 -10.9030    196.9771    186.3440   1.0315670830e+02   4.6677677127e+00    0.5397196    0.2456204  34.02            0    2.437    0.590
       189 -11.3849    105.4375    187.4722   1.2382382098e+02   2.2016246313e+01    0.3408748    0.2895391 -47.64  0.001718962    1.303    0.233
       190 -11.8198    104.0235    178.0815   1.2258487090e+02   2.4385594517e+01    0.3165545    0.2437619 -59.69  0.000430711    1.296    0.228
       191 -12.1228    103.4993    182.0614   1.2338390304e+02   2.3569750719e+01    0.3490979    0.2685042 -79.37 0.0009156209    1.372    0.271
       192 -11.6831    107.4752    180.6610   1.2220572417e+02   2.3198355129e+01    0.4239002     0.248596 -41.96  0.001866416    2.038    0.509
       193 -11.9963     51.1390    162.9502   1.3302180104e+02   3.5737262345e+01    0.5279087    0.3346194  86.20  0.002629973    1.780    0.438
       194 -11.5966     56.7676    168.2111   1.3240772697e+02   3.3813549261e+01    0.3777203    0.2889152  53.84  0.001167898    1.329    0.247
       195 -11.6063     55.9538    181.3975   1.3438184793e+02   3.0876619394e+01    0.2574571    0.2076074  77.29 0.0003373248    1.141    0.123
       196 -11.2653     54.6059    175.3855   1.3390546578e+02   3.2427271347e+01    0.3474474     0.272432 -62.76  0.001373961    1.224    0.183
       197 -11.4093     51.9751    171.7851   1.3404032158e+02   3.3585834017e+01    0.4265657    0.2518251  60.13  0.001050213    1.844    0.458
       198 -11.2233     60.3570    186.9691   1.3410060177e+02   2.9033418841e+01    0.2378339    0.2028048 -50.70 0.0003801885    1.369    0.269
       199 -11.6212     61.5903    181.2182   1.3306839307e+02   3.0179433791e+01      0.48728     0.335824 -56.11  0.001739484    1.458    0.314
       200 -11.6853     66.9997    172.7284   1.3060826972e+02   3.1403209586e+01     0.631384    0.2084129 -62.57  0.002365868    2.827    0.646
       201 -12.9490     62.7740    170.1649   1.3124576894e+02   3.2574165156e+01    0.4107172    0.2989933 -83.72  0.000485501    1.336    0.251
       202 -10.3487    233.7912    186.0082   9.5902030647e+01  -2.1235528352e+00    0.1883779     0.163332 -12.51 0.0003795269    1.050    0.048
       203 -11.1757     32.7848    184.9242   1.3992699925e+02   3.2811349946e+01    0.3263315    0.2291761  24.79  0.001845476    1.882    0.469
       204 -10.8737    176.4795    184.3133   1.0707800832e+02   9.1117704091e+00    0.3324486    0.2464029   1.26  0.001555415    1.794    0.443
       205 -10.5767     90.5251    184.5470   1.2683323956e+02   2.5158233108e+01    0.2900224    0.1875921  45.52 0.0007563269    1.499    0.333
       206 -11.4090     92.5835    180.9747   1.2578664123e+02   2.5641549829e+01     0.315021    0.2652999   0.93 0.0004236138    1.641    0.391
       207 -11.3951     94.4671    177.4868   1.2477106481e+02   2.6133972947e+01    0.2919447    0.1947056  62.87 0.0009770765    1.641    0.391
       208  -9.9804    225.6633    184.0480   9.7023629447e+01  -3.3599419515e-01    0.2047895    0.1419868  15.35 0.0005427632    1.661    0.398
       209 -10.6841    158.5860    183.1082   1.1078704786e+02   1.2942015970e+01    0.4413718    0.3103158  89.87  0.001672788    2.280    0.561
       210  -9.8316    154.4740    181.5288   1.1140544688e+02   1.4094387672e+01    0.2137189    0.1456956 -58.86 0.0009775429    1.666    0.400
       211  -9.6561    140.3135    184.3157   1.1517522634e+02   1.6292798395e+01    0.1461107    0.1181424  -2.70 0.0007034816    1.642    0.391
       212 -11.6394    122.7706    183.4926   1.1909720249e+02   1.9804913857e+01    0.2778277    0.2413283  89.54 0.0004662526    1.201    0.167
       213 -11.3474      2.1618    182.7905   1.4609042142e+02   3.6180929289e+01    0.2484325    0.1981268  46.66   0.00134742    1.437    0.304
       214 -10.4145      1.3064    179.1570   1.4596924122e+02   3.7032958254e+01    0.1644037   0.08587789 -76.03 0.0002425311    1.498    0.332
       215 -10.4941    230.9417    181.8241   9.5583807760e+01  -9.0823474366e-01    0.2582158    0.1799882 -60.88  0.001245399    2.125    0.529
       216  -9.3811    220.3110    182.3335   9.7695320550e+01   9.4750401900e-01    0.1454591    0.1043164   0.44 0.0007043796    1.677    0.404
       217 -10.2789    190.7260    180.6193   1.0329267868e+02   6.9857660664e+00    0.2653504    0.1824035  51.75  0.001259208    1.552    0.356
       218 -10.7349     82.8764    180.5672   1.2801482711e+02   2.7270020416e+01     0.295945    0.2004122  76.17 0.0008192617    1.693    0.409
       219 -10.1820      7.9530    183.1045   1.4494862806e+02   3.5623588526e+01    0.1721072    0.1333548 -33.27 0.0004911683    1.909    0.476
       220 -11.3105     46.9623    182.0596   1.3649460311e+02   3.1842069979e+01     0.559107    0.1831665 -55.32  0.002267487    2.890    0.654
       221 -11.1692     42.8887    179.1623   1.3706172523e+02   3.2980005890e+01    0.2767102    0.2222699  65.34  0.001128075    1.195    0.163
       222  -9.8737     35.8761    165.1892   1.3697243906e+02   3.6951209575e+01    0.1643609    0.1453951  84.27 0.0002685552    1.096    0.088
       223 -11.2785     31.4097    169.6485   1.3854316936e+02   3.6399088190e+01    0.3829908    0.2983958 -80.04  0.001876803    1.066    0.062
       224 -11.2137     27.2657    179.1151   1.4051003749e+02   3.4686871247e+01    0.2642565    0.2326443  75.16  0.001590898    1.155    0.134
       225 -11.3310     31.0537    175.4055   1.3927713229e+02   3.5131230496e+01    0.2864535    0.2269815  75.84   0.00107531    1.160    0.138
       226 -10.9256     24.6508    172.0803   1.4033854049e+02   3.6525635973e+01    0.2984054    0.2274715 -20.00  0.001836791    2.019    0.505
       227 -10.6990     24.4767    167.9942   1.3993143896e+02   3.7463968267e+01    0.3172538    0.2139521 -46.50  0.001851025    1.711    0.416
       228 -10.5646    130.5366    177.1887   1.1611163595e+02   1.9738862750e+01     0.489399    0.2479565 -69.87  0.001355121    3.510    0.715
       229 -10.0326     87.8270    179.1786   1.2662786084e+02   2.6816844941e+01      0.18132    0.1586506 -46.64 0.0004282169    1.287    0.223
       230 -10.4044    247.0278    178.5248   9.2017446083e+01  -3.1735303093e+00    0.1832596     0.128031  37.81 0.0003404392    1.497    0.332
       231  -9.9795    163.4141    178.2549   1.0873932077e+02   1.2977920920e+01    0.2029392    0.1444991 -58.99 0.0009407987    1.612    0.379
       232 -11.3596      3.0662    167.7514   1.4462415949e+02   3.9375407169e+01    0.2487019    0.1807038 -55.76  0.001372365    1.443    0.307
       233 -11.6681      9.1473    177.1532   1.4418375431e+02   3.6817081880e+01    0.2947944     0.164674  49.26  0.001475526    1.821    0.451
       234 -11.8872      3.0014    173.9587   1.4518548001e+02   3.8023956483e+01    0.5598521    0.2403098  64.88   0.00274074    2.710    0.631
       235 -10.5344    221.9750    176.3355   9.6144458551e+01   1.6986611212e+00    0.2164382    0.1900902 -44.02 0.0003934079    1.225    0.183
       236 -12.2369    173.0530    172.8612   1.0548991640e+02   1.2118738382e+01    0.6034474    0.4244165 -19.97  0.002196985    1.841    0.457
       237 -11.1374    136.6024    176.4607   1.1454409940e+02   1.8724938803e+01    0.2742515      0.17847 -48.56 0.0006829549    1.595    0.373
       238 -10.4461    194.9306    174.2302   1.0109143677e+02   7.3748748640e+00     0.351722    0.2022657 -50.81 0.0009485743    1.963    0.491
       239 -11.1582    167.0089    175.0293   1.0727916352e+02   1.2914001496e+01    0.2305562    0.2097058   8.97 0.0007019824    1.167    0.143
       240 -10.3195     16.6216    174.4395   1.4234101623e+02   3.6754595180e+01    0.1989511    0.1367509  66.84 0.0005821707    1.403    0.287
       241  -9.8823    203.9497    174.5392   9.9308827693e+01   5.5125113602e+00    0.2061074    0.1390865  40.90 0.0003205676    1.464    0.317
       242 -10.2762    143.8014    174.1705   1.1240956731e+02   1.7804305634e+01    0.2050426    0.1815138  -1.19 0.0007574853    1.325    0.245
       243 -11.0631    237.8697    173.0640   9.2526324896e+01  -6.5479615759e-01    0.2122201    0.1895024  23.18 0.0002950493    1.138    0.121
       244 -11.5601    156.0559    172.2712   1.0919045243e+02   1.5736512081e+01    0.3603993    0.2573928  50.22  0.001079142    1.391    0.281
       245  -9.6482    115.6458    173.1904   1.1891918852e+02   2.3432999915e+01    0.2104201    0.1317955 -45.54 0.0009442166    1.709    0.415
       246 -11.7704     87.4059    171.7465   1.2552573513e+02   2.8602738012e+01    0.4131434    0.2607746 -74.25  0.001952262    1.730    0.422
       247 -10.4547     90.4948    167.5366   1.2405581843e+02   2.9088617039e+01    0.2093066    0.1261167 -48.36 0.0005396488    1.722    0.419
       248 -10.8600     19.8190    170.5218   1.4124556902e+02   3.7334762739e+01    0.3152685    0.1559519 -70.59  0.001698748    1.651    0.394
       249  -9.9234    106.5416    172.4670   1.2099227012e+02   2.5233042853e+01    0.1451781    0.1352219  80.53 0.0001292236    1.016    0.016
       250 -10.0120     36.5071    172.5171   1.3771694707e+02   3.5207506077e+01    0.1265459    0.1045916 -86.46 0.0003205172    1.013    0.013
       251  -9.8097    208.2143    171.1494   9.7740908723e+01   5.3033297204e+00    0.1830831    0.1688823  74.14 0.0002947648    1.295    0.228
       252 -10.0580    100.9674    170.2377   1.2195344244e+02   2.6715176181e+01    0.1843415    0.1183474  41.76 0.0005867173    1.552    0.356
       253 -10.6075     93.6221    170.2075   1.2374740930e+02   2.7956292078e+01    0.1906149    0.1269177 -50.35 0.0003232689    1.532    0.347
       254 -10.6191     13.0799    169.8515   1.4265840859e+02   3.8088611199e+01    0.2867401    0.1662184  17.65  0.001617797    2.540    0.606
       255 -11.3320    135.5969    168.8795   1.1329137980e+02   2.0600097021e+01    0.3052813    0.2506227  22.11 0.0006591671    1.393    0.282
       256 -10.1687    108.4975    168.9562   1.1987593688e+02   2.5694397588e+01    0.2092432    0.1417419 -57.63 0.0003940006    1.474    0.321
       257 -10.1080    194.0434    168.4275   1.0004897594e+02   8.6821202300e+00    0.2312924    0.1419172  43.75  0.001028653    1.611    0.379
       258 -13.2529      9.4912    164.8728   1.4295572556e+02   3.9497260168e+01    0.3353473    0.1929816 -63.73  0.001117949    1.462    0.316
       259 -10.4751    185.7964    165.8875   1.0124421222e+02   1.0889535642e+01    0.3804215    0.1740036 -55.66 0.0008384258    3.148    0.682
       260 -11.5536     40.8277    166.3824   1.3595772325e+02   3.6138934992e+01    0.2594024    0.2131972 -69.53  0.001268848    1.107    0.097
       261  -9.8326     80.9808    166.5136   1.2623401170e+02   3.0822598280e+01    0.2056262    0.1363014  38.92 0.0008684575    1.571    0.363
       262 -10.4832    202.6684    163.1013   9.7133676307e+01   7.9467958279e+00    0.3961627    0.1782174 -43.29  0.001531984    2.222    0.550
       263  -9.9476    159.2731    164.3601   1.0680012348e+02   1.6761337164e+01    0.1539496    0.1207812  -8.58 0.0004941414    1.654    0.395
       264  -9.9251    123.5375    163.9808   1.1522967496e+02   2.4051970356e+01    0.2236068    0.1464695 -51.77 0.0006407187    1.542    0.351
       265 -10.5829    104.8128    163.9532   1.1985521045e+02   2.7503929428e+01    0.2402267    0.2112067  52.34 0.0004925297    1.127    0.112
       266 -11.2594    100.6131    162.7673   1.2068240548e+02   2.8510874248e+01    0.3744612    0.3383121  55.32  0.002098005    1.100    0.091
       267 -10.6584     87.1853    162.6496   1.2402855712e+02   3.0762547282e+01     0.246639    0.1842774 -73.16 0.0005875182    1.345    0.257
       268 -12.3622     34.1234    158.4772   1.3653806116e+02   3.8676998101e+01    0.3702762    0.2584838 -79.44 0.0003820792    1.262    0.207
       269 -10.8457    224.1684    161.0770   9.2518617319e+01   4.0235893597e+00    0.2438959    0.2101102  67.45 0.0008643481    1.424    0.298
       270 -10.7491     18.4811    160.7622   1.4049841484e+02   3.9650948704e+01    0.1737468    0.1601529  67.79 0.0004271901    1.230    0.187
       271 -12.7778    107.1950    157.8898   1.1809367447e+02   2.8489011407e+01    0.4139975    0.3019289 -72.99 0.0006199364    1.522    0.343
       272  -9.4942    196.2959    159.3428   9.7616688632e+01   9.9955182928e+00    0.1532116    0.1166238  -1.00 0.0007032311    1.664    0.399
       273 -11.5031    140.9260    157.5630   1.0966771557e+02   2.2047962109e+01    0.4619608    0.2626444  65.30 0.0008886543    2.788    0.641
       274  -9.8353     66.1491    158.1791   1.2857262951e+02   3.4923095314e+01    0.1876879    0.1489974  78.49  0.000427127    1.305    0.234
       275 -10.1357     11.4900    157.9563   1.4179920754e+02   4.0875952859e+01    0.1750794   0.09409089 -70.53 0.0003509829    1.477    0.323
       276 -10.4043    209.8053    157.1681   9.4421118576e+01   7.6186825452e+00    0.2104897    0.2011032 -84.07 0.0004685798    1.188    0.158
       277 -10.3799     24.8687    157.2852   1.3860270364e+02   3.9858183345e+01    0.1573728    0.1393425  85.83 0.0005448908    1.119    0.106
       278 -10.0995    183.6182    155.7298   9.9490171797e+01   1.3400651154e+01    0.1570069    0.1180871  12.56 0.0006993419    1.697    0.411
       279  -9.7626    176.0490    154.9987   1.0097588194e+02   1.5173842746e+01    0.1766375    0.1742181 -13.11 0.0009547992    1.019    0.019
       280 -10.7805    113.4218    154.5254   1.1584346338e+02   2.8132203346e+01    0.3367883    0.2552195  83.53  0.000559773    1.638    0.389
       281  -9.9787     93.2240    154.9628   1.2109145045e+02   3.1585991409e+01    0.1925082    0.1147232 -57.96  0.000450857    1.624    0.384
       282 -10.7977     85.1306    154.9889   1.2317790314e+02   3.2887309975e+01    0.3461063     0.204372  28.68   0.00104804    2.029    0.507
       283 -10.5737     44.7560    154.6564   1.3340803327e+02   3.8415294698e+01    0.2147216    0.1485492 -59.46 0.0005363501    1.293    0.226
       284 -12.9874     18.9268    153.7785   1.3959700099e+02   4.1191110032e+01    0.3131965    0.2606234 -50.98 0.0007629718    1.305    0.234
       285  -9.8007    180.3156    154.3455   9.9896021226e+01   1.4391420012e+01    0.1582763    0.1211386   0.60 0.0007047976    1.718    0.418
       286 -11.0271      1.8088    157.8230   1.4397320421e+02   4.1654317547e+01    0.2917476    0.1328077 -81.24 0.0007838035    1.903    0.475
       287 -10.6075    225.5321    151.8045   9.0267357536e+01   5.4438547505e+00    0.3995426    0.2198858 -56.35  0.001605284    2.483    0.597
       288 -11.1777    156.2875    152.2081   1.0484316800e+02   2.0007826981e+01    0.3300959    0.2361098  20.81  0.001172268    1.785    0.440
       289 -11.1782    249.1857    151.4117   8.6063321918e+01   1.0091173833e+00    0.2669823    0.1818494 -43.25 0.0007890867    1.384    0.278
       290 -11.0137    235.3172    151.9658   8.8546346238e+01   3.5047522525e+00    0.2020404     0.174213 -32.64 0.0005990207    1.076    0.071
       291 -10.4601    137.2730    151.5397   1.0925233459e+02   2.4141093455e+01    0.3714358    0.1504639  39.62  0.001052683    2.550    0.608
       292 -10.7310    104.2089    150.0506   1.1729086511e+02   3.0846924781e+01    0.3106433    0.1583305 -36.96  0.001148149    2.634    0.620
       293 -10.3407    187.7847    150.3322   9.7391555857e+01   1.3598194777e+01    0.2770232    0.1919161  35.77  0.001151262    1.515    0.340
       294 -10.1131    123.2609    150.2231   1.1245310111e+02   2.7246119902e+01    0.2020895    0.1724086  87.28 0.0003205769    1.309    0.236
       295 -11.7440    164.8938    147.0576   1.0168760910e+02   1.9256214552e+01    0.4810052    0.3906047  86.91  0.001164381    1.548    0.354
       296 -11.1006     92.1294    146.8831   1.1980856762e+02   3.3663197261e+01    0.2745782    0.2153201 -47.86 0.0007760401    1.266    0.210
       297 -10.7229     36.1176    147.3182   1.3452815561e+02   4.1048338447e+01     0.231274    0.1490806 -58.49 0.0009147721    1.350    0.259
       298 -10.4160     17.0442    146.5384   1.3918309572e+02   4.2991184977e+01    0.3210633    0.1918115 -29.30  0.001715504    2.454    0.592
       299 -10.8639     14.8549    143.3622   1.3933170791e+02   4.3887680927e+01    0.2315727    0.1619113 -84.11 0.0007604762    1.276    0.216
       300 -11.2839     52.9108    144.0951   1.2968326275e+02   3.9931270226e+01    0.3817964    0.1812684  43.06  0.001203207    2.277    0.561
       301 -10.5055     24.0202    139.0000   1.3645048379e+02   4.4109682159e+01    0.1938087    0.1296676 -31.35  0.001105095    1.892    0.471
       302 -10.3445     85.0685    143.9937   1.2110900460e+02   3.5483160607e+01    0.2108561    0.1914567 -84.83  0.001195469    1.094    0.086
       303  -9.9175    225.7958    142.7914   8.8246675449e+01   7.0392304002e+00    0.1849311    0.1654558 -70.89 0.0004023745    1.274    0.215
       304 -10.8477    106.5636    142.3495   1.1506651255e+02   3.2212851159e+01    0.3020631    0.1395116 -65.94 0.0009635191    3.398    0.706
       305 -10.7523    154.8528    147.6340   1.0415000686e+02   2.1306080156e+01    0.3543241    0.1727537 -33.59  0.001220108    2.702    0.630
       306  -9.7621    123.5337    142.5069   1.1069474705e+02   2.8952021850e+01    0.1521202    0.1467089  88.05 0.0001555485    1.039    0.037
       307 -10.3264     92.6498    142.5727   1.1880169500e+02   3.4586099219e+01    0.2606021    0.1451743  32.97 0.0007333603    1.994    0.499
       308 -11.8665     23.3317    144.5044   1.3736787565e+02   4.2914509113e+01    0.3449867    0.2390529  43.79  0.001347539    1.623    0.384
       309 -11.5884    132.3022    140.2898   1.0796724303e+02   2.7684601840e+01    0.3310421    0.2668141 -65.01 0.0009273217    1.344    0.256
       310 -10.3940     62.8838    140.7953   1.2645676460e+02   3.9448080554e+01    0.1930053    0.1703113 -46.30 0.0003120606    1.154    0.133
       311  -9.1941      3.4802    141.4699   1.4188978634e+02   4.5158169154e+01    0.1177262   0.09192836 -77.18 0.0002023326    1.026    0.025
       312 -11.0131     54.9507    139.1153   1.2829592264e+02   4.0848264492e+01      0.23644    0.1771996 -68.65  0.000793295    1.220    0.180
       313 -11.4534     35.8140    138.5432   1.3330971391e+02   4.3106659735e+01     0.230312    0.1810786 -64.75 0.0003014083    1.079    0.073
       314 -10.3538    128.2929    138.6513   1.0860640618e+02   2.8871197824e+01    0.1573213    0.1218692  89.58 0.0002587668    1.671    0.402
       315 -10.2477    180.3693    137.1869   9.5948641147e+01   1.7897156477e+01    0.2149161    0.1423002 -52.27 0.0005013873    1.613    0.380
       316 -12.0861     77.2863    135.3063   1.2148755894e+02   3.8712373622e+01    0.2666167    0.2432403 -45.10 0.0005107597    1.096    0.087
       317 -11.4144     76.4238    129.7587   1.2059055416e+02   4.0130831413e+01     0.369587    0.2500939 -45.25  0.001855088    1.431    0.301
       318 -11.5846     44.4861    135.9545   1.3058186052e+02   4.2796307468e+01    0.1784476    0.1701565 -81.21 -3.685105e-05    1.111    0.100
       319  -9.8751    121.7813    134.9972   1.0943910994e+02   3.1002001467e+01    0.2059243    0.1233064 -49.09 0.0008659234    1.658    0.397
       320  -9.9991     29.8756    134.8401   1.3431974238e+02   4.4531530873e+01    0.1611038    0.1319568  77.82            0    1.295    0.228
       321 -11.1814    195.9193    133.6501   9.1868510261e+01   1.5142111947e+01    0.2739271    0.2161732 -39.78 0.0005292803    1.251    0.201
       322 -10.6793    199.5316    130.9875   9.0523701739e+01   1.4861227017e+01    0.2516067    0.2102318  40.93  0.001282769    1.233    0.189
       323 -12.1109     45.3496    131.0930   1.2952046731e+02   4.3826520136e+01    0.6886999    0.3826748  -0.89  0.001969924    3.654    0.726
       324 -10.7104     23.0952    132.7485   1.3580822771e+02   4.5612927022e+01    0.3115342    0.1458473 -85.43  0.001316246    2.918    0.657
       325 -10.6480    143.4285    132.7844   1.0343524713e+02   2.7003553929e+01    0.2971759     0.240249  74.32 0.0006058858    1.465    0.318
       326 -10.2131    102.6376    131.3181   1.1368495333e+02   3.5465131681e+01    0.2385755    0.1806097  79.12  0.001117376    1.727    0.421
       327 -10.4919    147.0547    129.9681   1.0186907232e+02   2.6828118578e+01     0.227145    0.2210975  55.00 -0.001877172    1.021    0.020
       328 -10.9331    122.6501    129.0597   1.0781699951e+02   3.2162768566e+01    0.2681075    0.2228612  32.85 0.0004492209    1.256    0.204
       329 -11.5225     63.1022    122.5555   1.2288323101e+02   4.3655366491e+01    0.3361434    0.2275983  44.60  0.001458435    1.645    0.392
       330  -9.9606     69.8058    117.3512   1.1982517341e+02   4.3930329580e+01    0.3201748      0.17269 -51.81  0.001163354    1.675    0.403
       331 -10.5135     72.0391    124.3324   1.2068995467e+02   4.2021397715e+01    0.2506247    0.1902178 -61.61 0.0003647671    1.262    0.208
       332 -11.8351     68.5993    123.7714   1.2155600173e+02   4.2634363464e+01    0.4611504    0.2398641 -53.87  0.002098637    1.731    0.422
       333 -11.2638     62.5597    128.6006   1.2425337990e+02   4.2333882053e+01    0.2279872    0.1750996 -68.37  0.001106764    1.262    0.207
       334 -10.7278     35.2363    128.5281   1.3187582513e+02   4.5465961334e+01    0.2459262    0.1285842 -38.94  0.001175679    2.196    0.545
       335  -9.6161    156.5525    128.5420   9.9248114974e+01   2.5034241767e+01    0.1536666    0.1522385  69.71 0.0001241281    1.007    0.007
       336 -10.5887     28.9530    126.0295   1.3320229002e+02   4.6625899622e+01    0.2721276    0.1676799  37.94 0.0006534869    1.865    0.464
       337 -10.3397    191.6783    125.7255   9.0854493898e+01   1.7649526821e+01    0.2667495    0.2241812  52.36  0.001349196    1.205    0.170
       338 -10.0709    140.9541    125.0252   1.0215948116e+02   2.9222173627e+01    0.2149245     0.185791 -89.75 0.0003068414    1.340    0.254
       339 -10.4306    138.8440    121.6292   1.0184219313e+02   3.0409691819e+01    0.2475284     0.209562 -31.76 0.0006781817    1.241    0.194
       340 -10.2632     54.9958    124.6805   1.2563351255e+02   4.4191194773e+01    0.1744893    0.1674612 -42.34 0.0004411896    1.101    0.091
       341  -9.9279     20.0228    125.4990   1.3556742789e+02   4.7506966815e+01    0.1521786     0.121118  31.09 0.0005609745    1.512    0.339
       342 -10.0549      3.2718    124.5883   1.3992020091e+02   4.8911683591e+01    0.2005879    0.1220391 -83.86  0.001193991    1.559    0.358
       343 -10.4675    127.3336    123.6154   1.0527509422e+02   3.2414076474e+01    0.2317842    0.1839954  86.44 0.0005896142    1.625    0.385
       344 -10.0123    178.5541    123.4836   9.3054504421e+01   2.1086616333e+01    0.1520915    0.1507453 -71.18 8.073539e-05    1.006    0.006
       345 -12.0477     14.1462    122.4928   1.3672420434e+02   4.8632640640e+01    0.2171266    0.1664241 -61.79 0.0002664853    1.057    0.054
       346 -11.6825     19.0421    118.8108   1.3481441079e+02   4.9083716372e+01    0.3714474    0.2359057  24.73  0.002226333    1.909    0.476
       347 -11.1690     83.6762    119.6888   1.1632821675e+02   4.1328052064e+01    0.3596953    0.2991176  61.12  0.001320084    1.376    0.273
       348 -11.2965     57.9632    120.7396   1.2399758653e+02   4.4729234519e+01    0.2369846    0.1738376 -58.42 0.0005359323    1.228    0.186
       349 -11.8834     31.6461    119.7922   1.3140965504e+02   4.7792958465e+01    0.2521941    0.2265382  52.60 0.0001124632    1.292    0.226
       350 -10.7875     92.9032    118.2843   1.1336322075e+02   4.0127754983e+01    0.3386408      0.22083 -56.77  0.001585233    1.552    0.356
       351  -9.9396     46.0060    119.4742   1.2721799434e+02   4.6418160338e+01    0.1643213    0.1309647  27.29 7.076826e-06    1.440    0.306
       352 -10.2740     14.5379    115.5405   1.3557159362e+02   5.0148516759e+01    0.1728685    0.1322944  80.24 3.259433e-05    1.487    0.328
       353  -9.7188    105.5371    119.9827   1.1023058435e+02   3.7499952995e+01    0.2181589    0.1225596 -28.98 0.0008089984    2.549    0.608
       354 -10.0404    156.1732    116.1334   9.6245054001e+01   2.7710882131e+01     0.206242    0.1814595  89.94 0.0002758953    1.283    0.221
       355 -10.0110     47.0025    115.2390   1.2610058609e+02   4.7267262014e+01    0.1704726    0.1635565 -56.64 0.0003523965    1.100    0.091
       356 -11.3918     48.8894    111.9790   1.2487864844e+02   4.7788993354e+01     0.229412    0.1871176 -41.90 0.0003011861    1.135    0.119
       357  -9.7281    125.9968    114.4795   1.0332814716e+02   3.4671971643e+01    0.2010213    0.1340211  70.05 -0.0001112159    2.201    0.546
       358 -10.8169     87.8451    113.7105   1.1371804859e+02   4.1996194952e+01    0.2405148    0.1807754 -40.61 0.0003241147    1.291    0.225
       359 -11.3039     62.0403    113.9071   1.2136059851e+02   4.5758338261e+01    0.3037747    0.2462058  12.08  0.001740868    1.422    0.297
       360 -10.8235     33.8526    113.8463   1.2971110409e+02   4.8924166856e+01    0.2950682    0.1752706 -49.78  0.001618108    1.439    0.305
       361 -11.0965     95.3140    111.4515   1.1100841115e+02   4.1227759524e+01    0.3656599    0.1694999 -57.44  0.001292244    2.533    0.605
       362 -10.7084     73.1570    111.5133   1.1751146562e+02   4.4762661319e+01    0.3955464    0.1758394  41.37  0.001632903    2.447    0.591
       363 -11.5399     21.4137    109.6495   1.3262181039e+02   5.0930494863e+01    0.2714573    0.1898937 -39.31 0.0008176768    1.385    0.278
       364 -10.3953      1.4649    110.5027   1.3850163935e+02   5.2101617632e+01    0.1175612   0.09003379 -61.64 3.342486e-05    1.020    0.020
       365  -9.8657     85.1928    109.4105   1.1344414125e+02   4.3378988103e+01    0.1854594    0.1335088  49.20 0.0003921869    1.559    0.359
       366  -9.8824     36.9944    108.4625   1.2774909225e+02   4.9822411587e+01    0.1661849    0.1263717  25.21 0.0003867184    1.525    0.344
       367 -11.1022     27.1166    107.7817   1.3059293840e+02   5.0874436030e+01    0.2025151    0.1384887 -60.28 0.0003300963    1.223    0.183
       368 -10.7083     28.9527    103.8204   1.2928839487e+02   5.1585446027e+01     0.225766    0.1474238 -48.21 0.0003720754    1.289    0.224
       369 -11.1934     45.2010    106.9862   1.2495465767e+02   4.9306891359e+01    0.3086635    0.1358269  20.58  0.001308771    3.030    0.670
       370 -10.7761     91.9429    105.7149   1.1053514064e+02   4.3058265579e+01    0.2649878    0.2106812 -89.28  0.001320157    1.719    0.418
       371 -10.2553    106.0255    104.3326   1.0612475633e+02   4.0810539169e+01    0.2010185    0.1881889  28.52 0.0004144562    1.080    0.074
       372 -11.8722    233.9081    102.5197   7.7895578251e+01   1.2548269556e+01    0.2482887    0.2426042 -79.06 0.0003700731    1.084    0.078
       373 -10.5896    167.0000    102.7040   9.0326381603e+01   2.7878058053e+01    0.2971587    0.2037157  37.22  0.001318394    1.589    0.371
       374 -11.7317     75.8015    102.1254   1.1444448242e+02   4.6429233745e+01    0.3727736    0.2546178   2.47  0.001509994    2.010    0.502
       375 -10.3837      2.4924    101.9696   1.3693079475e+02   5.3879801665e+01    0.1616922    0.1453265 -46.82 0.0007465117    1.176    0.150
       376 -10.6575    135.4426    101.1587   9.7373028789e+01   3.5413726776e+01    0.2653144    0.2144365  45.04 0.0004484401    1.221    0.181
       377 -10.4607     67.2927     99.6687   1.1644839053e+02   4.8186260436e+01    0.3672504      0.17072 -56.73  0.001543563    2.212    0.548
       378 -10.6333     45.9052    101.1068   1.2346902136e+02   5.0519585720e+01    0.2380197    0.1638009  31.54   0.00100363    1.638    0.390
       379 -10.8604     25.3453    100.3210   1.2972129910e+02   5.2651865635e+01    0.2118375    0.1858986 -61.82 0.0005989778    1.114    0.103
       380 -11.0479     85.1618     99.6795   1.1098421349e+02   4.5483223882e+01     0.326784     0.191116 -40.63 0.0006549805    1.659    0.397
       381 -10.5421     88.2163     95.5598   1.0897151390e+02   4.5838768322e+01    0.2362269    0.1779653  12.50 0.0007291409    1.541    0.351
       382 -11.8144     55.3637     97.2844   1.1960865381e+02   5.0252533790e+01    0.3188086    0.2272256 -71.82 0.0001305525    1.714    0.417
       383 -10.9058    106.1961     98.6528   1.0455370504e+02   4.1962956417e+01     0.226155    0.1862575  59.46 0.0007263802    1.393    0.282
       384 -10.6389     16.1258     98.8253   1.3228888556e+02   5.3682056243e+01    0.1706687    0.1415319 -68.56 0.0004517151    1.165    0.142
       385 -11.1686      9.3248     99.1597   1.3442792754e+02   5.4069057348e+01    0.1906846    0.1714072  29.30  0.001103899    1.386    0.278
       386  -9.6756    124.7842     97.9245   9.9253067281e+01   3.8363066992e+01     0.194195    0.1218216 -40.48 0.0002532548    1.611    0.379
       387 -11.7416      5.6996     94.5585   1.3474534475e+02   5.5269310039e+01     0.375184    0.1217273 -56.03 0.0006215877    2.132    0.531
       388 -10.0413    118.6694     96.8429   1.0059427181e+02   3.9855637647e+01    0.2294409    0.1816219 -22.90 0.0004256695    1.380    0.275
       389 -10.7323     47.5667     96.1030   1.2180886342e+02   5.1415373173e+01    0.3096504    0.1417813 -57.61   0.00110142    2.040    0.510
       390 -11.1417     32.6517     96.5698   1.2666713634e+02   5.2825763898e+01    0.2453807    0.1374068 -60.67 0.0007318087    1.599    0.375
       391 -10.9970     23.0490     95.9860   1.2958901830e+02   5.3769570181e+01    0.1725315    0.1383133  78.37 0.0004055718    1.605    0.377
       392 -11.6792     25.4781     92.0052   1.2800301990e+02   5.4419747956e+01    0.3778184     0.194711  -2.29  0.001777159    3.001    0.667
       393  -9.7677     79.4565     94.5268   1.1136076760e+02   4.7477824939e+01    0.1389792    0.1280276 -27.27 0.0001608339    1.004    0.004
       394  -9.8118    181.9422     93.7865   8.4898465485e+01   2.5999197283e+01    0.2028095    0.1196151  52.95 0.0008580759    1.664    0.399
       395  -9.8803    147.9608     96.0183   9.2900892665e+01   3.3605304324e+01    0.1762039    0.1747273  42.25 0.0009551106    1.014    0.014
       396 -10.4259    136.0150     92.0431   9.4728174390e+01   3.7074903752e+01     0.182893      0.17684  33.72 0.0004507382    1.008    0.008
       397 -10.5069    113.9354     91.0290   1.0026829032e+02   4.1975217251e+01    0.2175072    0.2129872   0.90 0.0003552733    1.035    0.034
       398 -11.3678     88.7035     88.5710   1.0690038513e+02   4.7178798661e+01    0.4347245    0.3112207  -2.65  0.001236782    1.782    0.439
       399 -10.2073    202.8217     89.1273   7.9848777441e+01   2.1867112069e+01    0.2187068    0.1879423 -76.95 0.0004212205    1.195    0.163
       400 -11.0974     64.2835     87.6031   1.1430131286e+02   5.1128093803e+01    0.4109096    0.2647884  53.19   0.00148855    2.162    0.538
       401 -10.2679     19.0647     88.8370   1.2942438621e+02   5.5586405796e+01    0.2024852    0.1387987 -25.34 0.0007952246    1.514    0.339
       402  -9.3329    162.6714     97.6953   8.9967775187e+01   2.9855836409e+01    0.1560916     0.121432  15.66 0.0003702845    1.651    0.394
       403 -10.3880     77.8871     87.8743   1.1004355051e+02   4.9085933553e+01    0.2722546    0.1719422 -32.53  0.000696847    1.615    0.381
       404 -10.2024     80.7813     84.6498   1.0823439314e+02   4.9271537448e+01    0.2284609    0.1833348  10.58 -0.0001541599    1.318    0.241
       405 -10.2416    180.6915     86.5989   8.3292888383e+01   2.7583852760e+01    0.2471244    0.1727194 -60.85 0.0006222017    1.644    0.392
       406 -10.3599    131.0100     86.7993   9.4520598258e+01   3.9176638772e+01    0.2202647    0.2142024  25.01            0    1.008    0.008
       407 -10.9615    127.5180     85.9120   9.5166879433e+01   4.0106073100e+01    0.2916937    0.2226362  44.05 0.0007784844    1.278    0.217
       408 -11.7245    119.1816     84.7629   9.7042818912e+01   4.2099588507e+01    0.3656866     0.271501 -84.78  0.001634991    2.142    0.533
       409 -10.6539    117.9985     80.9904   9.6264156841e+01   4.3047747694e+01    0.2216412    0.1817605 -80.23 0.0003525096    1.648    0.393
       410 -11.1816     27.7492     85.6048   1.2586875362e+02   5.5568718367e+01     0.280272    0.2031613  34.99  0.001676199    1.664    0.399
       411 -10.6412    155.0198     85.3459   8.8346877358e+01   3.3948260444e+01    0.2149258    0.1892972  50.29 0.0004482212    1.097    0.089
       412 -11.0857     53.5121     83.2907   1.1668779978e+02   5.3391511297e+01    0.3730309    0.2476107  55.74   0.00189441    2.287    0.563
       413 -10.7281     47.2962     85.6059   1.1935342778e+02   5.3645331017e+01    0.2292551     0.118487  32.80 0.0009757882    2.133    0.531
       414 -11.1043     85.4185     82.7179   1.0623933972e+02   4.8888364879e+01    0.2757467    0.2206803  56.50 0.0005795858    1.550    0.355
       415 -11.1734     20.4607     82.0385   1.2751538868e+02   5.6888190489e+01    0.2190913    0.1714123 -38.88 0.0004286025    1.079    0.073
       416 -10.3995     10.6776     85.6759   1.3152354445e+02   5.6821297133e+01    0.2215484    0.1624002 -22.31  0.001490689    1.423    0.297
       417 -11.0245    154.2159     79.2599   8.6843032481e+01   3.5215153688e+01    0.3185191    0.2149968 -50.19   0.00140454    1.619    0.382
       418 -10.5947     44.3741     81.0403   1.1916806368e+02   5.4895617146e+01    0.2366316    0.1781704  31.66 0.0008051546    1.507    0.337
       419 -10.6894    148.7764     78.5156   8.7861905599e+01   3.6626196579e+01    0.3099439    0.1904164 -44.29 0.0008785605    1.712    0.416
       420 -10.0877    130.1674     79.8249   9.2731166779e+01   4.0640992322e+01    0.2041719    0.1685492  21.40 0.0004727631    1.302    0.232
       421 -10.9839    113.4979     79.6554   9.7101141748e+01   4.4222927950e+01    0.2692136    0.2297877  44.92 0.0009643651    1.177    0.150
       422 -10.8104     94.0830     79.7347   1.0272471853e+02   4.7950460201e+01    0.2425626    0.1927596 -30.17 0.0002167645    1.227    0.185
       423 -10.3564     69.0108     78.9968   1.1038401945e+02   5.2178789169e+01    0.1934227    0.1671814  75.66 0.0005905381    1.641    0.390
       424 -10.7070     86.2962     78.0606   1.0460417418e+02   4.9631293522e+01    0.2336012    0.1936999  38.31 0.0002622259    1.262    0.208
       425 -10.8164      3.6276     77.9323   1.3232640794e+02   5.8821354799e+01    0.1892938    0.1679439 -40.97 0.0004902224    1.159    0.137
       426 -10.9039      1.5003     73.6503   1.3218600482e+02   5.9792942124e+01    0.2828839    0.1364387 -58.81  0.001114739    1.608    0.378
       427 -11.2603      4.6811     68.1644   1.2990657190e+02   6.0699111028e+01    0.3350811     0.194819 -28.90  0.002100518    1.621    0.383
       428 -10.1304    107.8838     77.4943   9.8028346790e+01   4.5748556046e+01    0.2073014    0.1380649  42.83 0.0005322694    1.479    0.324
       429 -12.1314     59.0928     74.5467   1.1240153271e+02   5.4408815932e+01    0.4138882    0.3083044  54.93 0.0009909758    1.903    0.475
       430 -11.3244     52.8962     74.7273   1.1456047921e+02   5.5160075010e+01    0.3338289    0.2491539 -33.85 0.0008942032    1.177    0.150
       431 -10.2799     48.4786     73.9873   1.1587225842e+02   5.5829103208e+01    0.1825285     0.160417   0.66 0.0003668937    1.151    0.131
       432 -10.3106     68.9951     74.0704   1.0895475441e+02   5.3123708317e+01    0.1938702    0.1768445 -24.62 0.0004669148    1.085    0.078
       433 -10.4125     29.0118     74.0655   1.2268811976e+02   5.7793244239e+01    0.1784868    0.1530427 -39.42 0.0005460462    1.085    0.078
       434 -10.2035     37.7581     72.4269   1.1918584005e+02   5.7291097628e+01    0.2177056    0.1701412  16.19 0.0007961447    1.381    0.276
       435 -10.3870     35.2591     70.6685   1.1959723258e+02   5.7878682622e+01    0.2805272    0.1346024 -46.66   0.00119651    1.727    0.421
       436 -10.2644     42.0765     71.1208   1.1730962691e+02   5.7095345047e+01    0.1879406    0.1395268 -24.07 0.0002844593    1.234    0.190
       437 -10.4361    106.7434     70.5243   9.6238767765e+01   4.7213630206e+01    0.2680065    0.1304752  39.52  0.001111366    2.043    0.511
       438 -11.6362     88.0645     69.0912   1.0133104830e+02   5.0964268595e+01    0.3686393    0.2212012  22.23  0.001332951    1.999    0.500
       439 -10.0256     53.0676     69.7012   1.1306063283e+02   5.6097013651e+01    0.1722911    0.1477465 -12.88 0.0002938804    1.062    0.059
       440 -11.6279    129.8757     67.7245   8.9233034996e+01   4.2786939448e+01    0.4202812    0.2589299  65.67 0.0005831073    2.076    0.518
       441 -10.6727     80.2235     68.3986   1.0358116616e+02   5.2418947176e+01    0.1840678    0.1252068  45.89 0.0006399216    1.652    0.395
       442 -10.7570     30.0659     68.0169   1.2074404310e+02   5.8875358787e+01     0.177813    0.1458598 -34.55 0.0003207098    1.032    0.031
       443 -10.0651     26.4494     67.7403   1.2197540481e+02   5.9245806589e+01    0.1847953    0.1423985 -22.59 0.0003243655    1.175    0.149
       444  -9.7738     74.9490     66.5292   1.0470311582e+02   5.3599796287e+01    0.1901547    0.1264879  33.93 0.0006530193    1.516    0.341
       445 -10.1401     15.1564     64.8818   1.2534976808e+02   6.0670469688e+01     0.206457    0.1311181 -19.05 0.0007436778    1.590    0.371
       446 -10.2915     16.3853     60.7643   1.2384184752e+02   6.1361587081e+01    0.2449504    0.1086924 -60.02  0.001220524    2.334    0.572
       447 -10.0912    148.4590     62.5343   8.3367011977e+01   3.9331935816e+01    0.1450622    0.1354976  47.90 0.0001414281    1.013    0.013
       448 -11.3659     78.3954     60.9181   1.0179887823e+02   5.4016979186e+01    0.3373795    0.2322953 -14.42  0.001447517    1.580    0.367
       449 -11.5909      5.7985     60.3805   1.2769272700e+02   6.2127063639e+01    0.2893282    0.2313333 -56.24 0.0009734083    1.257    0.204
       450 -10.4398      1.3465     61.3020   1.2955814524e+02   6.2200712593e+01    0.2174136    0.1402301 -27.90  0.001056924    1.396    0.284
       451 -10.1784     70.2325     61.0024   1.0451248791e+02   5.5294155919e+01    0.1772651     0.154649 -15.83  0.000387228    1.048    0.046
       452 -10.0160     31.4871     59.4667   1.1784040948e+02   6.0342826281e+01    0.1192283   0.09904574 -28.65 -3.072932e-05    1.057    0.054
       453 -10.7246    107.0160     57.4874   9.2065689177e+01   4.9303517326e+01    0.2531435     0.215779  54.68 0.0006192304    1.285    0.222
       454 -12.2450     19.6841     57.1815   1.2163291681e+02   6.1776685816e+01    0.2285185    0.2168268  -7.45 0.0008719543    1.309    0.236
       455 -12.0127     42.9340     53.1289   1.1163327170e+02   6.0274249734e+01    0.5026221    0.3581774 -72.34  0.001998184    2.788    0.641
       456  -9.8936     37.4921     57.4242   1.1499825179e+02   6.0115681767e+01    0.1211372   0.09968053 -22.35 3.017777e-05    1.020    0.019
       457 -11.5177     26.8192     55.0519   1.1830772866e+02   6.1567520273e+01    0.4110045    0.2411141 -26.70  0.002419599    1.575    0.365
       458 -10.3291    118.5803     55.4948   8.8334034693e+01   4.7189690712e+01    0.1401448    0.1276217  23.64 9.381432e-05    1.028    0.028
       459 -11.3590     93.0443     54.1622   9.5014096864e+01   5.2538487450e+01     0.305951    0.2231407  29.80 0.0003375699    1.304    0.233
       460 -10.6048     97.1458     53.4786   9.3574605954e+01   5.1867629949e+01     0.244014    0.1876606  11.91 0.0009168789    1.341    0.254
       461  -9.3906    218.7421     54.2864   6.9128977855e+01   2.3662501347e+01    0.1346718   0.09343733 -69.25 0.0006873047    1.483    0.326
       462 -11.4349     74.8920     52.9997   1.0033390820e+02   5.5885580776e+01    0.4160421    0.2419454  55.05  0.001781319    2.654    0.623
       463 -10.4724     60.6540     52.0819   1.0487091940e+02   5.8191282207e+01    0.1787788    0.1425581 -19.03 0.0004929973    1.105    0.095
       464 -11.0571     19.0235     49.7343   1.1975215528e+02   6.3163447657e+01    0.2526732    0.1963851 -15.78  0.001178296    1.138    0.121
       465 -12.6529     11.9263     49.2815   1.2241757650e+02   6.3768530661e+01    0.5111676    0.2334924 -35.80  0.002875571    1.808    0.447
       466 -11.3595     16.2259     47.3782   1.2015758472e+02   6.3791318171e+01     0.280903    0.1471349 -37.95 0.0009416593    1.509    0.337
       467 -10.4524     32.8814     51.0246   1.1476286649e+02   6.1705237001e+01    0.1977009    0.1588067 -54.43 0.0005665481    1.534    0.348
       468  -9.2207     82.3101     50.6575   9.7146894897e+01   5.5007846816e+01    0.1214079    0.1078447 -78.72 0.0007045042    1.697    0.411
       469 -10.2850    151.4638     49.5028   7.8966134313e+01   4.0530238857e+01    0.1417451    0.1298791  54.91 0.0001158707    1.005    0.005
       470 -10.0555     46.6209     48.7662   1.0883390480e+02   6.0573117605e+01    0.1590865    0.1066067 -45.91 0.0004412702    1.587    0.370
       471 -10.3795    196.0486     47.9517   7.0803905641e+01   2.9929535608e+01    0.2040385    0.1848145  85.19 0.0003223452    1.018    0.018
       472 -12.3079     61.8676     44.7028   1.0191695191e+02   5.9180045929e+01    0.3112061    0.2118837 -25.87 0.0003146436    1.361    0.265
       473 -11.6048     34.7851     44.7670   1.1200262921e+02   6.2563135586e+01    0.2167134    0.1954214  35.42 0.0006945825    1.541    0.351
       474 -10.8319     37.3769     40.2979   1.0947028745e+02   6.3001224489e+01    0.2178945     0.157738  -6.25 0.0006611061    1.228    0.186
       475 -10.2088      3.3195     46.2769   1.2500208406e+02   6.4845620276e+01    0.1144287   0.06155403 -29.83 0.0002019072    1.576    0.365
       476  -9.4767    185.4209     45.4773   7.1801490320e+01   3.2840701838e+01        0.138    0.1250643  81.01 0.0001000793    1.012    0.012
       477 -10.9804    164.1932     43.3187   7.4788732297e+01   3.8295335109e+01    0.2885213    0.2262515 -49.08  0.001452145    1.382    0.276
       478 -10.1446    115.2329     44.9970   8.5835135397e+01   4.9410109388e+01    0.1842621    0.1663985  15.01 0.0003699907    1.072    0.067
       479 -11.0026    199.3380     43.7205   6.9294250065e+01   2.9713640936e+01    0.2450571    0.2027029  87.43 0.0003821275    1.114    0.102
       480 -10.6350    140.1855     43.5253   7.9546778909e+01   4.4002650985e+01     0.234076    0.2092625  44.29  0.001374492    1.035    0.034
       481  -9.6536     80.2777     44.3439   9.5623063656e+01   5.6297824439e+01    0.1337885   0.09132285   3.34 0.0003969627    1.628    0.386
       482 -10.8314     26.0175     44.0620   1.1522343293e+02   6.3538252613e+01    0.1716704    0.1351942 -19.20 0.0003535999    1.029    0.029
       483 -10.7166     20.2502     41.7333   1.1678975204e+02   6.4430196925e+01    0.2633105    0.1532845 -45.98  0.001278637    1.539    0.350
       484 -10.7267     23.2752     38.6133   1.1453234133e+02   6.4678461277e+01    0.2447975    0.2069474  37.22  0.001766775    1.700    0.412
       485 -11.9131      9.6492     39.7679   1.2051907321e+02   6.5565977956e+01    0.3197366    0.2016847  -6.20  0.001666547    1.551    0.355
       486 -10.9599      3.6612     36.3275   1.2196605591e+02   6.6530464451e+01    0.1377937    0.1312476  79.26  0.001068384    1.709    0.415
       487  -9.8355    227.3577     38.8168   6.4621699288e+01   2.3819889181e+01    0.1624802    0.1228903 -26.89 0.0003474347    1.641    0.391
       488 -10.0652    186.6557     38.8194   6.9919566392e+01   3.3415248865e+01    0.1815121    0.1175192 -47.05  0.000212565    1.613    0.380
       489 -10.8431    175.0263     38.6945   7.1692756327e+01   3.6257185357e+01    0.3473186    0.2101713 -89.52  0.001415779    2.150    0.535
       490 -10.8762    166.3743     37.8938   7.2916745932e+01   3.8460815450e+01    0.2474484    0.1785126  58.09 0.0003321106    1.238    0.192
       491 -10.6073    239.5918     36.7889   6.2868690155e+01   2.1366386922e+01    0.1977448    0.1560414  72.36 0.0009764283    1.248    0.199
       492 -10.4185     41.5150     36.5429   1.0652878618e+02   6.3103014232e+01    0.2038321    0.1798736 -86.12  0.001039045    2.200    0.545
       493 -10.0361     30.3982     36.2120   1.1081229735e+02   6.4377098692e+01    0.2880619    0.2113414 -71.67  0.001568124    3.180    0.686
       494 -10.0741    129.2449     36.4440   7.9755988580e+01   4.7419891347e+01    0.1813992    0.1248263  65.76 0.0004913408    1.524    0.344
       495 -11.0947     60.7716     34.3053   9.8559084929e+01   6.0846502461e+01    0.2619715    0.1828673 -31.51 0.0007452295    1.428    0.300
       496 -10.4514     56.7430     33.3019   9.9625496590e+01   6.1573029405e+01    0.2981507    0.1713689  -6.08  0.001521791    2.142    0.533
       497  -9.5155     17.2949     35.3359   1.1590203551e+02   6.5716324226e+01    0.1193251   0.06571683 -23.01 0.0007028278    1.646    0.393
       498 -10.1621     92.0623     33.5441   8.8241848356e+01   5.5601299399e+01    0.1858153    0.1610974  -1.80 0.0003057713    1.124    0.110
       499 -11.7431     78.9903     33.2079   9.2064252185e+01   5.8038776470e+01     0.470539    0.2266009  38.98  0.002309805    1.899    0.473
       500 -10.0187    134.8827     32.8561   7.7424283656e+01   4.6559951395e+01    0.1790988    0.1488514  75.36 0.0002726763    1.293    0.227
       501  -9.5704    117.7497     33.0328   8.1314134575e+01   5.0388344622e+01    0.1532709    0.1140201 -25.28  0.000381689    1.469    0.319
       502 -10.0378    183.1907     31.7595   6.8640929230e+01   3.5130376446e+01    0.1772851    0.1452209  44.82 0.0004053591    1.326    0.246
       503 -10.7574    142.7435     31.3353   7.5371260440e+01   4.4906571002e+01    0.2247677    0.1617868  11.43 0.0007715269    1.772    0.436
       504 -11.0041    106.2402     32.0593   8.3850194388e+01   5.2952818395e+01      0.20713    0.1599784  21.98 0.0006448257    1.253    0.202
       505 -10.4313      3.8284     31.7616   1.2045729458e+02   6.7267745197e+01    0.3003557    0.1486429  39.11  0.001644812    3.379    0.704
       506 -10.0785    223.0105     31.4910   6.3516852448e+01   2.5748924081e+01    0.1848622    0.1141199  72.54  3.97071e-05    1.476    0.323
       507 -10.0053    206.0839     31.5199   6.5504980785e+01   2.9675898495e+01    0.1950277    0.1168786  69.54  0.000343748    1.500    0.333
       508 -10.9721     32.5400     28.3049   1.0706140260e+02   6.5328032704e+01    0.3245993    0.1694746 -51.90  0.001619154    3.095    0.677
       509  -9.6312     24.4651     30.5559   1.1123014627e+02   6.5822372575e+01    0.1172489    0.0840572 -15.37  9.73058e-05    1.108    0.097
       510 -10.0503     70.2774     29.0473   9.3341818681e+01   6.0044902309e+01    0.1761482    0.1462041  -0.46  0.001161186    1.078    0.073
       511 -11.6929    187.1963     27.1364   6.6913462953e+01   3.4709297872e+01    0.2585518    0.1962419  75.11 0.0004062146    1.161    0.139
       512 -10.7449    100.9972     26.1870   8.3196023108e+01   5.4703996427e+01    0.3134323     0.224884  16.76  0.001799605    1.432    0.301
       513 -10.9967     38.0441     26.8318   1.0427946362e+02   6.4909353193e+01    0.1614897    0.1421917   3.02 0.0006616021    1.301    0.231
       514 -11.0633      2.0056     25.7156   1.1925632380e+02   6.8340051508e+01    0.1930034    0.1283744 -31.40 0.0003904037    1.109    0.098
       515 -11.2631      8.9636     23.5201   1.1537708759e+02   6.8192937883e+01    0.1849782    0.1391959 -20.55 -4.857559e-05    1.060    0.057
       516 -11.3555      5.5290     23.5187   1.1691401091e+02   6.8441742253e+01    0.1925932     0.155756   1.22  0.000549647    1.306    0.234
       517  -9.9094     90.1900     24.3971   8.5506573769e+01   5.7036372268e+01    0.1680137    0.1134837  55.30 0.0006289398    1.598    0.374
       518 -10.3562     65.5290     24.0497   9.3032414463e+01   6.1427511014e+01    0.1748793    0.1095252 -24.34 0.0007513501    1.568    0.362
       519 -11.1722     17.9824     22.9566   1.1118640042e+02   6.7535045745e+01    0.2644359    0.1860852  11.71  0.001719221    1.349    0.259
       520 -10.8895     76.2291     27.5297   9.0846056943e+01   5.9224920632e+01    0.2152365     0.163121 -19.68 0.0007932727    1.315    0.240
       521  -9.9392    132.5148     22.4829   7.4711297119e+01   4.8250227017e+01    0.1329823    0.1148703  50.97 -1.100498e-05    1.008    0.008
       522  -9.9628    138.3374     21.3346   7.3222308788e+01   4.7025472181e+01    0.1778632    0.1319013  12.15 0.0008199901    1.633    0.388
       523 -10.4177    139.8742     18.1019   7.1963774363e+01   4.6993276247e+01    0.2466731    0.1998691 -84.32  0.001317451    1.430    0.301
       524 -10.8514     73.8955     20.4394   8.8906494131e+01   6.0447115793e+01    0.2145104      0.15648  -6.23 0.0005204437    1.320    0.243
       525 -10.5918     39.0847     20.8082   1.0150333979e+02   6.5584177665e+01    0.1638716    0.1409988   0.34  0.001003945    1.259    0.206
       526 -10.6482    181.9286     19.0251   6.5604828866e+01   3.6879097123e+01    0.2697122    0.1330236  47.61   0.00118371    2.141    0.533
       527 -11.9750    188.7594    246.5728   1.1560864241e+02  -4.1121518006e+00    0.4372855    0.2505353 -46.17  0.001248375    2.124    0.529
       528 -10.3377    191.8605    240.3794   1.1401604945e+02  -3.6860150062e+00    0.2155448    0.1504866   4.27  0.001021482    1.740    0.425
       529 -10.0837    200.3309     17.3023   6.2898969909e+01   3.2685139347e+01    0.1271737   0.08956554  45.82 0.0005335797    1.652    0.394
       530 -10.0023    157.9208     17.2694   6.8641884576e+01   4.2817854159e+01    0.1807015    0.1489576  62.22 0.0003277223    1.041    0.039
       531 -10.9680    131.7802     16.3607   7.2962766035e+01   4.9028568118e+01    0.3919033    0.1469122  48.44  0.001416973    2.240    0.554
       532 -12.2360    193.7070    232.8029   1.1240215923e+02  -2.8127764536e+00    0.9080693    0.4629759  27.42   0.00411341    2.139    0.533
       533 -10.4865     43.1660     16.2158   9.8033814730e+01   6.5630020106e+01    0.3066004    0.2019316  57.20  0.001594065    3.449    0.710
       534 -10.5450    178.8251    232.1922   1.1526827108e+02  -1.2390829779e-01     0.312984    0.1619654  35.52  0.001398224    1.748    0.428
       535 -12.7670    184.4065    240.0356   1.1542482352e+02  -2.3655155309e+00    0.2675214    0.2480308  26.37 0.0006724362    1.120    0.107
       536 -10.3814     25.6683     16.7087   1.0540201149e+02   6.7644100280e+01    0.1791505    0.1208411   3.04 0.0002678591    1.254    0.203
       537 -11.9311    182.0516    235.0240   1.1508373472e+02  -1.1547479251e+00    0.3022079    0.2266103  24.86 0.0006011618    1.258    0.205
       538 -12.0641    164.2414    244.9291   1.2016731877e+02   3.0688270843e-01    0.3716825    0.3567836 -58.52  0.001918531    1.255    0.203
       539  -9.8241     77.7559    248.3578   1.3738444309e+02   1.3769063264e+01    0.1225198   0.07591327  73.44 0.0006933321    1.595    0.373
       540 -11.3613    105.8115    246.7754   1.3190885947e+02   9.7869165908e+00    0.2266526    0.2078319 -58.61 0.0003585861    1.361    0.265
       541 -11.4930    108.9703    244.2689   1.3100230315e+02   9.7413370589e+00    0.2020414    0.1684489  57.73 0.0002991967    1.018    0.017
       542 -12.1037    139.9594    242.3747   1.2463104272e+02   4.9142549142e+00    0.3552592    0.3114224  83.77 0.0007952474    1.274    0.215
       543  -9.9096     96.5871     15.8012   8.0677201978e+01   5.6674397014e+01     0.155865    0.1145107 -33.15 0.0004392319    1.598    0.374
       544 -10.7887    147.1339    241.8140   1.2311889265e+02   3.7791051892e+00    0.2490808    0.2277917  -5.54  0.001553558    1.314    0.239
       545 -11.6103    144.0259    238.6287   1.2328861592e+02   4.8746349699e+00    0.3203869    0.2590586  55.62   0.00030269    1.161    0.139
       546 -10.3513     89.1691    244.2066   1.3481773518e+02   1.2855079686e+01     0.223687    0.1647482  56.50 0.0004333234    1.117    0.105
       547 -10.7688     85.4127    244.2655   1.3553847419e+02   1.3410272343e+01    0.2612883    0.1740902 -88.34 0.0009299958    1.585    0.369
       548 -12.5383     84.2630    238.5571   1.3515522187e+02   1.4675081561e+01    0.4161284    0.3238611  53.92  0.001359539    1.124    0.111
       549 -11.4182    174.8232    243.3355   1.1783442105e+02  -1.2502002143e+00    0.3047579    0.1998537 -50.29  0.001685385    1.872    0.466
       550 -10.0232     13.4783     14.4570   1.0987836460e+02   6.9113692854e+01    0.1083151   0.07910752 -12.87 4.835448e-05    1.020    0.019
       551 -10.7215     79.7292     14.4158   8.4821970888e+01   6.0040720448e+01    0.3088498    0.1087342  51.43  0.001333144    2.702    0.630
       552 -11.1467     33.6583     17.8696   1.0251612512e+02   6.6609614849e+01    0.2570994    0.1801816 -21.41  0.001047265    1.236    0.191
       553 -12.8898     76.3159    241.1955   1.3694712043e+02   1.5337039357e+01    0.4977572     0.253166  68.78  0.001601647    2.258    0.557
       554 -12.5912    203.8299    240.6345   1.1173380583e+02  -5.7216461695e+00    0.3435071    0.2490603  32.63 0.0006274611    1.179    0.152
       555 -10.5102    197.7924    240.9120   1.1294702676e+02  -4.7628057517e+00    0.3258976    0.1973484  11.13  0.001571594    2.242    0.554
       556  -9.8727     64.1012    242.0000   1.3930641224e+02   1.6906862700e+01    0.1799078   0.05916745  39.61 0.0007123841    2.772    0.639
       557 -10.6189     66.5578    238.9810   1.3856709515e+02   1.7152409934e+01    0.2368965    0.1933928  13.34  0.001484194    2.005    0.501
       558 -10.8956    168.5106    239.2168   1.1845407719e+02   5.1112631063e-01    0.2599545    0.2270779 -46.75  0.001332248    1.351    0.260
       559 -10.1671    233.5233    239.4882   1.0594798692e+02  -1.0258452324e+01    0.1240528    0.1007342  11.58 3.055805e-05    1.012    0.011
       560 -11.5985    153.5808    232.5926   1.2045659952e+02   4.2725201398e+00    0.3871894    0.2713207  69.03 0.0009853134    1.852    0.460
       561 -11.8021    218.9818    233.1059   1.0755641584e+02  -7.0811140027e+00    0.3121589    0.2233503 -10.63 0.0007016436    1.468    0.319
       562 -12.5073    142.8643    232.1347   1.2258223185e+02   6.2457159913e+00    0.3756161    0.2528645  40.93  0.001078181    1.299    0.230
       563  -9.9051     58.7031    234.8024   1.3964651917e+02   1.9046819227e+01   0.09707931   0.08750518  40.77 0.0002966955    1.437    0.304
       564 -10.7815     80.5349    230.8718   1.3504964829e+02   1.6743893618e+01    0.3015594    0.1917538  30.20  0.001621914    1.959    0.490
       565 -12.5279     74.3372    229.6034   1.3613142374e+02   1.7906899739e+01    0.3006543    0.2414385 -60.44 0.0009928804    1.450    0.310
       566 -10.1704     71.4926    225.1022   1.3621205887e+02   1.9229692625e+01    0.2351313    0.1613594  59.95 0.0007112316    1.266    0.210
       567 -10.6748    161.7474    231.4254   1.1860766334e+02   3.0300404575e+00    0.2486281    0.1517843  33.88 0.0008632501    1.531    0.347
       568 -10.5935     58.7546    230.6879   1.3925139543e+02   1.9860733528e+01    0.1825806     0.133642  81.94 0.0004487968    1.183    0.155
       569 -10.5812    242.4361    228.6967   1.0242748761e+02  -1.0113447079e+01    0.2450463    0.1799111 -59.48    0.0013381    2.515    0.602
       570 -11.0103    212.1811    229.4472   1.0821885237e+02  -5.4180499530e+00    0.1989571    0.1944006  -4.39 0.0003608193    1.286    0.222
       571 -11.6868    180.4252    245.5944   1.1708124685e+02  -2.5608925094e+00    0.4523117    0.3029566 -22.41  0.001842107    1.925    0.481
       572 -13.0720     93.2967    236.9730   1.3322079554e+02   1.3603423906e+01    0.5338547    0.2856643  56.14  0.002745899    1.723    0.419
