#   1 NUMBER                 Running object number                                     
#   2 MAG_AUTO               Kron-like elliptical aperture magnitude                    [mag]
#   3 X_IMAGE                Object position along x                                    [pixel]
#   4 Y_IMAGE                Object position along y                                    [pixel]
#   5 X_WORLD                Barycenter position along world x axis                     [deg]
#   6 Y_WORLD                Barycenter position along world y axis                     [deg]
#   7 A_WORLD                Profile RMS along major axis (world units)                 [deg]
#   8 B_WORLD                Profile RMS along minor axis (world units)                 [deg]
#   9 THETA_WORLD            Position angle (CCW/world-x)                               [deg]
#  10 FWHM_WORLD             FWHM assuming a gaussian core                              [deg]
#  11 ELONGATION             A_IMAGE/B_IMAGE                                           
#  12 ELLIPTICITY            1 - B_IMAGE/A_IMAGE                                       
         1  -8.3586    104.4937     22.9623   5.2769382972e+01   5.5211666365e+01     0.183933    0.1310145 -23.26 0.0005421928    1.527    0.345
         2  -8.1703     30.0202     16.0331   7.6525455706e+01   6.9548566454e+01    0.1547137    0.1528468 -49.38 0.0008590777    1.741    0.426
         3  -8.5710     55.8039     10.0434   6.2242821572e+01   6.6362794557e+01    0.1932371    0.1619658 -35.29 0.0008361335    1.552    0.356
         4  -8.4719     90.8210      8.7737   5.0667370759e+01   5.9601466438e+01    0.2239332    0.1508216 -50.70  0.000839979    2.067    0.516
         5  -8.4950     33.5326      5.3713   6.9401027415e+01   7.0404095131e+01     0.259364    0.1528599 -48.91  0.001275811    3.488    0.713
         6  -8.4430     79.0842      3.8544   5.1740250446e+01   6.2488421049e+01    0.2052466    0.1458293 -36.14  0.000778207    1.725    0.420
         7  -7.8986     44.5222      3.4945   6.3495971165e+01   6.8927498126e+01    0.1188353   0.09504388  14.64 0.0001297619    1.054    0.051
         8  -7.4849    115.4817      2.4667   4.2898656233e+01   5.4568070850e+01    0.1271265    0.1095655  60.53 0.0001853871    1.048    0.046
         9  -8.3105     62.4173      1.4475   5.5748627309e+01   6.5972787677e+01    0.1853907    0.1114068  61.46 0.0005438581    2.017    0.504
        10  -7.3469     39.3233      1.6369   6.4762033723e+01   6.9938106625e+01    0.1005195   0.09391964 -48.84 0.0007040823    1.785    0.440
        11  -8.5984    156.1754    248.1025   9.5323046531e+01   1.2325151469e+00    0.2204821    0.1425228  54.21 0.0005073668    1.893    0.472
        12 -10.0145    248.7254    243.9027   7.7149372740e+01  -1.1040333955e+01    0.7380087    0.1806016 -36.81   0.00293367    3.977    0.749
        13  -8.7589    247.9077    234.5710   7.5723934036e+01  -9.7589165603e+00    0.1997378     0.141015 -20.02  0.000940538    1.239    0.193
        14  -9.5311    246.5447    228.6431   7.4940799002e+01  -8.8085468852e+00    0.4697224    0.1976854 -35.62  0.002126294    2.242    0.554
        15  -9.0179    232.8652    247.9133   8.0578876378e+01  -9.5895689542e+00    0.2673691    0.1780844 -41.24  0.001651396    1.965    0.491
        16  -7.7295    184.4991    250.4837   9.0036375042e+01  -3.3400147093e+00    0.1251945   0.09949864  16.47 0.0001483863    1.034    0.033
        17  -8.3848     93.8265    249.5149   1.0817854076e+02   1.0263521963e+01    0.2279877     0.126383  64.55  0.001058835    2.158    0.537
        18  -9.9450    223.9170    244.1021   8.1573180919e+01  -7.9353909791e+00    0.4243748    0.2255314 -44.26  0.002281842    2.463    0.594
        19  -9.3925    210.8764    246.6092   8.4389033293e+01  -6.5174538814e+00    0.2060789    0.1659053 -32.84 0.0008164809    1.477    0.323
        20  -9.4601    202.0395    245.1873   8.5834998109e+01  -5.0886869359e+00    0.3460695    0.1696577 -41.32 0.0009377393    2.306    0.566
        21  -9.2321    120.3404    245.5994   1.0232861096e+02   7.0927050547e+00    0.3409468    0.2243973  76.40  0.001573796    2.244    0.554
        22  -7.6908     40.6419    247.6968   1.1842611924e+02   1.7506854853e+01   0.09928136    0.0898513 -25.33 0.0007038774    1.719    0.418
        23  -9.4350     10.8193    245.5910   1.2375466395e+02   2.1124795787e+01    0.3964904   0.08206585  53.21  0.001654863    3.609    0.723
        24  -8.5121    139.4868    244.4914   9.8237443965e+01   4.3759527927e+00    0.1966056    0.1265373 -69.54 0.0007747864    2.317    0.568
        25  -8.8132     67.5314    245.0762   1.1302027658e+02   1.4685420155e+01    0.1649414    0.1123487 -73.42  0.001020856    1.566    0.361
        26  -8.5493    168.9023    243.3358   9.2065958351e+01   6.4393979900e-02     0.178697    0.1770981 -20.40 0.0005407299    1.297    0.229
        27  -9.5110     78.3226    243.4687   1.1070929956e+02   1.3551529108e+01    0.3657032    0.1686827  60.44  0.001676149    2.508    0.601
        28  -7.8428     58.3031    244.6441   1.1480540770e+02   1.5953958915e+01     0.128978   0.07202322  64.38 0.0007039284    1.713    0.416
        29  -8.4266    214.1174    242.6009   8.3138675950e+01  -6.4097029898e+00    0.2000986     0.156677 -31.27  0.001325785    1.441    0.306
        30  -8.2499     34.4673    243.5339   1.1931196386e+02   1.9016630709e+01    0.1160601   0.08911461  65.98 0.0001717469    1.001    0.001
        31  -9.2190    194.2927    240.1586   8.6532366333e+01  -3.2418362051e+00    0.2923628      0.19391 -55.07  0.001537804    2.338    0.572
        32  -9.3358    160.1054    240.4330   9.3426027767e+01   1.8817436770e+00    0.3324004     0.247224 -89.45   0.00169604    2.446    0.591
        33  -8.0680    153.3939    242.2027   9.5058965468e+01   2.6237399133e+00    0.1560849    0.1247571 -67.46 0.0006349507    1.707    0.414
        34  -8.1773     88.2081    242.2400   1.0857185494e+02   1.2414587764e+01      0.17016    0.1243575  67.55 0.0004973815    1.351    0.260
        35  -8.5905    240.6362    240.5220   7.7989928144e+01  -9.6213596650e+00    0.2657177    0.1008055 -33.53  0.001303324    2.524    0.604
        36  -9.3264    182.0744    240.2988   8.8963269419e+01  -1.4497446133e+00    0.4298927    0.2521488  28.15  0.001529891    1.496    0.332
        37  -9.1440    135.6422    239.1568   9.8318316868e+01   5.8976287837e+00    0.2704897    0.1722517  57.44  0.001220565    1.866    0.464
        38  -8.2696    129.2341    239.0187   9.9643105558e+01   6.9144607668e+00    0.1984453     0.140682  75.95 0.0009668566    1.997    0.499
        39  -9.1714    230.7637    237.1534   7.9181293472e+01  -7.9075908109e+00    0.2377107    0.2153876 -47.93  0.001250424    1.802    0.445
        40  -8.2840    208.9856    238.2129   8.3389029947e+01  -5.0746065845e+00    0.1565343    0.1322909 -43.71  0.001021143    1.612    0.379
        41  -9.7560    214.5904    233.0552   8.1471775320e+01  -5.1243471601e+00    0.4567931    0.3487566 -76.69  0.002260566    3.532    0.717
        42  -8.8585    203.3124    234.9312   8.3934220581e+01  -3.7805263601e+00    0.2590853    0.2085106 -65.20  0.001122637    2.188    0.543
        43  -9.2764    200.8907    228.1235   8.3266276615e+01  -2.3914763510e+00    0.4209396    0.2906629 -63.76  0.002022175    2.872    0.652
        44  -9.8257    175.7057    233.4809   8.9176026943e+01   6.0621685144e-01    0.4776609    0.2754107 -57.92  0.002273912    2.718    0.632
        45  -9.4235    108.9104    234.3926   1.0335198889e+02   1.0886672849e+01    0.4956096    0.2539661  55.04   0.00109085    2.155    0.536
        46  -7.9144     25.0000    235.9979   1.2062381457e+02   2.1540583412e+01    0.1774254   0.05730975 -75.77  0.000803688    2.951    0.661
        47  -8.3356     99.8032    234.4770   1.0529787505e+02   1.2232641393e+01    0.2413265    0.1597348  85.43  0.001030955    1.954    0.488
        48  -8.9758     78.6731    234.5005   1.0975248075e+02   1.5253911631e+01    0.2515089    0.1568438  73.20  0.000894843    1.790    0.441
        49  -8.9016      8.3442    235.1687   1.2368140637e+02   2.3394824404e+01     0.158485   0.08120991  84.90 0.0009421508    1.698    0.411
        50  -8.3653    122.9920    234.0753   1.0031089051e+02   8.7873191800e+00    0.2114721    0.1444726  64.02  0.001123069    1.760    0.432
        51  -8.6869     91.8817    231.1011   1.0659586661e+02   1.4058427003e+01    0.2528361    0.1447286  79.81 0.0009941994    2.581    0.612
        52  -9.3314     68.4876    232.6238   1.1168952304e+02   1.7011027982e+01    0.4339944     0.186727  62.91  0.001790258    3.046    0.672
        53  -8.6067    145.0149    233.4799   9.5551348131e+01   5.4360958035e+00    0.3004249    0.1581814  61.70  0.001100378    3.957    0.747
        54  -8.5995    140.0456    230.2070   9.6132806098e+01   6.8156947173e+00    0.2744315    0.1715268  55.03 0.0007498927    1.858    0.462
        55  -8.7572    132.8135    233.0682   9.8081501534e+01   7.4377841629e+00    0.2024698    0.1643971  56.02  0.000705709    1.280    0.219
        56  -9.4632    186.4539    230.6329   8.6544234608e+01  -5.9410041060e-01    0.3180491    0.2494692 -73.48  0.001034396    2.266    0.559
        57  -8.2872    157.3736    231.8399   9.2708011847e+01   3.7636473450e+00    0.1856168    0.1488778  38.52 0.0007299465    1.158    0.137
        58  -7.4085     43.6882    232.3336   1.1672612905e+02   2.0182911865e+01     0.129952    0.0715024  64.33 0.0007044405    1.679    0.405
        59  -8.9914    236.0263    230.4627   7.7100536452e+01  -7.6927270304e+00    0.2816237    0.1671806 -35.79 0.0008644495    1.721    0.419
        60  -8.8429      1.7530    230.8845   1.2467508286e+02   2.4866734796e+01    0.2118364     0.109401  73.71 0.0008405861    1.600    0.375
        61  -8.0610    229.6736    229.0742   7.8003347514e+01  -6.6497943087e+00    0.1716462     0.141477 -32.85 0.0007290232    1.463    0.317
        62  -8.7976    162.3455    228.1150   9.1089909289e+01   3.6174071221e+00    0.2920263     0.174996  47.68  0.001033027    1.780    0.438
        63  -8.8910    127.8399    227.3518   9.8353650462e+01   9.2934484811e+00    0.2640638    0.1901857  58.86  0.001057075    1.528    0.346
        64  -8.3213    120.1437    227.6984   1.0007182634e+02   1.0443097747e+01    0.2312885    0.1565046 -81.63  0.001107667    2.067    0.516
        65 -10.0177    149.5389    226.0787   9.3487267843e+01   6.0425056652e+00    0.5963366     0.377649 -85.06  0.002365873    3.861    0.741
        66  -8.1076    223.5034    226.7965   7.8738925344e+01  -5.4741719924e+00    0.2254016    0.1088057 -32.16  0.001085364    2.017    0.504
        67  -8.0969     49.5372    227.0021   1.1510824968e+02   2.0579362230e+01    0.2544178    0.1345985  82.03  0.001285661    2.107    0.525
        68  -8.7313    206.1556    225.5516   8.1804081771e+01  -2.7813707885e+00    0.2873045    0.1681719 -29.31  0.001264739    1.725    0.420
        69  -9.1900     94.3911    224.5050   1.0528290685e+02   1.5020682025e+01    0.4367004    0.2150239  63.79  0.001759231    2.986    0.665
        70  -8.5760    194.5248    232.7466   8.5286752374e+01  -2.1513900626e+00    0.1528867    0.1228642 -46.36 0.0005913521    1.589    0.371
        71  -8.8546    180.3361    223.9564   8.6680774762e+01   1.4553703516e+00    0.2393538    0.2260568 -50.55 0.0004378723    1.357    0.263
        72  -9.0762    104.7904    223.7910   1.0291338713e+02   1.3598668384e+01    0.3442592    0.2264466  85.69  0.001353143    2.071    0.517
        73  -8.5809     38.3409    224.5798   1.1720828574e+02   2.2405518695e+01    0.2215199   0.09182239  88.53 0.0008551439    3.033    0.670
        74  -8.9047    216.4570    223.4890   7.9478363111e+01  -3.9825665748e+00    0.2432565    0.1994043 -38.63 0.0009637094    1.483    0.326
        75  -8.6055    173.0183    223.3703   8.8094928547e+01   2.7246102056e+00    0.2162289    0.1899414 -68.42 0.0006166102    1.560    0.359
        76  -8.1095    113.8628    224.0985   1.0095918542e+02   1.2132726507e+01    0.2086666    0.1644146  65.08 0.0009482617    1.342    0.255
        77  -9.1482    160.0653    220.9926   9.0435659283e+01   5.2485059104e+00    0.5549555    0.2688077  55.84  0.001984286    3.784    0.736
        78  -8.1816    140.5320    222.7591   9.4925710318e+01   8.1203254826e+00    0.1663165    0.1329133 -73.24 0.0008158002    1.602    0.376
        79  -9.0393    239.1409    221.1807   7.4926198604e+01  -6.8182013985e+00     0.309217    0.1789198 -34.38  0.001313538    1.656    0.396
        80  -9.3870    225.2022    221.5498   7.7506998712e+01  -4.9484138041e+00    0.2154471    0.1541947 -25.70 0.0005451054    1.305    0.234
        81  -9.8801    191.6792    220.3683   8.3766123605e+01   2.5873956428e-01    0.4167309    0.3209731 -70.97  0.001921238    2.302    0.566
        82  -9.2591    120.3097    219.0647   9.8836889224e+01   1.2115722422e+01     0.475946    0.2684029  64.61  0.001784242    2.729    0.634
        83  -9.2594     82.5393    220.6030   1.0742492141e+02   1.7554690104e+01    0.3282138    0.2024229  68.86  0.001238848    1.834    0.455
        84  -8.2530     73.0085    220.5179   1.0950365022e+02   1.8906196298e+01    0.2633767    0.1251808  71.11  0.001012756    3.346    0.701
        85  -8.0581     27.5253    220.9966   1.1913903840e+02   2.4353346421e+01    0.1778319    0.1020374 -79.33   0.00103342    1.596    0.373
        86  -8.1577    202.8000    220.1395   8.1517963817e+01  -1.4293739937e+00    0.1828301    0.1702514  19.54 0.0007889802    1.274    0.215
        87  -8.7968    248.9208    218.0290   7.2664379382e+01  -7.6703107942e+00    0.2513189    0.2109738  74.17  0.001468611    2.816    0.645
        88  -8.2796    210.0228    219.2379   7.9956782135e+01  -2.3825750573e+00    0.1767975    0.1497077   7.07 0.0005109443    1.058    0.055
        89  -8.3769    179.4253    217.4408   8.5765037547e+01   2.7119372031e+00    0.2222851    0.1288466 -55.48  0.001022854    2.422    0.587
        90  -8.6781    142.8672    216.7224   9.3482660924e+01   8.8862751152e+00    0.2795072    0.1879206 -68.51  0.001213344    2.062    0.515
        91  -9.4142    132.8664    215.9520   9.5578939960e+01   1.0691918256e+01    0.4783655    0.3011372  74.56  0.002010686    2.879    0.653
        92  -8.5395     61.9319    217.4043   1.1159580317e+02   2.1051359300e+01    0.2464409    0.1551298  79.59  0.001295203    1.680    0.405
        93  -9.1064     51.4174    217.3954   1.1386787657e+02   2.2383469936e+01    0.2867588    0.1796554  79.16  0.000953772    1.594    0.373
        94  -8.6049    169.2079    216.0641   8.7672917133e+01   4.6298372136e+00    0.2504992    0.2041414 -82.79 0.0007661947    1.890    0.471
        95  -8.6078    111.7399    217.1632   1.0048572860e+02   1.3866436259e+01    0.2155032    0.1636117  78.40  0.001168429    1.562    0.360
        96  -8.1334     55.8437    217.1213   1.1288916859e+02   2.1891882123e+01    0.1568968    0.1371116 -60.54            0    1.340    0.254
        97  -8.7452    232.4047    214.9710   7.5017208742e+01  -4.9963597181e+00    0.2264594    0.1943637 -53.27 0.0008700765    1.802    0.445
        98  -8.8272     18.2746    215.1873   1.2061297645e+02   2.6540506597e+01    0.3790565   0.09685382 -81.14  0.001343168    4.403    0.773
        99  -8.4244    185.5342    214.3677   8.3969723038e+01   2.2496162478e+00    0.2082586    0.1939709 -63.77 0.0007220887    1.440    0.306
       100  -8.2216    154.1159    215.1042   9.0757461029e+01   7.3187252916e+00    0.2068879    0.1630994  67.40 0.0007202323    1.678    0.404
       101  -9.0066     93.3836    214.2048   1.0423072849e+02   1.7320397231e+01    0.4545827    0.1945704  54.51  0.001734873    2.799    0.643
       102  -8.1204     41.2819    215.2782   1.1584502135e+02   2.4050054569e+01    0.1956387   0.09186326  89.12 0.0007770425    2.427    0.588
       103  -9.4956    213.9022    212.1453   7.7940838447e+01  -1.8543822347e+00    0.3280327    0.3180552 -84.99   0.00159072    1.565    0.361
       104  -9.5730     73.2460    211.9900   1.0851135325e+02   2.0708307486e+01    0.6741654    0.2566578  58.96  0.002251308    4.112    0.757
       105  -8.0733    224.7994    212.7368   7.6000692776e+01  -3.5703586483e+00    0.1557503    0.1455237 -16.57 0.0005944311    1.351    0.260
       106  -8.5103    161.7000    212.4081   8.8660387871e+01   6.5505800996e+00    0.2146021    0.1779801 -65.00 0.0006710668    1.545    0.353
       107  -8.0672    106.5475    212.8195   1.0105763587e+02   1.5588047119e+01    0.1787423    0.1288421 -83.04 0.0009275383    1.670    0.401
       108  -9.0234    204.1816    210.8809   7.9594642088e+01  -1.4763945982e-01    0.2904349    0.1943832 -39.62 0.0006025946    1.565    0.361
       109  -9.3084      5.7810    207.1637   1.2263737556e+02   2.9442513876e+01    0.3219813    0.1187902 -88.20  0.001481089    2.592    0.614
       110  -9.5357    246.8391    208.1144   7.1225163168e+01  -5.9899119380e+00    0.3932691    0.2437344 -48.42  0.001672505    2.288    0.563
       111  -8.6623    192.2843    210.6384   8.1927400199e+01   1.7932052564e+00    0.2229587    0.1566643 -49.00 0.0007580784    1.714    0.416
       112  -9.4156    175.3081    209.9133   8.5316371068e+01   4.7216090250e+00    0.3563635    0.2768191  78.99   0.00136629    2.187    0.543
       113  -8.8138    148.2182    210.6043   9.1311438595e+01   9.1721172272e+00    0.2887988    0.2176273  70.01  0.001466173    1.828    0.453
       114  -9.1785    116.4088    210.6191   9.8493270448e+01   1.4472725938e+01    0.3366993    0.2048448  60.86  0.001101987    2.027    0.507
       115  -9.1738    236.5423    208.4923   7.3093418144e+01  -4.6186578157e+00    0.2616898    0.2269696 -47.74  0.001431018    1.649    0.394
       116  -8.3298     46.4432    209.5663   1.1422520739e+02   2.4695723639e+01    0.2697394     0.138432  71.44  0.001159855    2.189    0.543
       117  -8.5017    126.3372    208.6615   9.5928183127e+01   1.3246183770e+01    0.3010921    0.2032529  77.00 0.0008369982    2.247    0.555
       118  -8.3342    124.0431    205.9892   9.6037634458e+01   1.4183661237e+01     0.182287    0.1694493  34.62  0.001074912    1.037    0.036
       119  -7.9338    156.7488    208.1920   8.9020678379e+01   8.1864558523e+00    0.2192677     0.149862  74.48 0.0009413619    2.697    0.629
       120  -8.5817    138.9106    207.8453   9.2941130762e+01   1.1296994124e+01    0.2430736    0.1814345  83.81 0.0007195988    1.952    0.488
       121  -9.3563     99.4111    206.0364   1.0175712198e+02   1.8158994745e+01    0.4398467    0.2764295  89.98  0.001484488    2.220    0.550
       122  -8.4065    108.9166    205.2998   9.9438596506e+01   1.6812738712e+01    0.2293396    0.1865483 -86.11 0.0006565615    1.374    0.272
       123  -8.5310     56.4721    205.4922   1.1159031260e+02   2.4372988114e+01    0.2919033    0.1498562  66.85 0.0009902887    2.266    0.559
       124  -9.4834    194.9654    203.3054   8.0041313588e+01   2.6184055924e+00     0.408559    0.2695487 -32.85  0.001210508    1.504    0.335
       125  -9.1244    192.4273    197.5504   7.9477091092e+01   4.0579238702e+00    0.3129475    0.2612229 -73.86  0.001018461    1.825    0.452
       126  -9.0129    183.9037    204.0248   8.2449798543e+01   4.3376417583e+00    0.3150779    0.2558031  72.90  0.001076357    1.914    0.478
       127  -8.8700    131.2721    203.8425   9.4029914429e+01   1.3413197752e+01    0.3155756    0.2245537  80.06  0.001055771    2.068    0.517
       128  -8.5675     24.2243    204.9997   1.1865376720e+02   2.8162708164e+01    0.2149298    0.1079836  70.66  0.001085833    1.981    0.495
       129  -9.6832    163.7788    202.8013   8.6533323768e+01   8.0107984937e+00    0.4011381    0.3488191  79.24  0.001200776    1.534    0.348
       130  -9.4342    250.0960    201.9395   6.9528473485e+01  -5.5340215314e+00    0.3914674    0.1596607 -34.85  0.001429402    2.160    0.537
       131  -9.7882    245.8769    193.8931   6.8727989087e+01  -3.7435103212e+00    0.4565538    0.2903988 -58.99  0.002077333    3.354    0.702
       132  -8.8066     85.4723    209.3637   1.0541909618e+02   1.9540779279e+01    0.3229973    0.1917472  76.20  0.001034435    2.243    0.554
       133  -9.0802    243.0575    200.7997   7.0518835310e+01  -4.3877077997e+00    0.3079304    0.1606638 -37.63 0.0009780393    1.793    0.442
       134  -9.1010    140.1283    200.6543   9.1463193717e+01   1.2550811761e+01     0.387916    0.2616492 -87.42  0.001574453    2.619    0.618
       135  -8.7338     80.0940    201.4172   1.0566000616e+02   2.2090151751e+01    0.3523372    0.1827136  61.28  0.001496834    2.355    0.575
       136  -8.5663     48.1779    202.0209   1.1311496797e+02   2.6179244284e+01    0.2266193    0.1228261  75.45  0.001072816    2.085    0.520
       137  -8.4439     10.7992    202.6046   1.2132072413e+02   2.9987104362e+01    0.1635001   0.08983431  47.08 0.0009131177    1.652    0.395
       138  -9.3419    236.8618    198.6382   7.1195453991e+01  -3.1683758046e+00     0.305608    0.1949687 -43.35 0.0009383009    1.745    0.427
       139  -9.4689    149.6545    198.7552   8.8960695165e+01   1.1274473318e+01    0.4395184    0.3141666  88.20  0.001585212    2.389    0.581
       140  -8.9905    123.9223    199.1910   9.4980327386e+01   1.5643585707e+01    0.3355206    0.2381344 -87.91  0.001279722    1.984    0.496
       141  -9.4481    112.7280    198.5051   9.7512765688e+01   1.7668422364e+01    0.4265016     0.276632  74.31  0.001886921    2.223    0.550
       142  -9.2302     88.7241    198.0613   1.0316819616e+02   2.1573876268e+01    0.5179548    0.2831217 -76.97  0.001905173    2.314    0.568
       143  -8.2968    176.9856    199.0003   8.2981977831e+01   6.4405609316e+00    0.2013919     0.174126  78.88 0.0005486466    1.637    0.389
       144  -8.7008    132.6413    195.8277   9.2373125191e+01   1.4862291389e+01    0.3216041    0.2162048 -79.52 0.0008189353    2.251    0.556
       145  -8.4182    202.3236    198.0418   7.7572344205e+01   2.3165106777e+00    0.2230062    0.1922048  61.67 0.0009327233    1.640    0.390
       146  -9.2002     61.2729    197.0042   1.0955239545e+02   2.5688150581e+01    0.4282399    0.2219514  69.46  0.001406478    2.470    0.595
       147  -9.2590     12.7337    197.3988   1.2055796887e+02   3.0967953725e+01    0.3063736    0.1276145  80.55   0.00137277    2.604    0.616
       148  -8.6410    216.0444    195.7354   7.4460715893e+01   4.8037609012e-01    0.2634483    0.1794761 -49.97 0.0009497437    1.846    0.458
       149  -8.0632     29.2187    197.2251   1.1693703060e+02   2.9396884818e+01    0.2010189   0.08715009 -87.32 0.0007747795    2.463    0.594
       150  -8.6785    224.4883    194.1523   7.2573279963e+01  -5.8982203581e-01    0.2578838    0.1649131 -44.96 0.0009305687    1.749    0.428
       151  -8.9443    185.1195    194.7116   8.0451473491e+01   5.8267471135e+00    0.2804032    0.2227064 -52.84  0.000761211    1.507    0.337
       152  -9.1150    160.9251    194.3347   8.5622679594e+01   1.0165781592e+01    0.3245595    0.2525558  75.76 0.0009106811    1.891    0.471
       153  -8.1387    230.7756    194.3708   7.1468026357e+01  -1.5920013461e+00    0.1749774    0.1446441 -21.81  0.000503346    1.121    0.108
       154  -8.7095    179.5598    192.7920   8.1260371638e+01   7.1575013035e+00    0.3093749    0.2346448 -70.75  0.001517102    2.020    0.505
       155  -8.7442     76.9428    193.8567   1.0542714577e+02   2.4272189808e+01     0.279998    0.1955741  78.02 0.0007836817    1.570    0.363
       156  -9.4210     43.0834    193.7093   1.1345239916e+02   2.8685722971e+01    0.3540929    0.2436401  57.40  0.001453124    1.350    0.260
       157  -8.5180    241.5776    192.2005   6.9142100442e+01  -2.8617660795e+00    0.1751541    0.1045784 -25.08 0.0005466197    1.513    0.339
       158  -8.4242    198.9204    191.7542   7.7042141625e+01   3.9910330644e+00    0.2302619    0.1742629 -50.62 0.0006349133    1.581    0.367
       159  -8.4891    172.3568    191.9745   8.2656926854e+01   8.5905676979e+00    0.2389253    0.1998055  62.98  0.001111457    1.523    0.343
       160  -9.2672    139.5599    190.6834   8.9847123785e+01   1.4736830524e+01    0.4065194    0.2912647 -89.79  0.001123988    2.182    0.542
       161  -8.9014      6.6568    191.5058   1.2146104292e+02   3.2829787932e+01     0.248774    0.1053617  72.30  0.001150508    2.469    0.595
       162  -7.6252    205.2638    191.6655   7.5760340541e+01   2.9367377393e+00    0.1231258    0.1102806 -68.72 0.0002526227    1.582    0.368
       163 -10.4709     92.0035    188.2508   1.0095532009e+02   2.3323274228e+01    0.9586602    0.5390517  54.54  0.002976047    1.932    0.482
       164  -8.7210     21.2382    191.0989   1.1821317672e+02   3.1600299711e+01    0.3391005    0.1341686  65.81  0.001385366    3.059    0.673
       165  -8.6136    148.4359    189.4354   8.7552021313e+01   1.3406298122e+01    0.2407998    0.1947829  80.75  0.000670759    1.660    0.398
       166  -9.0016    129.3288    188.5928   9.1898879026e+01   1.7004189449e+01    0.3432457    0.2512131 -87.59  0.001024199    1.912    0.477
       167  -8.4451    237.1344    188.6326   6.9226315777e+01  -1.6409925458e+00    0.2209537    0.1531658 -36.72 0.0007172024    1.382    0.276
       168  -8.9301    216.4702    187.9734   7.2867706234e+01   1.7195015155e+00    0.2512325    0.2158317 -55.00 0.0008630504    1.537    0.350
       169  -8.9117    191.4510    187.5343   7.7738439707e+01   6.0482937052e+00    0.3349488    0.2513943 -63.20  0.001236807    1.907    0.476
       170  -9.2914    155.9749    187.6822   8.5491713789e+01   1.2402568550e+01    0.3650154    0.2371395 -59.76 0.0009579307    1.914    0.477
       171  -9.8094    120.8961    186.7018   9.3603122891e+01   1.8900191692e+01    0.5590732    0.3174821 -75.15  0.002111347    2.901    0.655
       172  -8.7669     34.3262    188.1115   1.1494324905e+02   3.0963739000e+01    0.3451973    0.1664506  74.71  0.001164076    2.494    0.599
       173  -8.3651    211.2837    202.3872   7.6639058079e+01   1.3224253508e-01    0.2057317     0.159975 -53.91 0.0006141386    1.756    0.431
       174  -8.7428    164.9928    186.9621   8.3318259180e+01   1.0906376738e+01    0.3159372    0.2323874  79.62  0.001024966    2.302    0.566
       175  -9.0104     54.8084    187.0106   1.0993458813e+02   2.8850757651e+01     0.403721    0.2147442  74.35  0.001501869    2.410    0.585
       176  -8.1122    230.3706    187.2702   7.0161569396e+01  -3.8406059212e-01    0.1810965    0.1127054 -42.47 0.0007734396    1.655    0.396
       177  -9.3680    109.4333    185.9224   9.6279510188e+01   2.1037046242e+01    0.4312811    0.2980666 -86.19   0.00124909    1.918    0.479
       178  -8.9302    249.0643    185.5661   6.6590232912e+01  -2.9250782775e+00    0.2524045    0.1635626 -32.46 0.0007614945    1.336    0.251
       179  -8.7405    183.0401    185.2411   7.9046798998e+01   7.9735211703e+00    0.2865509    0.1942014 -50.85  0.000748189    1.675    0.403
       180  -9.0888     66.4746    184.5829   1.0676674051e+02   2.7910813349e+01    0.3851225    0.2248593  75.00    0.0011575    2.162    0.537
       181  -8.7698    210.0874    184.3138   7.3364630806e+01   3.4139010464e+00    0.2461073    0.1867196 -39.15 0.0005079098    1.329    0.247
       182  -8.4859    202.8181    184.7701   7.4883507104e+01   4.5738652343e+00    0.2321582    0.1824014 -66.54 0.0008817099    1.915    0.478
       183  -8.3448     12.0299    185.2652   1.1982597431e+02   3.3791152330e+01    0.2351178   0.08555223  67.82 0.0008876863    3.583    0.721
       184  -8.4927    224.1264    183.4049   7.0532704157e+01   1.2474975653e+00    0.2304616    0.1581954 -26.87 0.0006367638    1.323    0.244
       185  -8.8348    174.1943    183.6464   8.0635996130e+01   9.8866716382e+00    0.2737981    0.2251932 -76.95 0.0009553244    1.711    0.416
       186  -8.4550    242.8132    183.5630   6.7253977291e+01  -1.6909045388e+00    0.1599631     0.123147  46.99 0.0009402593    1.712    0.416
       187  -9.1197     44.2244    182.1849   1.1196094242e+02   3.1268961888e+01    0.3595319    0.2032544  86.84  0.001186402    1.929    0.482
       188  -7.9591      1.7734    183.6255   1.2199719737e+02   3.5019686417e+01    0.1561681   0.09359234  46.78 0.0007912513    1.618    0.382
       189  -9.2176    147.5685    180.8083   8.6120883384e+01   1.5388283287e+01    0.3495929    0.2714107  86.75  0.001128522    1.839    0.456
       190  -9.6433     25.6797    179.0823   1.1612844130e+02   3.3978084513e+01    0.6910148    0.2765085  80.40  0.002471063    3.818    0.738
       191  -7.7890    235.3218    181.6827   6.8179484576e+01  -2.4438345363e-01    0.1192245    0.1049494 -63.63 0.0004091081    1.665    0.399
       192  -7.8573    240.4786    180.4855   6.7047570535e+01  -8.4653426526e-01    0.1326001    0.1085128 -14.26 0.0001577192    1.020    0.020
       193  -8.7244    137.5430    179.3363   8.8224156793e+01   1.7557278976e+01    0.3121363    0.2304073  81.31 0.0008771821    1.971    0.493
       194  -9.3961    191.4198    178.3414   7.5898304879e+01   7.7741992180e+00    0.2964939     0.267172  69.47 0.0006103719    1.450    0.311
       195  -8.0738    169.1884    178.5615   8.0722571763e+01   1.1827488950e+01    0.2461347    0.1725081 -70.34 0.0007708176    2.202    0.546
       196  -9.1676     36.0345    177.0638   1.1341121061e+02   3.3404152294e+01    0.5001806    0.2149265  82.62  0.001791817    3.627    0.724
       197  -9.3688    248.3171    176.4213   6.4924369816e+01  -1.3851148380e+00    0.4189453    0.2558397 -47.74  0.002191525    1.909    0.476
       198  -8.6298    250.5049    172.9052   6.3869596302e+01  -1.1563997110e+00    0.1881512    0.1555086 -28.59 0.0005379883    1.135    0.119
       199  -8.4313    217.6691    177.3075   7.0504437129e+01   3.3588409999e+00    0.2360599    0.1562233 -45.80 0.0006455226    1.617    0.382
       200  -8.9425    204.9313    177.7045   7.3036375185e+01   5.4823044974e+00    0.2633148    0.1973089 -44.68 0.0008973025    1.410    0.291
       201  -8.6838    129.0387    177.4094   8.9928305880e+01   1.9539997114e+01    0.2766387    0.2092792 -77.08 0.0006666242    1.658    0.397
       202  -8.4729    231.1346    176.7941   6.7941614948e+01   1.2250338879e+00    0.2275102    0.1627537 -41.03  0.000688327    1.402    0.287
       203  -8.9440    183.0467    176.2991   7.7239667049e+01   9.6996658125e+00    0.2666573    0.2476812  76.01 0.0007012862    1.355    0.262
       204  -8.7003     89.0319    176.7775   9.9919777039e+01   2.6495716882e+01    0.3069347    0.2047149  78.82 0.0009882284    1.930    0.482
       205  -9.1836     58.9998    175.9998   1.0751652323e+02   3.0963844055e+01    0.4484349    0.2040897  57.76  0.001745909    2.773    0.639
       206  -9.5165     55.9836    171.4627   1.0768874758e+02   3.2454344569e+01     0.492296    0.2596586  77.59  0.001961225    2.740    0.635
       207  -9.5961     12.9246    176.1212   1.1889297600e+02   3.5845181708e+01    0.4431303    0.1834766 -89.08   0.00194931    2.468    0.595
       208  -7.9260    211.5224    176.4648   7.1499627142e+01   4.5573907738e+00    0.1392179    0.1237619 -11.58  0.000809087    1.024    0.023
       209  -9.2519    158.8663    175.1375   8.2366830437e+01   1.4475072534e+01    0.3998686    0.2872257  77.18  0.001345476    2.289    0.563
       210  -9.7137    103.9978    175.0561   9.5790924386e+01   2.4479126594e+01    0.6070592    0.3401851  49.13  0.002602062    1.855    0.461
       211 -10.7032     75.9064    169.0792   1.0211786351e+02   3.0342706621e+01     1.511998    0.5483413 -67.94  0.004975964    3.306    0.698
       212  -8.4310    224.4930    174.4961   6.8670079166e+01   2.7010696809e+00     0.226749    0.1188404 -46.75 0.0007380184    2.086    0.521
       213  -9.3831    175.7379    171.9940   7.7927884138e+01   1.1922094940e+01     0.438428    0.2347398 -45.21  0.001286653    1.884    0.469
       214  -8.5017    143.0223    172.9400   8.5655642058e+01   1.7945078186e+01    0.2305436    0.1835385  78.06 0.0005065835    1.652    0.395
       215  -8.1859    194.3179    172.3171   7.4056569955e+01   8.3882878033e+00    0.1493729    0.1074722  -2.61 0.0006371212    1.655    0.396
       216  -8.7881    134.7403    171.8236   8.7448718401e+01   1.9747163802e+01    0.2721899    0.2093428 -76.52 0.0009242009    1.642    0.391
       217  -9.5779    121.5054    170.5773   9.0507981917e+01   2.2467319879e+01    0.4200339    0.2935271 -87.01  0.001076948    2.080    0.519
       218  -9.2708     45.0758    171.1185   1.1045787920e+02   3.3847033061e+01    0.3682504     0.206005  86.30  0.001056765    2.066    0.516
       219  -8.5378    205.7342    170.3296   7.1352768377e+01   6.6870389074e+00    0.3086399    0.1754836 -52.25  0.001046941    2.184    0.542
       220  -8.4441    237.0810    169.5534   6.5436996751e+01   1.4753013521e+00    0.2454796     0.164543 -44.81 0.0007784305    1.550    0.355
       221  -8.9710    230.3290    170.0243   6.6708580067e+01   2.4970100572e+00    0.2446136    0.1501769 -38.02 0.0007692747    1.480    0.325
       222  -8.5221    198.3513    170.2189   7.2797107869e+01   8.0457793904e+00    0.2284871    0.2059959  33.12 0.0006059421    1.180    0.152
       223  -9.2062    167.1109    168.6550   7.9146678407e+01   1.4254460592e+01    0.3302446    0.2579592  79.88 0.0009498492    1.890    0.471
       224  -8.6224    149.8346    169.5689   8.3342358458e+01   1.7387280690e+01    0.2811943    0.2022486 -68.50 0.0006887368    1.818    0.450
       225  -8.4762    244.3060    169.0534   6.4116911279e+01   4.1159529827e-01     0.191022    0.1434889 -31.69 0.0005594378    1.159    0.137
       226  -8.5276    218.9103    168.4599   6.8451402381e+01   4.6999690232e+00     0.246531    0.1803337 -49.13 0.0005966204    1.535    0.348
       227  -8.9902    111.8865    167.7544   9.2431801202e+01   2.4848197460e+01    0.4361663    0.2753441  82.70  0.001610865    2.787    0.641
       228  -8.4351     88.6329    168.6860   9.8689241911e+01   2.8512492681e+01    0.2957505    0.1937365  76.19  0.001014831    2.042    0.510
       229  -7.9662    211.3876    168.1712   6.9806513357e+01   6.0714033611e+00    0.2013084    0.1236957 -47.90 0.0006868222    1.760    0.432
       230  -8.9800    191.8867    166.6730   7.3366498611e+01   9.9211254856e+00    0.2739762    0.2029551 -44.71 0.0006211254    1.371    0.271
       231  -8.7118    185.0025    166.5506   7.4781403174e+01   1.1247306487e+01    0.2791212    0.1992494 -55.90 0.0008965097    1.667    0.400
       232  -9.2626     20.5300    166.3032   1.1615673300e+02   3.7522350208e+01    0.3393205     0.159397  61.07  0.001101272    2.393    0.582
       233  -8.2096     13.0194    167.5049   1.1812958335e+02   3.7881263621e+01    0.1745455   0.07683045  53.29  0.000594101    2.354    0.575
       234  -9.8979    136.8635    164.3190   8.5408528279e+01   2.1039003371e+01    0.6661952    0.4266533  60.69  0.002266957    2.055    0.513
       235  -9.9874     94.9462    162.9816   9.6007458931e+01   2.8886594043e+01    0.8217462     0.457435  77.26  0.002597558    4.030    0.752
       236  -8.2863    233.9187    164.6031   6.4966164222e+01   2.8232382133e+00    0.2141034     0.156566 -32.75 0.0005730969    1.202    0.168
       237  -8.8677    159.5042    164.4790   8.0003603462e+01   1.6611397614e+01    0.2936234    0.2653088  86.28 0.0008254792    1.333    0.250
       238  -9.5214     33.4752    163.5923   1.1255755628e+02   3.6946510280e+01    0.5302601    0.2239988  51.86  0.002236343    2.631    0.620
       239  -8.2060    240.0127    164.4890   6.3905679725e+01   1.8450141923e+00    0.1779755    0.1300455  37.09 0.0005101794    1.525    0.344
       240  -8.5969    212.9324    163.6672   6.8562666620e+01   6.6124780594e+00    0.2673998    0.1866928 -41.94    0.0007276    1.390    0.281
       241  -8.4893     57.8098    163.7897   1.0614157439e+02   3.4116670414e+01    0.4418181    0.1815556  19.89  0.001495048    4.005    0.750
       242  -8.6827     60.7153    160.5839   1.0488353726e+02   3.4540220089e+01    0.3664187    0.2083199  60.82  0.001601311    2.126    0.530
       243  -8.8531    246.0603    163.0037   6.2602885893e+01   1.1230280790e+00    0.2025857    0.1654368 -23.50 0.0004682693    1.020    0.019
       244  -8.5005    204.9055    162.9351   6.9949896487e+01   8.2069011048e+00    0.2517207     0.185549 -44.80 0.0006746668    1.377    0.274
       245  -9.3569      3.3255    162.3752   1.2006192868e+02   3.9857994750e+01    0.3833375    0.1732064  56.25  0.001865856    2.311    0.567
       246  -8.8858    151.6729    161.0356   8.1110009921e+01   1.8893059189e+01     0.354604    0.2501184 -75.43  0.000917096    2.125    0.529
       247  -9.1640    177.4125    160.6116   7.5132824649e+01   1.3905703367e+01    0.2889435    0.2468909 -71.48 0.0008079318    1.468    0.319
       248 -10.0593    241.9913    154.5190   6.1520771011e+01   3.1864677434e+00    0.7688601    0.4497908 -65.01  0.002788868    4.412    0.773
       249  -7.6563    242.3044    159.7272   6.2546973407e+01   2.2656428404e+00    0.1810994    0.1092758 -28.63 0.0001794352    1.496    0.331
       250  -9.7634    250.1725    157.8878   6.0901680466e+01   1.3079272487e+00    0.3248517    0.1621089 -36.71 0.0007975097    1.696    0.410
       251  -8.7041    246.5733    155.5248   6.0989457710e+01   2.2699547320e+00    0.2054946    0.1742444 -24.41 0.0005463569    1.026    0.025
       252  -8.6088    227.3513    158.9822   6.4937913433e+01   4.9029106440e+00    0.2832212    0.1863435 -51.15  0.001038946    1.752    0.429
       253  -8.1971    237.1674    158.8333   6.3216721560e+01   3.2608319836e+00    0.1854785    0.1425374 -12.04 0.0004919841    1.282    0.220
       254  -8.2200    128.0245    158.9877   8.6526293191e+01   2.3946548699e+01    0.2425881    0.1886243  80.33  0.000678706    1.679    0.405
       255  -9.6612    105.7461    157.8335   9.2135003036e+01   2.8301810995e+01    0.5004941    0.3578429 -87.67  0.001114254    1.856    0.461
       256  -8.3152    196.6310    158.0730   7.0541337118e+01   1.0681464253e+01    0.2327794    0.2035991  59.59 0.0006946955    1.380    0.275
       257  -8.2709    188.1384    157.8942   7.2245913973e+01   1.2354736043e+01    0.2175153    0.1988918 -62.68 0.0005035163    1.271    0.214
       258  -9.2288    167.5969    157.3654   7.6602763815e+01   1.6520202173e+01    0.3339385    0.2781316 -85.20  0.001061208    1.602    0.376
       259  -8.4609    218.0269    156.6082   6.6107367574e+01   6.9728393120e+00    0.2753107    0.1782621 -50.53 0.0009330574    1.724    0.420
       260  -8.8151    157.4561    155.8056   7.8598594532e+01   1.8882941423e+01    0.3718166    0.2371145 -50.49  0.001625778    1.627    0.385
       261  -9.5358    119.6550    155.4650   8.7959422766e+01   2.6348741713e+01    0.4417266    0.3081467 -88.92    0.0018323    2.159    0.537
       262  -9.2929     49.5863    155.2118   1.0714026742e+02   3.7262247360e+01    0.4444549    0.2466776  77.59   0.00150292    2.487    0.598
       263  -8.5921    144.7563    155.1445   8.1504711217e+01   2.1566297831e+01    0.3734701    0.2350676  61.46  0.001161719    2.183    0.542
       264  -9.3748     81.7393    154.8038   9.8127982374e+01   3.3002168084e+01    0.4769258    0.2983699  76.55  0.001390602    2.347    0.574
       265  -7.9816    204.8066    155.3742   6.8333062219e+01   9.6419148038e+00      0.19316    0.1673632 -40.68 0.0003886571    1.156    0.135
       266  -9.6830    133.0495    153.0790   8.3981443826e+01   2.4344632270e+01    0.4853144    0.3510995  76.12  0.001225018    1.993    0.498
       267  -9.2477    133.5740    148.2201   8.2773617584e+01   2.5360968283e+01    0.3523762    0.2519816 -34.26  0.001177601    1.509    0.337
       268  -9.3334     68.1213    153.9039   1.0177346611e+02   3.5215227392e+01      0.48015    0.2714246  67.82  0.001222015    2.575    0.612
       269  -7.9459    232.8436    154.2356   6.2984860049e+01   4.7783308498e+00    0.2061418    0.1449915 -73.59 0.0006110183    2.717    0.632
       270  -8.5868    151.7607    152.7742   7.9278262725e+01   2.0690418913e+01    0.2096878    0.1854542  89.80 0.0006425079    1.353    0.261
       271  -8.6624      8.5301    153.3205   1.1795503498e+02   4.1646998769e+01    0.1928739    0.1172294  23.43   0.00108026    1.990    0.498
       272  -9.8401     29.4306    150.7949   1.1210023817e+02   4.0505540881e+01    0.4903303    0.2328555  64.87  0.001888595    2.858    0.650
       273  -9.4907    248.8420    149.4571   5.9379460538e+01   2.9025760549e+00    0.3059833    0.1797531 -37.57 0.0007693583    1.444    0.307
       274  -9.0537    247.0465    143.9968   5.8522758877e+01   4.1034786890e+00    0.2525971    0.1593973 -35.45 0.0004976268    1.341    0.254
       275  -8.7445    189.4095    150.3674   7.0307486542e+01   1.3594256662e+01    0.2845142    0.2334902 -72.44 0.0006715578    1.597    0.374
       276  -8.0304    182.2412    151.2344   7.2009189955e+01   1.4852079221e+01    0.2012511    0.1767098 -72.10 0.0006550484    1.384    0.278
       277  -8.2293    162.9303    150.9627   7.6238531665e+01   1.8819067105e+01    0.2447485    0.1943568  89.53   0.00112312    1.774    0.436
       278  -8.7737     98.3391    150.9287   9.2779356095e+01   3.1266035896e+01    0.2862813    0.2424644  72.56 0.0008543577    1.296    0.229
       279  -8.5872    243.1980    149.7948   6.0341123381e+01   3.7778023203e+00    0.2418832     0.153266 -42.04 0.0009480335    1.437    0.304
       280  -8.0210    212.8657    149.8077   6.5581951709e+01   9.1618607934e+00    0.1848395    0.1621902 -55.66  0.000329958    1.296    0.228
       281  -9.8791     39.9691    147.9551   1.0878836316e+02   4.0156308790e+01    0.5567282    0.2812608  66.53  0.002002324    2.829    0.647
       282  -9.1320      2.7577    149.8762   1.1913072484e+02   4.2887336766e+01    0.2471309    0.1411755  82.24 0.0009955134    1.672    0.402
       283  -8.4976    198.8341    149.0143   6.8096217868e+01   1.2000071191e+01     0.217637    0.1935225 -63.62 0.0005417817    1.319    0.242
       284 -10.3450     89.0356    146.1881   9.4439042659e+01   3.3989243843e+01    0.7043414    0.4182944 -88.62  0.002527135    3.009    0.668
       285  -9.6343    233.6208    147.6390   6.1453065977e+01   5.7829353195e+00    0.3196518    0.1729382 -38.02  0.001254035    1.619    0.382
       286  -9.0800     78.2853    147.2455   9.7710738795e+01   3.5412770299e+01    0.3602182    0.2206596  79.53 0.0008625883    2.581    0.613
       287 -10.3463     54.9784    144.8686   1.0401706716e+02   3.9210954364e+01    0.7963639    0.4094409  69.88  0.002699042    3.417    0.707
       288  -9.6687     55.2133    136.2220   1.0247119430e+02   4.1360901636e+01    0.5237864    0.2853362   0.08  0.001867106    3.785    0.736
       289  -8.0870    223.3282    146.9981   6.3078216613e+01   7.7356398011e+00       0.1991    0.1627389 -34.61 0.0004414261    1.101    0.092
       290  -8.3833    175.6979    146.3404   7.2309460222e+01   1.7179391210e+01    0.2713333    0.1812066 -53.58 0.0007580247    1.651    0.394
       291 -10.2294    148.8703    144.9098   7.8190369161e+01   2.3018587117e+01    0.5697743    0.4008322 -84.57  0.001477976    2.359    0.576
       292  -9.7873    139.0775    145.0741   8.0660085225e+01   2.4979229324e+01    0.4381592    0.3027996 -73.01  0.001347982    2.047    0.512
       293  -9.3961    139.4139    137.9680   7.8916521211e+01   2.6523465240e+01    0.5128289    0.3428748  -6.30  0.001761319    2.524    0.604
       294 -10.2844    106.5839    144.2417   8.9102583440e+01   3.1445429810e+01    0.7617308    0.5010124 -88.53    0.0021513    2.484    0.597
       295 -10.9573     69.3975    141.0358   9.9126324469e+01   3.8268557441e+01     1.127603    0.7186335 -83.88  0.004959834    1.979    0.495
       296  -9.6927     13.1248    146.3806   1.1603787449e+02   4.2989623259e+01    0.3396804    0.2062743  71.74   0.00112025    1.742    0.426
       297  -8.0751    206.7971    146.3790   6.5962045481e+01   1.0954363435e+01    0.1960448    0.1722484 -43.62 0.0006109512    1.148    0.129
       298 -10.5138    241.5112    142.9710   5.9174716405e+01   5.2134207347e+00    0.6534202    0.3210696 -26.16  0.002784689    2.303    0.566
       299  -9.7674    125.0130    142.7647   8.3772770151e+01   2.8317116867e+01    0.5667428    0.3655275 -79.47  0.001414931    2.637    0.621
       300  -8.0456    194.1829    144.1567   6.7926011316e+01   1.3863236536e+01    0.1962963    0.1778951 -80.19 0.0005067447    1.340    0.254
       301  -8.8541    165.4563    144.0992   7.4082199584e+01   1.9763124491e+01    0.2744801    0.2233207  54.00 0.0006698197    1.338    0.253
       302  -9.7242      2.5289    141.3379   1.1839036026e+02   4.4962564102e+01    0.4742728    0.1987446  81.50  0.001953979    2.974    0.664
       303  -8.2493    182.0359    141.9472   6.9926525896e+01   1.6774312616e+01    0.2297784    0.1868889 -78.82 0.0005932925    1.638    0.390
       304  -8.3848    250.4886    141.0234   5.7376268327e+01   4.0228085366e+00    0.2038358    0.1110277 -38.09  0.000678325    1.542    0.351
       305  -9.9777     23.3495    138.0223   1.1218507886e+02   4.4225984392e+01     0.576867    0.2940429  73.40  0.002146307    2.678    0.627
       306  -8.7287    172.2991    138.3789   7.1198811456e+01   1.9535459443e+01     0.311812    0.2148654 -73.14 0.0008451426    2.280    0.561
       307  -7.5513    218.5206    138.5351   6.2060993510e+01   1.0156221139e+01    0.1422185     0.127959 -37.45 0.0001124356    1.072    0.067
       308  -8.2543    207.6255    138.0890   6.3937581061e+01   1.2349951536e+01    0.2298601    0.1655011 -51.48  0.000813499    1.466    0.318
       309  -8.7737    197.5613    137.6148   6.5752522929e+01   1.4453503586e+01    0.2838788    0.2241043 -57.06 0.0009565732    1.412    0.292
       310  -8.9380    192.0163    136.7260   6.6646526553e+01   1.5759186528e+01    0.2033534    0.1911759  26.46 0.0008762143    1.107    0.097
       311  -8.2282    162.5025    136.4948   7.2964215961e+01   2.2002299608e+01    0.2557761    0.1456617 -53.72 0.0007072726    1.976    0.494
       312 -10.4352     83.3935    132.8335   9.3321917628e+01   3.8212893332e+01    0.5983991    0.3419487 -69.54  0.001333286    2.121    0.529
       313  -9.1123     39.3214    136.3228   1.0725123817e+02   4.3143228391e+01    0.2796906    0.1960877  67.94 0.0008497962    1.627    0.386
       314  -9.0127    248.3783    135.2155   5.6476962873e+01   5.3393914826e+00    0.2653361    0.1833002 -42.53  0.000625979    1.284    0.221
       315  -8.4439    246.8623    130.2088   5.5644260412e+01   6.4340787757e+00    0.2265292    0.1557134 -43.48 0.0005208313    1.292    0.226
       316  -9.2695    151.8937    135.8186   7.5308786140e+01   2.4395289235e+01    0.4100017    0.2058021  34.08  0.001487564    2.341    0.573
       317  -8.5522    237.5169    133.5291   5.7786744565e+01   7.5244204286e+00      0.23433    0.1108013 -46.31 0.0006253286    2.042    0.510
       318 -10.0321    132.3882    131.5273   7.9177335513e+01   2.9436951091e+01    0.6343697    0.4376574 -86.41  0.001261601    2.454    0.592
       319  -8.9694    134.2607    124.8768   7.7038112426e+01   3.0554590174e+01    0.4069706    0.2079467  28.54  0.001374005    2.796    0.642
       320  -9.1960    112.8833    133.4036   8.4907324791e+01   3.2879723600e+01    0.3586678    0.2565939  70.28 0.0009381574    1.904    0.475
       321  -9.4143    143.0869    131.7667   7.6493111874e+01   2.7150977476e+01    0.3908944    0.2640478 -65.60 0.0008704613    1.921    0.479
       322 -10.3707     98.1696    130.2342   8.8372294951e+01   3.6356849138e+01    0.7462969    0.3941889 -55.79   0.00170564    1.895    0.472
       323  -8.5830     98.8220    120.7901   8.5929768396e+01   3.8512662877e+01    0.4202273    0.2556158  -5.49   0.00135599    3.686    0.729
       324  -9.1343    250.6352    129.7699   5.4997274744e+01   5.8555950341e+00     0.425869    0.1071246 -38.28  0.001448986    3.319    0.699
       325  -9.3167    168.3429    129.6217   6.9969506126e+01   2.2202372536e+01    0.3407234    0.2599795 -71.87 0.0007167289    1.711    0.416
       326  -9.5929    152.9798    129.0448   7.3391723651e+01   2.5640414234e+01    0.4523937    0.2723969 -56.42 0.0009452672    1.931    0.482
       327 -10.0457     73.0239    129.2397   9.5698137043e+01   4.0698984705e+01    0.4486257    0.3172145 -84.91  0.001340484    1.768    0.434
       328 -10.3102     12.8749    128.8851   1.1407775981e+02   4.7301940731e+01    0.5873959     0.291044 -89.93  0.002672253    2.263    0.558
       329  -7.5422    220.6697    130.2713   5.9835450645e+01   1.1237873230e+01    0.1353456    0.1092354 -72.51 0.0004249114    1.587    0.370
       330  -8.1712    204.4967    130.0877   6.2680963688e+01   1.4481443161e+01    0.2289033    0.1347278 -41.57 0.0009823974    1.573    0.364
       331  -8.4705    192.8620    130.1738   6.4936032372e+01   1.6865485803e+01    0.2246875    0.1986349 -60.95 0.0005538997    1.229    0.186
       332  -7.9843      1.6435    130.2730   1.1750859766e+02   4.7696213787e+01    0.1241807   0.08150257  65.23 0.0007001652    1.646    0.392
       333  -7.8555    211.9497    129.4768   6.1179579695e+01   1.3094438566e+01     0.184582    0.1299206  82.89 0.0008063002    2.348    0.574
       334  -8.4249    186.5126    129.5157   6.6056166587e+01   1.8331428710e+01    0.1509485    0.1430397 -44.61 3.614684e-05    1.058    0.054
       335 -10.5642     59.9399    124.9906   9.8891845878e+01   4.3578049286e+01    0.8014125    0.4703115  80.98  0.002600444    3.061    0.673
       336  -8.8596     60.0531    115.0760   9.6772324461e+01   4.6017834892e+01    0.5371529    0.2950175 -17.04  0.001882678    3.573    0.720
       337 -10.7527     44.8419    123.4230   1.0337101758e+02   4.5785990626e+01     1.146531    0.6017156  79.06  0.003927416    3.956    0.747
       338 -10.0493    118.0362    125.4030   8.1540398472e+01   3.3759959412e+01     0.612699    0.3939933  70.48  0.001449746    2.561    0.610
       339  -8.4232    179.4804    133.8685   6.8565784231e+01   1.8947242584e+01    0.2915944    0.2018797 -59.38  0.001004047    1.731    0.422
       340  -8.0881    228.3640    125.2100   5.7421705987e+01   1.0660497230e+01    0.2063152    0.1134422 -46.25 0.0009017154    1.715    0.417
       341  -8.7846    179.1252    124.8565   6.6458451893e+01   2.0844866015e+01    0.2723965    0.2354876 -64.76 0.0006663265    1.279    0.218
       342 -10.3970     28.3419    122.5255   1.0844267018e+02   4.7644358464e+01     0.690231    0.3517927  75.44  0.002661635    3.323    0.699
       343  -8.2147    188.4869    124.0371   6.4336007800e+01   1.8989846370e+01    0.2286029    0.1416686 -42.81  0.000498951    1.533    0.348
       344  -9.0683    158.7168    121.7064   7.0193010737e+01   2.5960527028e+01    0.4111488    0.2934576 -73.18  0.001034409    1.991    0.498
       345  -8.6811     85.2763    122.4599   9.0431270328e+01   4.0458048771e+01    0.4851608    0.2614911  13.98  0.001627886    3.443    0.710
       346  -7.6808    203.3354    122.1630   6.1036951844e+01   1.6209783594e+01    0.2103551    0.1237546 -47.36 0.0004457789    1.665    0.400
       347  -7.9777    195.1961    122.2203   6.2580998320e+01   1.7910655037e+01    0.2012825    0.1690357 -64.49 0.0003980907    1.330    0.248
       348  -8.8866    172.0878    121.6946   6.7181067713e+01   2.3020265184e+01    0.2567191    0.2060857 -53.76 0.0004826385    1.290    0.225
       349  -9.9885    131.2526    118.9553   7.6314302382e+01   3.2516333248e+01    0.5761153    0.3944567  82.80   0.00217506    2.537    0.606
       350  -9.5561     71.2789    119.9937   9.4240313415e+01   4.3244378105e+01    0.4344888    0.2843199 -79.89  0.001210667    2.040    0.510
       351  -9.9853    141.5195    118.6570   7.3581626374e+01   3.0380318332e+01    0.4790601    0.3259341 -68.04  0.001127193    2.015    0.504
       352  -9.9630      3.0589    117.1931   1.1558335077e+02   5.0778953355e+01    0.5458751    0.2666138  74.09  0.002358829    2.783    0.641
       353  -7.9416    231.5637    117.7866   5.5260139157e+01   1.1340254747e+01    0.1981828     0.114041 -47.71 0.0009298272    1.648    0.393
       354  -8.0908    185.6663    116.1534   6.2967095823e+01   2.1138505641e+01    0.2371958    0.1771595 -55.45 0.0005521572    1.422    0.297
       355  -9.9271    109.1921    114.2500   8.1213681495e+01   3.8089983981e+01    0.5180504    0.3531096 -71.78  0.001486324    2.040    0.510
       356 -10.7574    248.4480    108.1293   5.0703357918e+01   9.7983795756e+00     0.474639     0.323076 -41.64  0.002660162    1.236    0.191
       357 -10.2077    249.3576    102.6453   4.9408073295e+01   1.0519690568e+01     0.405115    0.2462586 -35.42  0.002139477    1.444    0.307
       358  -8.3615    192.8302    115.1079   6.1308401263e+01   1.9776347207e+01    0.2291151    0.1937717 -61.16 0.0005571608    1.259    0.206
       359 -10.1521     92.7674    112.6036   8.5711840160e+01   4.1540656485e+01    0.5879733    0.3505308 -65.43  0.001237647    2.137    0.532
       360  -8.9548     93.3405    104.8421   8.3494343805e+01   4.3242910467e+01    0.6941226    0.2858479  25.45  0.001920509    4.652    0.785
       361 -10.0041     78.8908    112.4575   9.0043363933e+01   4.3912099857e+01    0.6280896    0.4160974 -86.55  0.002547408    2.474    0.596
       362  -8.7805     78.7441    104.9956   8.8209636796e+01   4.5706376823e+01    0.4532407    0.2809926   5.12  0.001782688    2.600    0.615
       363  -7.8149    167.4734    114.5318   6.6375279417e+01   2.5498870839e+01    0.1540941    0.1487417 -55.21 0.0008088275    1.044    0.042
       364  -8.6709     26.8399    113.6536   1.0746346668e+02   4.9964203874e+01    0.1973041    0.1557737 -27.09 0.0006596596    1.392    0.281
       365 -10.1230    133.5672    109.0264   7.3071400082e+01   3.4199071349e+01    0.7462921    0.3097744 -47.94  0.002193583    2.478    0.596
       366  -9.6356    121.8813    112.6434   7.7189360754e+01   3.5893430264e+01    0.3586215    0.2922861  82.43 0.0005708067    1.576    0.365
       367 -10.4225    118.9996    106.5377   7.6339720792e+01   3.7847703734e+01    0.7374925     0.303721 -51.93  0.002445794    2.740    0.635
       368 -10.5637    108.9687     98.8929   7.7085830659e+01   4.1578433265e+01     0.802584    0.4929454  69.47  0.001664825    3.043    0.671
       369  -9.2649    108.3513     92.3856   7.5382316109e+01   4.3097670194e+01    0.6466908       0.3351  24.64   0.00216532    3.151    0.683
       370  -8.6105    174.7361    111.8793   6.4131570684e+01   2.4401445150e+01    0.2853162    0.1984328 -55.93  0.000557191    1.578    0.366
       371  -8.5587    159.3043    111.8590   6.7517073405e+01   2.7877981115e+01    0.2877873    0.2262745 -67.57 0.0007376614    1.510    0.338
       372 -10.2411     66.3850    109.7101   9.3459036702e+01   4.6457264166e+01    0.6606819    0.3228314 -61.32  0.001883607    2.132    0.531
       373 -10.1118     13.9827    110.8504   1.1123404843e+02   5.1634032493e+01     0.444698    0.2587539  85.51  0.001865512    2.080    0.519
       374  -7.6425    182.7291    109.3911   6.1859311225e+01   2.3095851503e+01    0.1584639    0.1145765 -66.72 0.0006524588    1.721    0.419
       375  -9.3207     43.3825    109.4609   1.0113762041e+02   4.9395478987e+01    0.3348728    0.1435949  22.48  0.001352978    2.795    0.642
       376  -7.8868    189.2796    107.9975   6.0227284112e+01   2.1901997609e+01     0.213699     0.180591 -42.83 0.0004144885    1.122    0.108
       377  -9.1090    109.7985    107.2253   7.9162986056e+01   3.9569072935e+01    0.4032604     0.243239  18.52  0.001492733    2.557    0.609
       378 -10.7067     23.0095    102.7280   1.0682438703e+02   5.2935844552e+01    0.7930353     0.436591  73.88  0.002608226    3.100    0.677
       379  -9.2868    139.7888    104.6331   7.0272310069e+01   3.3760179648e+01    0.4030012    0.2961899 -73.34 0.0009473831    1.857    0.461
       380 -10.6076     45.6103    102.3509   9.8843032524e+01   5.0871918192e+01    0.7935869    0.4667892  69.83  0.003132956    3.212    0.689
       381  -9.5685     46.2674     92.5665   9.6308534820e+01   5.3110967267e+01    0.4837213    0.2766993   2.48  0.002101643    2.524    0.604
       382  -8.5427    166.7872    104.2777   6.3851431307e+01   2.7700922717e+01    0.2647522    0.2007078 -53.05 0.0005865232    1.365    0.267
       383  -9.5154    150.5396    103.1062   6.7221416238e+01   3.1649746174e+01       0.4517    0.3000162 -63.96  0.001058407    1.985    0.496
       384  -9.4424      6.5889    102.8540   1.1247870699e+02   5.4023453192e+01    0.2859707     0.184992  60.79  0.001238146    1.942    0.485
       385  -7.8387    175.5235    102.0139   6.1418378934e+01   2.6139854344e+01    0.2293154    0.1451381 -41.88 0.0004448155    1.524    0.344
       386  -8.3459    159.8444    101.0813   6.4525654089e+01   2.9923448116e+01    0.2423184    0.2013669 -67.36 0.0005083987    1.353    0.261
       387  -9.3133     81.9782     99.8717   8.5788609928e+01   4.6363242410e+01    0.3871616    0.2735487 -74.31 0.0008048856    1.950    0.487
       388 -10.1603     63.8837     95.7304   9.0814775926e+01   5.0117528084e+01    0.6470088    0.4125055 -81.44  0.001674554    2.707    0.631
       389  -8.7925     64.8642     87.5784   8.8241744646e+01   5.1827680958e+01    0.4881481    0.2184638  20.92  0.001728451    3.299    0.697
       390  -9.4671     94.8818     96.9578   8.0825786864e+01   4.4737756071e+01    0.4820139    0.2377568 -52.41 0.0009021889    2.133    0.531
       391  -8.9624     95.0581     90.9075   7.9015930639e+01   4.6024556664e+01    0.2573047    0.2433824 -31.01 0.0008886442    1.039    0.038
       392  -9.4835    248.7434     95.8791   4.8038044275e+01   1.1716396219e+01    0.2150934    0.1781522  44.65  0.001321642    1.467    0.318
       393  -8.6402    188.8686     93.8743   5.6727345801e+01   2.4597112204e+01    0.2098181    0.1692364 -63.35 0.0006270226    1.313    0.238
       394  -8.2049    164.8579     94.0832   6.1531396339e+01   3.0113038165e+01    0.2363134    0.2001623 -71.21  0.000584549    1.313    0.238
       395  -9.5837    128.3775    102.1934   7.2562220368e+01   3.6789835523e+01    0.3277333    0.2691724 -66.96 0.0007491198    1.413    0.293
       396  -8.1919    176.2617     93.2474   5.8963369476e+01   2.7613558756e+01    0.2103582    0.1701869 -68.84 0.0007279867    1.381    0.276
       397  -9.2176    138.9490     92.3315   6.7023466792e+01   3.6455124130e+01     0.360388    0.2704218 -81.71 0.0006933204    1.881    0.468
       398 -10.1982    123.9274     91.2376   7.0618478981e+01   4.0036848381e+01    0.6209857     0.420069  36.69  0.001536874    1.544    0.352
       399  -9.7557      5.1938     92.1983   1.1127175238e+02   5.6619944604e+01    0.3490092    0.2245354  59.80  0.001542968    2.059    0.514
       400  -8.0420    157.8450     91.7668   6.2418856332e+01   3.2189934087e+01     0.209867    0.1785169 -76.39 0.0003775859    1.339    0.253
       401  -9.7508     34.6997     89.9131   9.9944160419e+01   5.4951008641e+01     0.455825    0.2721142 -82.44  0.001808059    2.486    0.598
       402  -9.1791     22.8287     90.2621   1.0444853721e+02   5.5909494903e+01    0.2781968    0.2129735 -16.10 0.0009715061    1.416    0.294
       403  -8.0264    150.8355     89.0325   6.3232343376e+01   3.4347652457e+01    0.2461213    0.1660847 -61.99 0.0004722053    1.861    0.463
       404  -9.9330     86.4231     86.7358   8.0564016416e+01   4.8505512558e+01    0.4850744     0.363868  89.93  0.001231464    2.183    0.542
       405  -9.1261     87.5043     80.9072   7.8422126745e+01   4.9532773848e+01    0.6932179    0.3011376  23.76  0.001901608    5.098    0.804
       406  -9.3910    248.8416     87.7360   4.6281463447e+01   1.2980171197e+01     0.193236    0.1697782  26.26  0.001213609    1.480    0.324
       407  -7.6678    174.2863     88.6778   5.8135074413e+01   2.8907845485e+01    0.1531435    0.1148568 -70.32 0.0007004539    1.599    0.375
       408  -7.8374    188.2913     87.2951   5.5139407543e+01   2.5896263806e+01    0.1415237    0.1165409  12.22 0.0002458979    1.555    0.357
       409  -8.2551    164.3765     87.2107   5.9749380978e+01   3.1504839003e+01    0.2140851    0.1359092 -48.50 0.0003308447    1.613    0.380
       410  -9.9770     48.5820     83.8819   9.3201471068e+01   5.4823931949e+01    0.6356986    0.4276308 -80.15  0.002479475    2.276    0.561
       411  -7.5271    179.2893     85.6365   5.6357838956e+01   2.8279550656e+01    0.1568943    0.1115747 -67.58 0.0005218905    1.698    0.411
       412  -9.7629    104.7748     83.1894   7.3674406976e+01   4.5723513541e+01    0.4602576    0.3241611 -68.31  0.001018785    2.063    0.515
       413  -8.4431    157.9450     84.0985   6.0248469853e+01   3.3592545870e+01    0.2295566    0.2001966 -71.51 0.0004586595    1.246    0.197
       414  -9.1922    140.8103     82.2981   6.3640835625e+01   3.7953446639e+01    0.4864036     0.199607 -42.74  0.001301382    2.453    0.592
       415  -8.7812     63.8923     82.5452   8.7141127113e+01   5.3078089119e+01    0.2700146    0.1831388 -65.17 0.0007032864    1.850    0.460
       416  -9.7765      9.8160     81.0683   1.0750487960e+02   5.8930336439e+01    0.3490358     0.211643  64.22  0.001523238    2.577    0.612
       417  -7.6277    185.3203     82.6723   5.4468068834e+01   2.7387017528e+01    0.1544246    0.1105511 -70.69 0.0006974407    1.686    0.407
       418  -7.9105     35.4705     82.4815   9.7847048093e+01   5.6580072695e+01    0.1365078    0.1132538 -38.81 6.861111e-05    1.037    0.035
       419  -9.7796     24.7063     80.6733   1.0160114188e+02   5.7966200379e+01    0.4499114    0.2956392 -85.76  0.001461485    2.135    0.532
       420  -8.3509    150.1673     80.4718   6.0925641926e+01   3.6091397766e+01    0.3021102    0.1872548 -54.88 0.0007340544    1.886    0.470
       421  -9.0496    119.3890     80.1395   6.8512022709e+01   4.3223162702e+01    0.4012008    0.2475293 -44.48   0.00106299    1.658    0.397
       422  -8.9987     74.4208     80.0047   8.2606007841e+01   5.1989952111e+01    0.4287648    0.2340876 -61.21  0.001169096    2.622    0.619
       423  -8.3458    166.8777     79.6870   5.7152613196e+01   3.2257790305e+01    0.2527587    0.1977743 -28.48 0.0005244566    1.360    0.265
       424  -7.7937    184.3298     78.2294   5.3476249802e+01   2.8374908729e+01    0.2109172    0.1246083 -45.25 0.0004324153    1.644    0.392
       425  -7.8371    174.5428     78.0372   5.5209558227e+01   3.0719344372e+01    0.2256708    0.1411886 -39.95  0.000977697    1.564    0.361
       426  -9.3688    128.1292     75.4066   6.4715191136e+01   4.2148482027e+01    0.3860586    0.2716093 -62.32 0.0007665916    1.839    0.456
       427  -8.7254    105.9260     76.9119   7.1358382786e+01   4.6723874685e+01    0.3656818    0.1848117  26.07  0.001223869    3.207    0.688
       428  -7.5642    189.3007     76.6637   5.2207924465e+01   2.7473409149e+01    0.1522399    0.1066521 -67.74 0.0004333408    1.660    0.398
       429  -8.1710    157.1689     76.2483   5.8177875478e+01   3.5174589560e+01    0.2111206    0.1743439 -74.59 0.0005601005    1.378    0.274
       430  -8.3546    140.3330     75.3843   6.1692066426e+01   3.9323696746e+01    0.2544425    0.1731996 -56.19 0.0008235734    1.720    0.419
       431 -10.1255     63.0503     73.3490   8.4650070089e+01   5.5154187597e+01    0.5747748    0.2759094 -54.22  0.001129832    2.312    0.568
       432  -9.7132     82.4665     72.7344   7.7502175827e+01   5.2091937686e+01    0.4300271    0.2914354 -62.70  0.001114518    2.080    0.519
       433  -8.5690     82.2610     66.7242   7.5568143746e+01   5.3288142320e+01    0.4403489    0.2476237  -9.10   0.00149018    3.715    0.731
       434  -8.1849    163.4012     73.2447   5.6040793537e+01   3.4195746003e+01    0.2099866    0.1338645 -47.51 0.0007954637    1.607    0.378
       435  -8.8923    115.7186     72.7345   6.7198166385e+01   4.5415975744e+01     0.291263    0.1958351 -47.70 0.0007178718    1.602    0.376
       436  -8.2670     42.4291     72.7641   9.2462812435e+01   5.7982580498e+01    0.2522916    0.1240832 -57.41 0.0009364115    2.067    0.516
       437  -7.6301    175.4819     72.5580   5.3543008130e+01   3.1416123417e+01    0.1449789    0.1389667 -81.26 0.0001248986    1.006    0.006
       438  -9.1464    105.8602     71.7131   6.9701891972e+01   4.7720650514e+01    0.2740195    0.2106057 -48.17 0.0005915859    1.402    0.287
       439  -9.3052     95.0835     70.9433   7.2756218551e+01   5.0060091821e+01    0.4105014    0.2394933 -53.15 0.0008378043    2.109    0.526
       440  -9.4841     28.4683     71.0337   9.7648474571e+01   5.9780336393e+01    0.3976383    0.1927978 -19.32  0.001647501    2.963    0.662
       441  -7.7340    170.3328     71.2903   5.4148766886e+01   3.2857742117e+01    0.1476069    0.1142211  24.79 0.0004332038    1.630    0.386
       442  -9.4947     51.3907     69.4753   8.7905798308e+01   5.7581594415e+01    0.4596476    0.2730234 -66.56  0.001572917    2.580    0.612
       443  -9.5588     16.5434     69.0041   1.0208183877e+02   6.1184220474e+01    0.5724309    0.2027841 -63.06  0.002368193    2.691    0.628
       444  -8.6457    147.0883     68.3472   5.8031767828e+01   3.8934893247e+01    0.2799865    0.2081458 -46.69 0.0005852817    1.394    0.283
       445  -8.3418    138.8253     66.3264   5.9283249006e+01   4.1240565894e+01    0.2533262    0.1949582 -50.55 0.0007239528    1.395    0.283
       446  -8.7079    121.5399     65.9160   6.3425114214e+01   4.5325114411e+01    0.2722353    0.2288021 -83.56 0.0007234499    1.506    0.336
       447  -8.6257      6.9764     66.0507   1.0540871471e+02   6.2435609001e+01    0.2431562   0.06792869 -45.66  0.001011524    2.600    0.615
       448  -7.2252    163.6732     65.6929   5.3840400722e+01   3.5372347232e+01    0.1486454    0.1134596  24.45 0.0005398378    1.653    0.395
       449  -8.8802    110.4071     63.9085   6.5804008540e+01   4.8144669196e+01     0.281659    0.2281127 -61.51 0.0009391199    1.524    0.344
       450  -9.2410     37.1981     64.2761   9.2058126853e+01   6.0347133468e+01    0.3002016    0.2227956 -73.88  0.001089368    1.908    0.476
       451  -8.7755     64.6700     63.2098   8.0702183473e+01   5.6930137344e+01    0.3900428    0.2347762   9.29  0.001714977    2.283    0.562
       452  -8.1635     51.3860     62.7451   8.5730588572e+01   5.8944280278e+01    0.2017477    0.1081859 -36.78 0.0007279743    1.742    0.426
       453  -7.9903    158.2277     61.9677   5.3824054741e+01   3.7281259998e+01    0.1979895    0.1855458 -46.44 0.0003757881    1.089    0.082
       454  -9.4133     97.7076     60.5477   6.8412579393e+01   5.1409340692e+01     0.313529    0.2766428  70.93 0.0008251054    1.402    0.287
       455  -9.5797     73.3902     59.6251   7.6224471989e+01   5.6171307359e+01    0.3864339    0.2508067 -52.30   0.00124251    1.864    0.463
       456  -7.7023    157.0240     69.9864   5.6400052401e+01   3.6275442583e+01    0.1745204    0.1702486 -60.42 0.0003906756    1.032    0.031
       457  -8.4093     88.9499     59.7262   7.0905172935e+01   5.3301240572e+01    0.2386138    0.1811125 -50.27  0.000670678    1.533    0.348
       458  -7.7837    146.7968     58.9997   5.5268613892e+01   4.0511121554e+01    0.1933782    0.1165623 -34.17 0.0006216819    1.723    0.420
       459  -9.7581      7.5041     57.3223   1.0302380624e+02   6.4263279869e+01    0.2853786    0.2084277 -84.71  0.001111649    1.870    0.465
       460  -9.0494    130.7421     57.2559   5.8320692615e+01   4.4614459388e+01    0.3009433    0.1723424 -38.41  0.001098415    1.804    0.446
       461  -9.9816     23.3797     56.3772   9.5612778860e+01   6.3305357424e+01    0.4040572    0.2843797 -88.10  0.001782267    2.602    0.616
       462  -9.1977    119.1475     55.4541   6.0601457548e+01   4.7584403961e+01    0.4379724    0.2354719 -44.36  0.001752079    2.052    0.513
       463  -7.5307    193.6988     56.6960   4.6352701275e+01   2.9559101650e+01    0.1330102    0.1084037  26.99 0.0003316913    1.592    0.372
       464  -8.2712    140.1411     56.1980   5.5837526472e+01   4.2543610842e+01    0.1974991    0.1688435 -72.17 0.0004047233    1.323    0.244
       465  -9.4891     62.9117     53.3488   7.7870782103e+01   5.9029348811e+01    0.7235931    0.2162645 -41.89  0.002218088    3.215    0.689
       466  -9.1734     54.0861     53.8420   8.1543858966e+01   6.0269641275e+01      0.45809    0.2392485 -58.91  0.001554154    3.292    0.696
       467  -8.7398     44.0547     55.3885   8.6251487499e+01   6.1320595678e+01    0.2739343    0.1729169 -53.59  0.001039729    1.757    0.431
       468  -8.5106    105.7833     53.2745   6.3480125363e+01   5.0902474286e+01    0.2509359    0.2140209  89.48 0.0007054011    1.547    0.353
       469  -9.4414     92.3473     50.4381   6.6481968753e+01   5.4171686361e+01    0.4342043     0.222812 -44.47  0.001564169    2.219    0.549
       470  -8.1722     74.8334     51.4199   7.2721059919e+01   5.7355501726e+01    0.1958736     0.120831  27.52 0.0007054727    1.680    0.405
       471  -8.5024    144.8280     49.1663   5.2656388526e+01   4.2448921050e+01    0.1936706     0.166055  17.36 0.0005585649    1.326    0.246
       472  -8.0243    129.9471     49.0509   5.5840606726e+01   4.6034465645e+01    0.2209767    0.1690494 -69.47 0.0005163164    1.665    0.399
       473  -8.7838    121.0376     47.4058   5.7409937118e+01   4.8357766066e+01    0.2491515    0.2025179 -40.58 0.0005066369    1.323    0.244
       474  -8.2909    112.1561     46.9223   5.9505528133e+01   5.0455130068e+01    0.2054811    0.1895893 -77.01  0.000539403    1.287    0.223
       475  -9.1291     82.0441     46.4117   6.8331356193e+01   5.6834251098e+01    0.3026252    0.2115095 -41.57 0.0008333939    1.567    0.362
       476  -8.4928     45.0354     44.5671   8.1873682915e+01   6.3174198454e+01     0.221676    0.1710051 -50.26 0.0005648463    1.565    0.361
       477  -9.5373     16.5928     44.4836   9.4954479291e+01   6.6210543061e+01    0.2470969    0.1868996 -53.20 0.0008846615    1.383    0.277
       478  -8.6519    132.7091     43.4087   5.3377025046e+01   4.6166774811e+01    0.2393851    0.1660742 -45.41 0.0006053582    1.581    0.367
       479  -9.2685     69.5844     41.4787   7.0801938037e+01   5.9885065443e+01    0.3259894    0.2369047 -49.39  0.001239705    1.767    0.434
       480  -8.8994     58.1632     42.5505   7.5612292071e+01   6.1614705884e+01    0.2801099    0.2022926 -56.60  0.001340462    2.044    0.511
       481  -9.6803      5.0931     41.6985   9.9695877938e+01   6.7550371408e+01    0.3613943     0.213594 -73.76  0.001800141    2.557    0.609
       482  -8.7013    106.0053     41.4588   5.9208380541e+01   5.2599900085e+01    0.2511571    0.1879269 -49.33 0.0006770325    1.602    0.376
       483  -7.5932    140.4358     41.4655   5.1133553526e+01   4.4567930894e+01    0.1391428    0.1307787  72.02 0.0001262983    1.047    0.045
       484  -8.6979     36.7405     40.5900   8.4019561532e+01   6.4911650818e+01    0.2696591    0.1658808 -50.99 0.0008243392    1.886    0.470
       485  -8.5832     95.3500     37.8967   6.0897061972e+01   5.5391113998e+01    0.2439703     0.201074 -56.58 0.0009770229    1.570    0.363
       486  -9.4485     26.2405     35.4809   8.6966840324e+01   6.6967769017e+01    0.3104944    0.2043229 -53.91 0.0008703995    1.868    0.465
       487  -8.6003     92.8957     42.5234   6.3377822805e+01   5.5256437698e+01    0.2342282    0.1801784   8.23 0.0008241981    1.378    0.274
       488  -8.4755    125.8411     35.8332   5.2367174040e+01   4.8786841682e+01    0.2051793    0.1737849  35.77 0.0004027342    1.154    0.134
       489  -8.7006    111.6912     34.3857   5.5178119725e+01   5.2254617813e+01    0.2361904    0.1598208 -41.44 0.0006569167    1.663    0.399
       490  -8.5322     80.5226     36.6418   6.5045072433e+01   5.8571575183e+01    0.2475752    0.1786517 -58.64 0.0007474277    2.156    0.536
       491  -8.9906     48.5437     33.3222   7.5813123205e+01   6.4527214749e+01    0.2446043    0.2080609 -37.93 0.0007364659    1.412    0.292
       492  -8.7403     60.8436     32.6479   7.0495706630e+01   6.2696936649e+01    0.2273066    0.1775059 -34.00 0.0006233431    1.387    0.279
       493  -8.7178     72.0750     31.0048   6.5642600814e+01   6.0943535775e+01    0.2953031     0.170866 -37.10   0.00135101    1.865    0.464
       494  -7.5122    139.3517     31.6726   4.8232105186e+01   4.6054465196e+01    0.1439472      0.10222 -72.63 0.0007047821    1.765    0.433
       495  -9.0404     12.8908     30.3721   9.1722903769e+01   6.9087473332e+01    0.2657208    0.1554265 -52.72   0.00105869    1.806    0.446
       496  -8.5338    101.7388     29.6390   5.5988496156e+01   5.5064535501e+01    0.2455897    0.1647746 -54.39  0.001012837    2.068    0.517
       497  -8.5136    119.2111     33.2338   5.2970372050e+01   5.0664582059e+01     0.182748    0.1591926 -67.08 0.0005764574    1.359    0.264
       498  -8.8435     81.4170     27.5505   6.1081647042e+01   5.9590057021e+01    0.2452227    0.2090889 -52.29  0.000781248    1.559    0.359
       499  -9.0192      3.6338     27.6420   9.5644226062e+01   7.0244385291e+01    0.2049719    0.1593662 -55.38 0.0007802098    1.516    0.341
       500  -7.8142    109.7274     27.3481   5.3112125245e+01   5.3543127981e+01    0.1297191    0.1036001 -65.36 0.0003796476    1.627    0.385
       501  -8.6929     91.8828     26.6004   5.7534496917e+01   5.7553139137e+01    0.2354985    0.1852168 -33.64  0.000716669    1.420    0.296
       502  -7.8175    230.5100     26.5179   3.5017416298e+01   2.5281980297e+01    0.1226523    0.1029583 -70.91 9.882897e-05    1.038    0.036
       503  -7.6874    191.3692    249.6626   8.8579102537e+01  -4.2102422262e+00    0.1161391    0.0923748  55.53 0.0007027038    1.846    0.458
       504  -8.9774     63.4865     20.9701   6.4414844592e+01   6.3780411655e+01    0.2717824    0.2025339 -50.13 0.0009946109    1.989    0.497
       505  -9.0333     48.3067     21.6685   7.0763753959e+01   6.6223500743e+01    0.2036747    0.1969344 -33.04 0.0006243093    1.520    0.342
       506  -8.1834    120.5374     21.0358   4.8427637710e+01   5.1726001930e+01    0.1866499   0.09906422 -50.73 0.0008092489    2.537    0.606
       507  -7.5240    112.2884     21.6797   5.0449132123e+01   5.3577417577e+01    0.1274258    0.1020214 -69.99 0.0002504583    1.599    0.375
       508  -8.3023     19.1820     21.2151   8.4547123922e+01   7.0025421125e+01    0.1470276    0.1339676  -6.83   0.00107784    1.389    0.280
       509  -9.0495     73.9637     19.3305   6.0037585453e+01   6.2018524301e+01    0.2453829    0.1703111 -40.45 0.0007401082    1.781    0.439
       510  -8.4349     11.5098     20.0166   8.8183137175e+01   7.0932939416e+01     0.139743    0.1023375 -66.76 0.0008105544    2.594    0.614
       511  -8.2929     87.7518     17.5559   5.5076981096e+01   5.9420460547e+01    0.1977983    0.1528259 -49.41 0.0006612197    1.706    0.414
       512  -8.2812     38.8486     18.3399   7.3402617621e+01   6.8059127642e+01    0.1698641    0.1426745  31.23 0.0008121038    1.416    0.294
       513  -8.0434     34.6523     23.3150   7.7695239397e+01   6.7931017148e+01     0.152391    0.1502233  76.13  0.000965248    1.696    0.410
       514  -9.1030    175.6179    247.9474   9.1405906898e+01  -1.6599357916e+00    0.2862282    0.2186726  66.02  0.001302658    2.126    0.530
       515  -7.6011     17.3349     14.1733   8.2258487112e+01   7.1269319390e+01    0.1495549   0.09522111 -41.77 0.0004702357    1.700    0.412
       516  -7.5619     83.6705     11.3004   5.3635168259e+01   6.0887737248e+01    0.1164357     0.100038 -78.24 0.0007031464    1.644    0.392
       517  -9.1165    146.6904    245.7463   9.6927504369e+01   3.0614295547e+00    0.5303792    0.3157437  69.72  0.002165481    3.892    0.743
       518  -7.7496     47.5629     10.4681   6.5738854625e+01   6.7701404644e+01    0.1207735   0.09816603  11.17 0.0001396626    1.051    0.049
       519  -8.2407     97.1882     15.1865   5.1610305448e+01   5.7627531961e+01    0.1626263    0.1516519 -66.52 0.0004137612    1.333    0.250
       520  -8.5348    147.1152    240.7967   9.6155259785e+01   3.8318455821e+00    0.3660615    0.2347459  70.53  0.001690007    2.901    0.655
       521  -8.9306    132.2408    248.0240   1.0018591598e+02   4.8744952978e+00    0.2710859    0.2005253  74.46  0.000738686    1.836    0.455
       522  -8.3541    113.2559    248.6281   1.0414110069e+02   7.6102692450e+00    0.2033838    0.1464618 -81.38 0.0008412426    1.781    0.438
       523  -9.3951    103.8525    246.7554   1.0584994027e+02   9.3271730676e+00    0.4468534    0.2582291 -86.56  0.002166715    2.733    0.634
       524  -9.0493    242.8542    246.3900   7.8572266776e+01  -1.0638843221e+01    0.3624972    0.1364961 -29.43  0.001778764    2.626    0.619
       525  -8.4432    218.4418    247.8251   8.3177816229e+01  -7.7045851109e+00    0.1975145    0.1097049 -39.76  0.001118919    2.062    0.515
