#   1 NUMBER                 Running object number                                     
#   2 MAG_AUTO               Kron-like elliptical aperture magnitude                    [mag]
#   3 X_IMAGE                Object position along x                                    [pixel]
#   4 Y_IMAGE                Object position along y                                    [pixel]
#   5 X_WORLD                Barycenter position along world x axis                     [deg]
#   6 Y_WORLD                Barycenter position along world y axis                     [deg]
#   7 A_WORLD                Profile RMS along major axis (world units)                 [deg]
#   8 B_WORLD                Profile RMS along minor axis (world units)                 [deg]
#   9 THETA_WORLD            Position angle (CCW/world-x)                               [deg]
#  10 FWHM_WORLD             FWHM assuming a gaussian core                              [deg]
#  11 ELONGATION             A_IMAGE/B_IMAGE                                           
#  12 ELLIPTICITY            1 - B_IMAGE/A_IMAGE                                       
         1 -15.3276    217.9592      5.4686   3.5089347009e+02   3.1191023147e+01     1.922851    0.8612041  89.58  0.009917622    2.303    0.566
         2 -15.0855    246.9442     50.1506   3.5912222074e+02   2.0556082611e+01     1.945384    0.7285373 -32.53  0.009387873    2.144    0.534
         3 -16.0533    233.6779    131.7366   1.7845629308e+01   1.1335241862e+01     2.680438    0.7533192 -41.64   0.01049673    3.077    0.675
         4 -15.4589    242.2240     11.9414   3.5118075137e+02   2.5800258286e+01     1.878031     1.260946 -39.22   0.01275465    1.216    0.178
         5 -17.0505     82.5784      6.7886   6.6375010832e+00   6.3798028430e+01     10.89785     1.257185  62.02   0.02980602    5.009    0.800
         6 -13.3401      7.3981      2.1005   4.4052654405e+01   7.9239537102e+01    0.8059188     0.317528  26.80  0.003718753    2.580    0.612
         7 -13.8237      6.1748     12.6968   5.2490347527e+01   7.7388838559e+01     1.039405    0.5464327  21.77  0.005489703    1.921    0.479
         8 -13.9130     25.3523      2.7268   2.8730156221e+01   7.6596226134e+01     1.656326    0.3830027  45.74  0.005608056    4.300    0.767
         9 -12.1355    155.9857     16.8831   3.5868855610e+02   4.4134786263e+01    0.6477026    0.2316673 -59.43  0.002194825    3.599    0.722
        10 -12.3161    149.3991     15.5317   3.5899081511e+02   4.5923644819e+01    0.3540496    0.2154939  83.01  0.001257064    1.588    0.370
        11 -12.1456    149.8440      9.1049   3.5681405522e+02   4.6466780277e+01    0.4211522    0.2329515 -89.32  0.001503666    1.795    0.443
        12 -15.0733    244.6664     99.4573   9.8353993272e+00   1.4330630894e+01     3.064187      1.09471 -52.04   0.01100722    4.395    0.772
        13 -11.6228    155.6074     10.0128   3.5652906072e+02   4.4941371873e+01    0.4559642    0.2240345 -56.09  0.002085957    1.962    0.490
        14 -15.1959    246.3868     87.6083   7.1660966955e+00   1.5709454907e+01     2.940559    0.4610159 -42.99  0.009164046    4.911    0.796
        15 -12.1398    168.9016      2.3228   3.5302583229e+02   4.2432234378e+01    0.2853592    0.1442534 -68.94   0.00123692    1.904    0.475
        16 -11.1139     61.4984     32.0195   2.7117336589e+01   6.5325764334e+01     0.259374    0.2000935  67.38 0.0008983015    1.562    0.360
        17 -11.2459     21.9831    249.7025   7.8660362749e+01   1.8862910831e+01    0.2056422    0.1323196  67.40 0.0009155396    1.404    0.288
        18 -11.7398     13.4319    249.3132   8.0386311874e+01   1.9709600616e+01    0.2613007    0.1405789  62.33  0.001083653    1.554    0.356
        19 -10.7210      5.0779    250.5217   8.2094270699e+01   2.0218358970e+01    0.1624443   0.08286028  32.63 0.0007206546    1.542    0.351
        20 -10.3759    242.4600    210.5324   3.0716876537e+01  -5.6560542562e-01    0.1085453   0.07862551  -9.22 0.0001200987    1.003    0.003
        21 -10.8080    226.4868    208.6748   3.2878245535e+01   1.3968763442e+00    0.1821298   0.09097501  29.68  0.001080695    1.976    0.494
        22 -14.8072     49.8748    196.2461   6.9209208110e+01   2.6887090376e+01    0.9374396    0.5512056   7.19  0.004361991    2.431    0.589
        23 -10.6492    243.9787    202.4914   2.9209898400e+01   2.5839253891e-01    0.1489798   0.09376398  22.85  0.001028895    1.580    0.367
        24 -10.8751    210.8164    201.9620   3.4362925739e+01   4.1374442542e+00    0.1651758    0.1348305 -55.93   0.00108064    1.998    0.500
        25 -10.5471    229.4979    201.4887   3.1244737938e+01   1.9901590348e+00     0.113503   0.08583007  -9.21 0.0008105833    1.003    0.003
        26 -10.6022    238.0391    199.4821   2.9604858026e+01   1.2858481213e+00    0.1503088   0.09670319  24.13 0.0007136023    1.560    0.359
        27 -10.1794    202.6577    198.2985   3.5163186658e+01   5.6824111937e+00    0.1013052   0.09659533  60.60 0.0007035025    1.669    0.401
        28 -11.3627    247.8524    194.5254   2.7344590143e+01   8.3135048396e-01    0.2381548    0.1553844 -13.96  0.001200218    1.229    0.186
        29 -10.7651    231.7307    194.6169   2.9761991905e+01   2.6382760583e+00    0.1365537     0.099658  31.54 0.0008198422    1.586    0.370
        30 -11.4372    224.8497    193.6843   3.0683950137e+01   3.5791668572e+00    0.2010514    0.1297715 -21.61 0.0008794781    1.302    0.232
        31 -11.6394     69.2425    192.5589   6.3869139100e+01   2.5394223498e+01    0.2971325    0.2099367  79.95  0.001499207    1.561    0.359
        32 -13.2962     32.5728    183.2965   7.2738887470e+01   3.1763318122e+01    0.3582925    0.1977834 -80.21  0.001785632    1.797    0.443
        33 -13.9364     38.2401    190.6269   7.1776358371e+01   2.9449370976e+01     0.476945     0.231368  36.70  0.002307874    1.742    0.426
        34 -12.6073     27.7395    189.7575   7.4461801996e+01   3.0714516588e+01    0.3026008    0.1571799  17.46  0.001430861    2.216    0.549
        35 -11.7473    237.2095    188.9739   2.7977182029e+01   2.7467459241e+00     0.188863    0.1434199   9.37 0.0007736776    1.241    0.194
        36 -11.1728    244.0506    188.3204   2.6856643615e+01   2.0438864841e+00    0.1683304    0.1448824  24.16 0.0009817949    1.511    0.338
        37 -11.3538    230.8398    188.1133   2.8799513679e+01   3.6171546112e+00     0.165478    0.1388475 -21.89 0.0007453125    1.253    0.202
        38 -13.9131     51.0736    184.4214   6.7842429549e+01   2.9486220833e+01    0.4357004    0.2977461  56.28  0.002349805    1.344    0.256
        39 -10.6990    224.4756    184.5118   2.9172970218e+01   4.8964610553e+00    0.1174538   0.09300676 -13.35 2.686992e-05    1.023    0.022
        40 -13.6419     52.3626    202.4900   6.9098937042e+01   2.5211138253e+01    0.3802707    0.3405866  28.38  0.002460562    1.191    0.160
        41 -11.9745    242.4480    182.1481   2.6034788504e+01   3.0361051922e+00    0.2563438    0.2242993 -27.68  0.001088668    1.412    0.292
        42 -11.2276    234.8905    182.9022   2.7283634223e+01   3.8360639791e+00    0.1925781    0.1480584   8.39 0.0009684659    1.233    0.189
        43 -12.8400     58.3598    181.8292   6.5614515864e+01   2.9232354522e+01    0.3329798    0.2027847  68.02  0.001604661    1.780    0.438
        44 -11.3811    230.1784    181.3460   2.7729695255e+01   4.6271113211e+00    0.2046441    0.1296822 -22.65 0.0008235689    1.323    0.244
        45 -11.1760    248.8131    179.5223   2.4671994411e+01   2.6390403308e+00     0.213078    0.1354756 -11.06 0.0008780171    1.426    0.299
        46 -11.2163    226.0113    179.5399   2.8058503980e+01   5.4041546354e+00    0.1582045    0.1080339  28.79 0.0005726528    1.553    0.356
        47 -11.5457    219.1638    178.5044   2.8964041672e+01   6.4382631312e+00    0.1848075    0.1516568 -35.36 0.0008135576    1.335    0.251
        48 -10.9817    233.1397    175.1443   2.6182686330e+01   5.1194420365e+00     0.180345     0.131157  -9.50 0.0006632849    1.198    0.165
        49 -11.9875    225.7584    173.6218   2.7040212402e+01   6.2818515227e+00    0.2335342    0.2268288  50.60  0.001327592    1.567    0.362
        50 -11.9070     25.1522    173.3936   7.4070977533e+01   3.4894516997e+01    0.2268995    0.1499297  86.59  0.001214503    1.422    0.297
        51 -13.2122     57.1977    169.4967   6.4585184199e+01   3.2364721080e+01    0.5154713    0.2577281  74.90  0.001982299    2.779    0.640
        52 -12.1285    247.0385    169.9951   2.3249575241e+01   4.1063372590e+00    0.2727042    0.2101372 -20.89  0.001091808    1.063    0.059
        53 -11.4514    237.8266    170.1843   2.4598460777e+01   5.2184197033e+00     0.169861    0.1370775 -27.57 0.0008194048    1.200    0.167
        54 -11.0300    205.4968    169.9928   2.9688417817e+01   9.6030866846e+00    0.1689926    0.1031953 -56.30  0.000810677    2.618    0.618
        55 -12.0218    219.0188    168.4113   2.7152434592e+01   7.9487049883e+00    0.2478995    0.2306298 -80.86  0.001692023    1.699    0.411
        56 -10.5526    212.3006    169.6504   2.8477038394e+01   8.6924667569e+00    0.1125867   0.09529167 -58.04 0.0007038038    1.691    0.409
        57 -11.9580     39.1702    168.9928   6.9720635222e+01   3.4579075534e+01    0.2479641    0.1295291  67.13  0.001083562    2.048    0.512
        58 -13.2336     28.4519    165.5452   7.2537109908e+01   3.6541228753e+01    0.4707363     0.292125  -9.93    0.0021581    2.497    0.600
        59 -10.8533    229.2529    166.4180   2.5188784179e+01   6.8599673508e+00    0.1380609    0.1134246  40.60 0.0005616873    1.581    0.368
        60 -11.8717    240.6543    164.4894   2.3157826625e+01   5.6496307484e+00    0.1986587     0.175481 -25.33 0.0007350309    1.289    0.224
        61 -11.2975    234.1803    164.6972   2.4134920465e+01   6.4567269230e+00    0.2048879    0.1328101 -37.01 0.0007066454    1.387    0.279
        62 -11.4725    213.0878    163.2643   2.7149749200e+01   9.5638914230e+00    0.2804575     0.158329 -40.12  0.001523899    1.630    0.386
        63 -14.2227    245.3053    152.7574   2.0342430657e+01   6.6795715605e+00     1.061655    0.5320832 -35.14   0.00605252    1.590    0.371
        64 -15.1287    231.6235    141.9053   2.0160954492e+01   1.0127568591e+01     1.742286    0.8698547 -56.46  0.006691222    4.466    0.776
        65 -12.3356      3.9461    243.0424   8.2146072231e+01   2.1682503951e+01    0.3397362     0.179855  54.77  0.001533191    1.406    0.289
        66 -10.5249     59.1476    237.1540   7.0116288948e+01   1.7404701735e+01    0.1746671    0.1110975  48.87 0.0008477418    1.311    0.237
        67 -11.0633    221.4998    161.9977   2.5560612354e+01   8.5661213314e+00    0.1876598    0.1022709 -35.44 0.0007405597    1.564    0.361
        68 -11.1107    205.4124    162.2220   2.8234782252e+01   1.0847266094e+01    0.1799515    0.1077865 -44.99 0.0009532842    1.718    0.418
        69 -13.9009     54.3823    158.5912   6.4112423234e+01   3.5457447765e+01     0.577647    0.4334679  25.06  0.003015887    1.409    0.290
        70 -13.3067     33.5681    160.7752   7.0613238277e+01   3.7248003714e+01    0.3829357    0.2169956  33.27  0.001846475    1.664    0.399
        71 -10.6321    250.6340    159.7337   2.0910345953e+01   5.0446973811e+00    0.1580108   0.08513353 -37.69 0.0006017326    1.572    0.364
        72 -12.0699    238.3816    159.0835   2.2486552204e+01   6.7008992582e+00    0.2580898    0.1795898 -28.00 0.0009316363    1.144    0.126
        73 -10.8791    231.2376    159.7723   2.3655629068e+01   7.5556559972e+00    0.1680219    0.1183592 -11.75 0.0006902853    1.338    0.253
        74 -12.2336    226.6237    157.7237   2.3961232526e+01   8.4893282425e+00    0.2581547    0.1765807 -37.42   0.00106635    1.323    0.244
        75 -12.7881     27.0359    158.3493   7.2368328475e+01   3.8514126263e+01    0.2819094    0.1891975  86.55  0.001241802    1.399    0.285
        76 -10.9438    216.6661    156.5269   2.5280624338e+01   1.0088293107e+01    0.2138395    0.1384839 -49.39  0.001185248    1.815    0.449
        77 -12.2258    221.5925    151.9174   2.3613236507e+01   1.0078699315e+01    0.2883766    0.1715815 -43.43  0.001602051    1.637    0.389
        78 -11.8421    233.3344    153.8016   2.2219823203e+01   8.1368377132e+00    0.2563535    0.2011569 -41.15 0.0009573005    1.351    0.260
        79 -12.5758    228.5788    150.6977   2.2321244339e+01   9.2577736447e+00    0.4110378    0.1880381 -33.95  0.002082264    1.826    0.452
        80 -14.0901     32.6333    137.2081   6.8495489079e+01   4.3547626707e+01    0.9494647    0.2537398  48.81  0.002835287    4.118    0.757
        81 -11.1237    215.9776    149.2805   2.3971796485e+01   1.1317197211e+01    0.2500042    0.1438901 -55.66   0.00116828    2.671    0.626
        82 -12.3926    223.5248    146.2636   2.2208988892e+01   1.0657949776e+01     0.316297    0.2229359 -53.26  0.001846238    1.779    0.438
        83 -10.7997    208.6722    145.3197   2.4352725689e+01   1.3071909674e+01    0.1215763   0.09876946 -63.62 0.0006744919    1.684    0.406
        84 -14.3876     32.7630    144.2485   6.9231672352e+01   4.1650276078e+01    0.6381614    0.5066717   3.93  0.003436028    1.545    0.353
        85 -11.4998      9.4054    144.3905   7.6808140531e+01   4.3633101548e+01    0.2496731    0.1198104  -7.09 0.0009624583    3.464    0.711
        86 -12.8323    218.5619    138.3372   2.1368792220e+01   1.2636576869e+01    0.3316264    0.2091313 -47.51   0.00182621    1.646    0.393
        87 -13.5992    216.0667    133.2320   2.0696700209e+01   1.3836114162e+01    0.5376323    0.2185294 -32.27  0.002323254    2.297    0.565
        88 -11.2303     13.7862    140.4226   7.5105102891e+01   4.4355065621e+01    0.1762543    0.1337774  -3.36 0.0008098949    1.667    0.400
        89 -14.3348     36.9774    150.4124   6.8538085393e+01   3.9584687043e+01    0.5738378    0.3928617  43.13  0.002949153    1.377    0.274
        90 -11.3053    209.1696    138.1675   2.2803738870e+01   1.4153545316e+01    0.1769911    0.1447083 -50.00 0.0008882846    1.348    0.258
        91 -12.6333     23.5450    134.0286   7.1252870984e+01   4.5264053514e+01    0.3015902    0.2043599 -63.32   0.00132713    1.419    0.295
        92 -10.8039     43.7747    131.7781   6.3981399915e+01   4.3806711516e+01    0.2143012    0.1590334  65.17 0.0007142779    1.350    0.259
        93 -11.4509      7.7744    132.4243   7.6527133207e+01   4.6920764238e+01    0.1755976     0.132495  -7.30  0.000951906    1.673    0.402
        94 -11.0919      7.5732    235.7136   8.1205023279e+01   2.2760442368e+01    0.1918287    0.1464337  52.88 0.0008690492    1.035    0.034
        95 -13.5755    214.7342    123.6324   1.8869200219e+01   1.5583985873e+01    0.5895827    0.3428401 -62.84  0.002546477    3.099    0.677
        96 -12.6428     24.9463    127.5978   7.0076137379e+01   4.6882123325e+01    0.2856674    0.2364832 -77.46  0.001462994    1.113    0.101
        97 -12.2913     17.2823    126.5275   7.2704218239e+01   4.7818312147e+01    0.3806553    0.1806829 -31.33  0.001433976    3.204    0.688
        98 -13.0933     22.2409    120.9652   7.0307568800e+01   4.8927551633e+01    0.5693423    0.2689013  16.05  0.002357407    2.473    0.596
        99 -13.5599    230.9442    116.2523   1.5023781099e+01   1.4072491373e+01    0.6815416    0.1292801 -39.41  0.002237868    4.017    0.751
       100 -11.8586     13.8838    119.9275   7.3301211807e+01   4.9869944473e+01    0.2231769    0.1757044 -54.30   0.00123043    1.305    0.234
       101 -12.5749     29.8655    114.8411   6.6640375187e+01   4.9911492251e+01    0.4504603    0.2487373  46.99  0.002000194    1.844    0.458
       102 -13.4746    242.9958    137.0337   1.7646479569e+01   9.2119452075e+00    0.8956861     0.204152 -40.30  0.003312908    3.622    0.724
       103 -15.5684    240.6029    122.6915   1.5103679685e+01   1.1625720234e+01     2.670844    0.4160053 -38.13  0.008388886    4.683    0.786
       104 -11.4305     17.3975    115.2772   7.1489408778e+01   5.0876222573e+01    0.2390056     0.175715  -3.10 0.0009980614    1.678    0.404
       105 -12.3357     22.5767    113.3299   6.9256356885e+01   5.0989389106e+01    0.2606453    0.2278057  59.75  0.001246284    1.137    0.121
       106 -10.1448     73.4736    232.5162   6.6598980723e+01   1.6648329622e+01    0.1218515    0.1003134  38.52 0.0003561322    1.028    0.027
       107 -12.0621      2.5945    108.9804   7.6630938960e+01   5.3554525771e+01    0.3194838    0.1817192 -48.61  0.001495069    1.811    0.448
       108 -10.8201     31.9442    105.6819   6.4420274296e+01   5.2215696170e+01    0.2031826    0.1911896  52.04  0.001008216    1.113    0.102
       109 -10.3623     14.3134    106.3113   7.1681667111e+01   5.3557239796e+01    0.1464805   0.09444476 -45.15 0.0004953032    1.632    0.387
       110 -11.0103     27.3702     99.3496   6.5272283922e+01   5.4391294868e+01    0.2727818    0.1813054  25.87  0.001323568    1.613    0.380
       111 -13.3765    226.2662     88.4617   9.5709340074e+00   1.9014597031e+01    0.3963306     0.182715 -44.00  0.001468253    1.809    0.447
       112 -12.0737      3.4381     83.3676   7.3713608415e+01   6.0426979628e+01    0.2622968    0.1678646 -54.66 0.0009078234    1.425    0.298
       113 -10.1310     30.3537     93.6965   6.2988140843e+01   5.5639920215e+01    0.1546537    0.1017736  61.21 0.0007039994    1.708    0.415
       114 -11.6169     13.4785     69.1597   6.6388883796e+01   6.3610485484e+01    0.2729851    0.1460245  55.26  0.001186209    2.309    0.567
       115 -11.2763     15.0083     61.7029   6.3927670235e+01   6.5425151366e+01    0.1883273    0.1764532   0.17  0.001049103    1.155    0.134
       116 -13.0925      5.2509     59.1593   6.9028274482e+01   6.6688298258e+01      0.46876    0.2816622  -5.65  0.002360279    1.912    0.477
       117 -10.4747     17.3194     57.6805   6.1591227587e+01   6.6261961013e+01    0.1383641    0.1004827  63.28 0.0005575812    1.664    0.399
       118 -10.2122     41.9936     54.5079   4.6721917202e+01   6.4231449535e+01    0.1972695     0.113964  55.04  0.000808296    2.396    0.583
       119 -12.3165      2.3252     52.7747   6.9537345740e+01   6.8446499981e+01    0.3067963    0.2033359 -56.54  0.001686112    1.288    0.224
       120 -10.9349     20.2055     52.0243   5.8256338369e+01   6.7408800301e+01     0.223537    0.1513038  76.23  0.001074585    2.019    0.505
       121 -12.2400      9.8206     51.2479   6.4477529537e+01   6.8414996522e+01    0.3138721    0.2049464 -24.76  0.001642655    1.620    0.383
       122 -11.0161     38.2258     44.4755   4.4805269360e+01   6.7024091048e+01    0.4428745    0.2709155 -85.41  0.001602522    3.776    0.735
       123 -10.6566    238.2484    231.5681   3.4543406175e+01  -2.6100911047e+00    0.1789762   0.08518665  31.54  0.001136072    2.133    0.531
       124 -11.2576     35.4641     31.4711   4.0403489015e+01   7.0129342258e+01     0.273809    0.2040515  79.47 0.0009568515    2.278    0.561
       125 -11.3265      6.5002    228.5128   8.1230970038e+01   2.4259302380e+01    0.2118485    0.1557613  55.71 0.0008700224    1.038    0.037
       126 -11.6690    237.7966     43.3671   3.5832834599e+02   2.3041682627e+01    0.2313362    0.1339571 -37.78  0.001181124    1.351    0.260
       127 -11.0250     12.3251    225.8997   7.9877429984e+01   2.4278039388e+01     0.212796    0.1203023  43.27 0.0008459256    1.341    0.254
       128 -11.3078    104.7616     30.4208   1.2191554661e+01   5.5502509188e+01    0.2787092    0.1390021  66.78  0.001134868    2.051    0.513
       129 -10.7682     41.7109    225.0214   7.3234232808e+01   2.1627631991e+01    0.1723943    0.1390614  55.09 0.0007918477    1.056    0.053
       130 -10.9275    180.4168     28.2923   3.5954126105e+02   3.6931437802e+01    0.3282976    0.1110996 -31.97  0.001292742    2.594    0.615
       131 -11.4966     86.6561     29.2829   1.6578888770e+01   6.0108450267e+01    0.2607912    0.1733555  70.67  0.000910742    1.653    0.395
       132 -14.2578    248.4731    124.5119   1.4488421998e+01   1.0211650555e+01     2.237651    0.2218087 -37.01  0.005972513    6.754    0.852
       133 -10.2426    157.6484     27.3057   1.8094415892e+00   4.2525741853e+01    0.1520918   0.09105428 -64.00 0.0007041857    1.708    0.415
       134 -12.2151     92.9412     26.8042   1.3639158730e+01   5.8929084712e+01    0.3366599    0.1998676  61.88  0.001115374    1.621    0.383
       135 -10.7456     29.4776     40.3521   4.8261386907e+01   6.9111039604e+01    0.2302112    0.1556156  48.82  0.000920022    1.794    0.443
       136 -10.9166     41.7277     38.8761   4.0348861752e+01   6.7674780361e+01    0.2559601    0.1762918  61.58  0.001122899    2.077    0.519
       137 -11.0306     18.9991     39.1874   5.4618026763e+01   7.0549171110e+01    0.2176404    0.1395729  50.30  0.001077222    1.999    0.500
       138 -11.6737     52.3943     27.0353   2.8711161837e+01   6.7985078181e+01    0.2571239    0.1914854  62.54 0.0009223365    1.635    0.388
       139 -11.6165     25.8206     36.6166   4.8994075675e+01   7.0376684546e+01    0.3097908    0.1646085  48.50   0.00134574    2.537    0.606
       140 -12.3006     35.1759     23.9913   3.6541409768e+01   7.1583515920e+01    0.3765303    0.2553748  56.29  0.001783707    1.985    0.496
       141 -11.5831     28.6112     21.5989   3.9455576845e+01   7.3027371474e+01    0.4413693    0.1713553  43.05  0.001775617    2.877    0.652
       142 -11.9163     23.8922     18.3219   4.0863562055e+01   7.4299483946e+01    0.3284232    0.2135113  44.30  0.001267955    1.777    0.437
       143 -11.6216     55.7322     23.2170   2.5022192161e+01   6.7930029033e+01    0.2958714    0.2150487  74.59 0.0009794179    1.930    0.482
       144 -12.6692     48.0450     22.1550   2.8153402732e+01   6.9621069617e+01    0.3336173    0.2817102  69.19  0.001168648    1.476    0.322
       145 -13.4738    248.7647     75.8910   4.4599979562e+00   1.6912925732e+01     1.326203    0.2947604 -35.14  0.005052108    3.222    0.690
       146 -12.3969    153.5435     21.2989   3.9159438163e-01   4.4251767142e+01    0.5506761    0.2243588 -80.90  0.001748417    4.176    0.761
       147 -11.1685     31.1697     34.5568   4.4597470691e+01   7.0126339198e+01    0.2620492    0.1794083  50.15  0.001282107    1.804    0.446
       148 -10.6543    240.7809    222.3652   3.2792974238e+01  -1.8009896304e+00    0.1451127   0.07943137  16.03 0.0009547365    1.696    0.410
       149 -11.1581      2.1680    220.1559   8.1949279617e+01   2.6307156398e+01    0.2461775     0.144556  67.43 0.0009358792    1.418    0.295
       150 -11.0336     32.9966    219.2442   7.4905923399e+01   2.3695765344e+01    0.3140524   0.07461418  39.22  0.001291262    2.690    0.628
       151 -10.8832     67.1712    217.0734   6.6738902908e+01   2.0399477669e+01    0.1819604    0.1696596   5.50  0.001227283    1.257    0.204
       152 -11.6594    218.8927    215.2773   3.5140359154e+01   1.3955866059e+00    0.2165716    0.1856837  24.61  0.001176117    1.505    0.335
       153 -10.0261    162.3217     15.6908   3.5764648293e+02   4.2701263423e+01    0.1464858   0.08499078 -61.08 0.0004055341    1.646    0.392
       154 -13.9297     51.5126    209.7442   6.9885712805e+01   2.3734226266e+01    0.5851516    0.2993243  21.37  0.002827547    2.076    0.518
       155 -12.1545     77.0970     32.1184   2.1039157463e+01   6.1919265107e+01    0.3374858      0.23101  67.44  0.001314313    1.654    0.395
       156 -14.0488     60.3239    206.4133   6.7458943531e+01   2.3435932469e+01    0.7492795    0.3894129 -56.61  0.003734445    2.170    0.539
