#   1 NUMBER                 Running object number                                     
#   2 MAG_AUTO               Kron-like elliptical aperture magnitude                    [mag]
#   3 X_IMAGE                Object position along x                                    [pixel]
#   4 Y_IMAGE                Object position along y                                    [pixel]
#   5 X_WORLD                Barycenter position along world x axis                     [deg]
#   6 Y_WORLD                Barycenter position along world y axis                     [deg]
#   7 A_WORLD                Profile RMS along major axis (world units)                 [deg]
#   8 B_WORLD                Profile RMS along minor axis (world units)                 [deg]
#   9 THETA_WORLD            Position angle (CCW/world-x)                               [deg]
#  10 FWHM_WORLD             FWHM assuming a gaussian core                              [deg]
#  11 ELONGATION             A_IMAGE/B_IMAGE                                           
#  12 ELLIPTICITY            1 - B_IMAGE/A_IMAGE                                       
         1  -9.0031    245.6248      9.9338   4.3388458099e+01   2.1731255604e+01    0.3193868     0.108403 -28.63  0.001261533    2.562    0.610
         2 -10.0221    247.1071     16.1450   4.4810665809e+01   2.0738421186e+01    0.3664757     0.257221  -1.94  0.001766093    1.810    0.448
         3  -9.1020    250.1272     11.5247   4.3436212360e+01   2.0531187454e+01    0.3016117    0.1749552 -23.28  0.001537713    1.722    0.419
         4  -8.9711    237.3492     13.8658   4.5047888221e+01   2.3269699658e+01    0.2833915   0.09008606 -33.88  0.001097175    2.557    0.609
         5  -9.5915    241.0000      9.0832   4.3534926186e+01   2.2899438144e+01    0.2534288    0.1662593 -19.60  0.001338147    1.616    0.381
         6  -8.3514    242.6800     12.3389   4.4219445375e+01   2.2169068676e+01    0.2050664      0.11274 -42.84 0.0004698298    1.605    0.377
         7  -8.4561    250.3270      4.4496   4.1704037021e+01   2.1203673080e+01     0.229239    0.1085362 -26.88  0.001081062    1.973    0.493
         8  -9.1085    243.6864      3.8384   4.2024928344e+01   2.2795306152e+01    0.3208549    0.1275667 -31.88  0.001414881    2.157    0.536
         9  -9.9471    118.4905    240.6114   1.1409010742e+02   1.2775680506e+01    0.3231842    0.1478295 -65.87  0.001794495    3.103    0.678
        10  -8.8577    230.8500    226.4903   9.3272577078e+01  -2.7223143682e+00    0.3398961     0.127819  29.46  0.001268462    2.720    0.632
        11  -9.5947    228.7761    242.9518   9.5991271096e+01  -4.0203847635e+00    0.5879636    0.2161524  27.55  0.002730088    3.093    0.677
        12  -9.0099    242.0127    221.0093   9.0651563403e+01  -3.8321309068e+00     0.209364     0.117735   6.35  0.001212294    2.024    0.506
        13  -8.8749    224.4712    246.5858   9.7167498790e+01  -3.7463944988e+00    0.2519562      0.13956 -11.48 0.0009278031    2.368    0.578
        14  -9.8632    232.3708    235.7692   9.4403937145e+01  -3.8573381853e+00    0.7961815    0.2753081  25.32  0.002807558    5.424    0.816
        15 -10.6962    237.6780    227.2241   9.2296538975e+01  -3.8046502841e+00    0.7424324    0.3826291  18.36   0.00422196    2.060    0.515
        16  -9.3820    227.6490    249.5517   9.7072491055e+01  -4.4699389046e+00    0.4664554    0.1826366  26.71  0.002342353    2.747    0.636
        17  -9.7606    240.8248    231.5916   9.2460682315e+01  -4.6791776522e+00    0.6415887    0.3025447   5.24   0.00288113    3.925    0.745
        18  -9.1219    243.9297    236.6039   9.2722054603e+01  -5.5821130787e+00     0.336423    0.2018261 -11.93  0.002242885    1.788    0.441
        19  -9.2185    248.5104    224.4686   9.0176185359e+01  -5.1106508794e+00    0.3672771    0.2025052   7.89  0.001574244    1.981    0.495
        20  -9.2460    239.6494    238.8075   9.3705570427e+01  -5.1805179050e+00    0.2855708     0.270597 -45.13  0.002342014    1.877    0.467
        21 -10.9567    239.7453    246.6246   9.4802294008e+01  -5.8923194093e+00    0.8468833    0.5562213  47.43   0.00592886    1.848    0.459
        22  -9.6179    248.2831    231.0272   9.1218682127e+01  -5.6869350000e+00    0.4111719    0.3064285   9.58  0.003154254    1.137    0.120
        23  -8.5748    215.0814    250.6228   9.9184436730e+01  -2.7855911301e+00    0.3539966   0.08742332  38.22  0.001566131    3.049    0.672
        24  -9.5766    219.5022    247.0544   9.8013562991e+01  -3.0792574890e+00    0.4182416    0.1902557 -33.00  0.002537107    2.766    0.638
        25  -7.9168    207.4386    249.7612   1.0028614979e+02  -1.5979610341e+00    0.1897332   0.09675599  28.29 0.0008459863    1.715    0.417
        26  -8.9971    210.4430    242.2325   9.8812171603e+01  -1.2816522404e+00    0.2836462    0.1438422  23.11  0.001047187    2.113    0.527
        27  -8.9635    202.3309    249.4541   1.0106489460e+02  -8.2149560120e-01    0.3529989    0.1423942  33.14  0.001428174    2.092    0.522
        28  -8.4043    206.3354    245.0622   9.9851808484e+01  -9.6302411772e-01    0.2228863    0.1573955   0.29 0.0009169325    1.623    0.384
        29  -8.0264    184.4641    249.4965   1.0396667706e+02   1.8151915500e+00    0.1914648    0.1151543  19.59 0.0008029745    1.953    0.488
        30  -9.0943    196.2951    243.3065   1.0125590781e+02   7.1695889603e-01    0.3268492    0.1557103  38.05  0.001857535    1.563    0.360
        31  -8.8811    170.8641    250.5321   1.0631971091e+02   3.7257402743e+00    0.3451633   0.08044276  41.37  0.001449817    3.150    0.683
        32  -8.2557    176.2823    250.5739   1.0543431765e+02   2.9139396999e+00    0.2941145   0.08102328  42.37  0.001036224    2.644    0.622
        33  -7.9065    180.7581    249.4524   1.0456800595e+02   2.3722383424e+00    0.2665962     0.116129  30.15  0.000999843    2.427    0.588
        34  -8.2607    187.2915    245.3606   1.0299568688e+02   1.8467095103e+00     0.192099    0.1398622  15.73  0.001032019    1.453    0.312
        35  -8.2252    190.9144    244.5780   1.0230156384e+02   1.3878243537e+00    0.2132447    0.1176507  31.74 0.0008371911    1.496    0.331
        36  -9.5375    164.2576    247.2009   1.0703339013e+02   5.1046972660e+00    0.5577096    0.2721446  23.66    0.0025873    3.519    0.716
        37  -9.3247    170.0821    240.9110   1.0531953830e+02   4.9763773185e+00     0.551811    0.2851641  19.01  0.002438929    3.957    0.747
        38  -8.5218    153.1527    250.6008   1.0925473915e+02   6.3521015245e+00    0.3251721    0.0802238  41.53   0.00140466    2.981    0.665
        39  -8.0296    148.5166    250.4930   1.1001282078e+02   7.0513732546e+00    0.1608334    0.0779814  47.58  0.000962831    1.577    0.366
        40  -9.0134    156.8268    245.7410   1.0811181284e+02   6.4001953654e+00      0.31345    0.2131471   9.52  0.001572507    2.303    0.566
        41  -8.4819    142.3145    242.3206   1.1019271679e+02   9.0200417055e+00    0.1049597   0.07678328  22.33 0.0002998683    1.655    0.396
        42  -9.3718    143.9686    249.1305   1.1062842858e+02   7.8939197712e+00    0.2751403    0.1967462   2.31  0.001767201    2.460    0.594
        43  -8.9738    139.2387    250.5674   1.1156238996e+02   8.4065796331e+00    0.2246615    0.1137451  36.25   0.00110976    1.705    0.413
        44  -9.9265    136.1447    246.6252   1.1168373596e+02   9.3711718096e+00    0.2126104    0.1631335  12.85  0.001498221    1.874    0.466
        45  -9.7834    131.5108    241.0005   1.1189949733e+02   1.0810456742e+01    0.2362104    0.1448103  41.65  0.001567073    1.271    0.213
        46  -9.7367    126.7474    249.2156   1.1351174032e+02   1.0398794784e+01    0.2871445    0.1338597  41.82   0.00136031    1.607    0.378
        47  -9.5324    124.7571    245.4175   1.1348417606e+02   1.1198314998e+01    0.2374085    0.1155727  33.43 0.0008631223    2.155    0.536
        48  -9.0304    131.4638    246.5356   1.1246246735e+02   1.0070233156e+01    0.2091281    0.1038443 -47.78  0.001258123    2.814    0.645
        49  -7.7755     26.4959    250.4924   1.2973226537e+02   2.2838843783e+01   0.09743422   0.06374772  62.70 4.999989e-05    1.004    0.004
        50  -9.4982    104.2643    246.1747   1.1699786869e+02   1.4002549816e+01    0.1929789    0.1522516  15.77  0.001383487    2.007    0.502
        51  -8.4421     82.0200    247.0296   1.2075476429e+02   1.6865475266e+01    0.1414003    0.1202681  27.26 0.0009027513    1.698    0.411
        52  -9.4709    177.2508    243.9863   1.0448959435e+02   3.5194836713e+00    0.3722083    0.2222672  25.19  0.001775965    1.748    0.428
        53  -8.1685    171.2413    245.9268   1.0572256730e+02   4.2031345870e+00    0.2093013    0.1149205  26.09 0.0007903228    2.043    0.511
        54  -8.9021    150.2630    245.3988   1.0917791968e+02   7.4294855201e+00    0.2254046    0.1570573  20.48  0.001509254    1.787    0.440
        55  -9.3577     91.4465    245.5202   1.1908350535e+02   1.5844156471e+01    0.2474249    0.1547489  15.85  0.001195427    4.498    0.778
        56  -8.4691     76.3229    246.3055   1.2163858879e+02   1.7705204550e+01   0.08802527   0.07658306  31.18 0.0007032622    1.640    0.390
        57  -8.8571     98.2222    245.3746   1.1794193106e+02   1.4948714921e+01    0.1603489   0.07028174  48.98 0.0007034169    1.666    0.400
        58  -9.4008    146.4742    242.6136   1.0951662020e+02   8.3561417813e+00    0.2130904    0.1356952  44.72  0.001266576    1.166    0.143
        59  -9.0465    113.8818    242.7145   1.1507230398e+02   1.3140797197e+01    0.1723538    0.1136081  35.17  0.001168765    1.510    0.338
        60  -7.8899     88.3164    242.7035   1.1938786945e+02   1.6677901761e+01    0.1109726    0.0600148  61.38 0.0004280347    1.607    0.378
        61  -9.9191    247.8827    239.8442   9.2589878283e+01  -6.4192957042e+00     0.575331    0.2721426  -2.85  0.002984122    3.232    0.691
        62  -8.3247    199.4470    235.6401   9.9720980055e+01   1.0743809436e+00    0.2051608    0.1198474  28.95 0.0007231635    1.466    0.318
        63  -8.6959    201.8157    240.0319   9.9920895068e+01   2.3723373370e-01    0.2669482    0.1435392  28.21  0.001015533    1.664    0.399
        64  -8.6010    204.2195    234.8696   9.8825520752e+01   4.2878329555e-01    0.2948159     0.166129  24.04  0.001770539    1.746    0.427
        65  -8.9591    187.0803    240.0625   1.0236165540e+02   2.4722340453e+00    0.2508571    0.1448125  27.24  0.001545807    1.649    0.394
        66  -8.4395    153.9298    240.8441   1.0805165808e+02   7.4546146343e+00    0.1748137    0.1258485  30.76  0.001023454    1.325    0.245
        67  -8.6951    126.7691    241.1923   1.1273008352e+02   1.1484781130e+01    0.1460297    0.1117664  33.10 0.0006842494    1.369    0.270
        68  -9.6745    100.2854    241.4576   1.1726912966e+02   1.5235460956e+01    0.4026947   0.05717187  43.81  0.001474319    4.327    0.769
        69  -7.9800    206.9742    239.7096   9.9034288013e+01  -5.0426885920e-01     0.181227    0.1132088  17.77  0.001170826    1.637    0.389
        70  -8.5194    209.7955    236.1841   9.8090927637e+01  -5.5824368534e-01    0.2520805    0.1449267  24.74  0.001249557    1.594    0.373
        71  -8.2418    109.1965    240.6332   1.1568090733e+02   1.4106222858e+01    0.1595611   0.08390987  36.65 0.0009505361    1.776    0.437
        72  -8.2067    221.3241    238.0067   9.6480078724e+01  -2.4630708461e+00    0.2462108    0.1249447  23.09  0.001413381    1.982    0.495
        73  -8.3199    194.5770    237.3253   1.0075628249e+02   1.6333473277e+00    0.1723907    0.1307062  -6.62   0.00123653    1.574    0.365
        74  -9.1544    183.4542    236.5311   1.0251568583e+02   3.4376320203e+00    0.2628253    0.1748235 -10.61  0.001654018    2.189    0.543
        75  -8.7027    147.2019    237.1871   1.0879257979e+02   8.9593063582e+00    0.3818515    0.1641838  32.46  0.001847607    2.608    0.617
        76  -8.0900     78.4204    238.5430   1.2073730337e+02   1.8610037655e+01    0.1883239   0.09053937  32.90  0.001040458    2.485    0.598
        77  -7.9033    167.0110    237.4784   1.0542529046e+02   5.8698557427e+00     0.173503    0.0863692  40.35 0.0005634701    1.522    0.343
        78  -9.4913    159.7524    236.2078   1.0651612708e+02   7.1542200440e+00    0.3456216    0.1969595  25.00  0.001940579    2.168    0.539
        79  -9.7159    135.0258    236.2853   1.1080143453e+02   1.0933859917e+01    0.2603751     0.184495  75.17  0.001751753    1.737    0.424
        80  -8.1875    130.9923    234.9800   1.1136444567e+02   1.1724743672e+01    0.1704952    0.1317906  34.88  0.000725708    1.291    0.225
        81  -7.6514    123.6757    237.6894   1.1291302380e+02   1.2431761372e+01    0.1029024   0.07938454  23.22 0.0007038804    1.655    0.396
        82  -8.4020    216.6446    235.6163   9.6896958620e+01  -1.5278971123e+00    0.1658683    0.1009959  18.64 0.0008111687    1.599    0.375
        83  -8.2120    190.2354    235.5522   1.0124668993e+02   2.5022189442e+00    0.2244652    0.1331186  24.89  0.001190091    1.678    0.404
        84  -8.3357    178.2792    235.9992   1.0332307468e+02   4.3031667616e+00    0.2115188     0.126402  26.91 0.0009229216    1.663    0.399
        85  -9.3982    170.6882    233.3668   1.0428642942e+02   5.8102770910e+00    0.2390225     0.210636  43.49  0.001241398    1.187    0.158
        86  -8.2762    140.6962    234.4086   1.0961060053e+02   1.0331176993e+01     0.164369    0.1374916  -4.28  0.001179934    1.721    0.419
        87  -8.6741    229.2808    233.1571   9.4513602619e+01  -3.1537682846e+00     0.306303    0.1483699  20.20  0.001633314    2.369    0.578
        88  -8.1938    153.6350    233.0172   1.0719591133e+02   8.5215228481e+00    0.2070362    0.1339451  27.40  0.001131835    1.652    0.395
        89  -8.4063    100.0353    234.0000   1.1666552387e+02   1.6384356738e+01    0.1875773   0.04920294  40.94 0.0008070876    2.975    0.664
        90  -8.3026    213.8238    231.3051   9.6743861095e+01  -6.5273640977e-01    0.2581275    0.1406712  10.42  0.001352021    2.663    0.624
        91  -7.4498    216.6313    227.6596   9.5754834599e+01  -6.9323808929e-01    0.1226482   0.07060034  18.02 0.0007025158    1.854    0.461
        92  -9.3298    115.2195    231.3924   1.1376226411e+02   1.4594814206e+01     0.203563    0.1665023  26.95  0.001475715    1.512    0.339
        93  -8.7761    219.9780    231.0197   9.5698506718e+01  -1.5545550058e+00    0.2779386     0.124191  34.54  0.001362045    1.769    0.435
        94  -8.6917    188.6860    230.4735   1.0082842300e+02   3.3358043378e+00    0.2493374    0.1455898  21.31  0.001139187    1.970    0.492
        95  -8.5629    202.9518    229.6960   9.8315068232e+01   1.1948931008e+00    0.2593069    0.1554591  15.17  0.001330993    1.982    0.495
        96  -8.0742    208.6747    229.6494   9.7355818442e+01   3.1430901073e-01    0.2171845    0.1260623  19.73 0.0009099341    1.830    0.453
        97  -8.7467    212.0886    225.3795   9.6170462614e+01   2.5460687794e-01    0.2758182    0.1647407  11.76  0.001344634    2.015    0.504
        98  -8.5493    195.3579    229.2948   9.9535567219e+01   2.4262880901e+00    0.2491693    0.1528122  20.78  0.001507815    1.731    0.422
        99  -8.2456    158.8479    229.7679   1.0589282863e+02   8.1368984735e+00    0.1768418    0.1324695  32.19 0.0007525835    1.219    0.179
       100  -8.5731    152.3159    228.0563   1.0683258932e+02   9.3983136792e+00    0.2287484    0.1608932  33.53  0.001516403    1.293    0.227
       101  -8.7850    144.4307    228.1560   1.0824032947e+02   1.0623015539e+01    0.1992432    0.1625495  -6.69  0.001374626    1.771    0.435
       102  -8.1416    133.7842    229.4030   1.1027048679e+02   1.2095370910e+01    0.1685513   0.08958675  35.79 0.0009510157    1.734    0.423
       103  -8.1258      4.9936    229.4918   1.3225805583e+02   2.8249857305e+01    0.1456737   0.03582888  53.67 0.0008100942    2.503    0.601
       104  -7.9905    178.1971    228.0198   1.0229815012e+02   5.2934985368e+00    0.1748869    0.1058761  28.05  0.001043774    1.598    0.374
       105  -8.1775    139.0256    227.7861   1.0915742825e+02   1.1517959497e+01    0.1810993    0.1169231  24.42  0.001063645    1.961    0.490
       106  -7.5854    102.6673    228.6770   1.1571888713e+02   1.6829153111e+01    0.1003542   0.08418865  19.13 0.0007050307    1.704    0.413
       107  -8.1092    184.6878    226.2588   1.0093896547e+02   4.4774802132e+00    0.1993757     0.127668  -9.14  0.001140974    2.390    0.582
       108  -7.7279    108.4769    227.5200   1.1457601607e+02   1.6169638664e+01    0.1133777   0.08814953  51.91 0.0007535945    1.055    0.052
       109  -7.8035     93.6505    227.6698   1.1722425563e+02   1.8259539090e+01   0.09903736   0.08485017  15.91 0.0007048478    1.767    0.434
       110  -7.9868    223.3975    225.8333   9.4377883778e+01  -1.5324262602e+00    0.1453747   0.09404808  -6.18 0.0009290358    1.749    0.428
       111  -8.2513    167.9278    225.6595   1.0377812818e+02   7.2361833582e+00     0.179731    0.1565664   0.85  0.001315642    1.372    0.271
       112  -8.6853    200.8375    223.4592   9.7779593833e+01   2.2400524261e+00    0.2630414    0.1499604 -14.46  0.001426675    2.624    0.619
       113  -7.8881    190.7552    224.8272   9.9696225346e+01   3.6833985010e+00    0.1880677    0.1069929  13.68 0.0009379312    2.718    0.632
       114  -8.0259    162.0480    224.9644   1.0472530242e+02   8.2707938758e+00    0.1844913    0.1284191  18.76  0.001139535    1.741    0.426
       115  -8.5676    127.1028    225.3411   1.1101469752e+02   1.3715460422e+01    0.2394471   0.09040459  36.81  0.001099383    2.541    0.606
       116  -8.5142    219.3841    223.4473   9.4676720728e+01  -6.6466652326e-01    0.2444188    0.1328844  21.91 0.0008425003    1.879    0.468
       117  -8.1445    206.9447    222.3348   9.6582349646e+01   1.4022874354e+00    0.2023688    0.1345391  14.78  0.001275906    1.563    0.360
       118  -8.7058    174.1670    222.4758   1.0225678523e+02   6.6479891763e+00    0.2128924    0.1499064 -14.37  0.001321173    1.997    0.499
       119  -8.2528    135.2955    222.8145   1.0925208625e+02   1.2822663482e+01    0.2278176    0.1179756  35.74   0.00124399    1.803    0.445
       120  -8.4433    229.5727    222.1348   9.2814537521e+01  -2.0848285277e+00    0.2095373    0.1114575  16.44 0.0008833952    2.163    0.538
       121  -8.0063    180.0328    221.9816   1.0115895025e+02   5.7619369119e+00    0.1853918    0.1256462  17.54  0.001130449    1.692    0.409
       122  -8.5449    237.5976    220.3115   9.1242536397e+01  -3.1068618124e+00    0.2360098    0.1393541  -4.83  0.001082076    1.917    0.478
       123  -8.6891    240.3653    216.8415   9.0252800502e+01  -3.1702531634e+00    0.1622147    0.1063732  16.41 0.0004588715    1.313    0.239
       124  -8.9749    149.0284    219.6139   1.0637717208e+02   1.1109240609e+01     0.380762    0.2492066   0.29  0.001873173    3.322    0.699
       125  -8.1602    224.9997    219.9592   9.3223463119e+01  -1.1566211796e+00    0.2452432    0.1282652  15.70   0.00123471    2.424    0.588
       126  -7.8052    227.4670    216.4640   9.2274856287e+01  -1.1633520457e+00    0.1190049   0.08729278  21.62 0.0008073743    1.080    0.074
       127  -8.4244    216.6652    219.3967   9.4512977100e+01   2.0167901248e-01    0.2458341     0.138588   7.10  0.001282966    2.508    0.601
       128  -8.5903    140.7457    219.8252   1.0790803249e+02   1.2404471597e+01    0.1804623    0.1219038   8.22 0.0009475073    2.748    0.636
       129  -8.3893    247.3133    211.1224   8.8225597830e+01  -3.6320382831e+00    0.2459921    0.1384874 -10.37  0.001110166    1.935    0.483
       130  -9.0583    247.4389    205.9353   8.7342529416e+01  -3.1204374736e+00    0.3345386     0.197318   5.47  0.001474619    1.798    0.444
       131  -9.2424    250.0777    199.6646   8.5856694309e+01  -2.8687303752e+00    0.3461297     0.189542 -29.55   0.00203369    1.943    0.485
       132  -8.6575    250.0083    218.7724   8.9044916393e+01  -4.7839410244e+00    0.1958859    0.1262376  35.70 0.0008451747    1.345    0.256
       133  -8.9883    248.8149    215.3867   8.8686302215e+01  -4.2800282109e+00     0.209557    0.1501886   9.36 0.0009014425    1.164    0.141
       134  -7.2176    221.2889    218.3492   9.3585145430e+01  -4.0673845970e-01    0.1187543   0.07390136  14.31 0.0007025123    1.663    0.399
       135  -8.1807    156.2894    223.3884   1.0554792969e+02   9.4090459710e+00    0.2344942    0.0912251  39.15  0.001121156    2.126    0.530
       136  -8.3275    211.2975    216.3908   9.4952978203e+01   1.3927956209e+00     0.243082    0.1494346   2.25  0.001104402    2.123    0.529
       137  -8.3379    192.0358    215.3011   9.8100090304e+01   4.6504568872e+00    0.4010871    0.2168923   6.07   0.00152684    4.851    0.794
       138  -8.2734    204.9758    215.9388   9.5958272420e+01   2.4623979234e+00    0.1954371    0.1209412  17.02  0.001126708    1.786    0.440
       139  -7.7069    179.5147    215.9762   1.0040570021e+02   6.6260810467e+00    0.1491843   0.09789954  -4.30 0.0008076993    2.370    0.578
       140  -7.7725    136.6098    216.1862   1.0822265590e+02   1.3609185282e+01    0.1412567    0.1128088 -37.29 0.0009441486    1.678    0.404
       141  -8.1973    243.7856    214.7950   8.9381416507e+01  -3.4753929904e+00    0.1410384    0.1214765  27.55 0.0008060063    1.345    0.256
       142  -9.8138    249.0322    248.0249   9.3587677331e+01  -7.2740673278e+00    0.4821562    0.2483933 -11.90  0.003114968    2.259    0.557
       143  -9.4617    236.7753    211.9965   9.0047705002e+01  -2.1243852629e+00    0.4373284    0.2083715  11.54  0.001855407    3.699    0.730
       144  -8.5098    237.0062    208.5163   8.9440680330e+01  -1.7903428065e+00    0.2389401    0.1100049  27.59  0.001219195    2.106    0.525
       145  -8.3308    238.9983    204.7552   8.8492483348e+01  -1.6960232655e+00    0.2677581     0.182749   1.21  0.001207187    1.420    0.296
       146  -8.5684    194.6150    219.5177   9.8271846656e+01   3.7076044444e+00     0.291796    0.1558228  22.53  0.001493973    2.285    0.562
       147  -7.8565    230.4909    213.5029   9.1310349273e+01  -1.3140196376e+00    0.1204723   0.08745362  20.15 0.0008083087    1.110    0.099
       148  -8.1224    185.6184    219.6552   9.9854882111e+01   5.1507394001e+00    0.1841144    0.1225939  19.14  0.001112294    1.645    0.392
       149  -7.8001    225.3446    211.2820   9.1799837388e+01  -2.6429378249e-01    0.1224573   0.07344572  19.17 0.0006673569    1.638    0.390
       150  -7.9322    213.3959    210.7670   9.3720882358e+01   1.7096015676e+00    0.1494247    0.1036616 -10.00 0.0006394524    1.621    0.383
       151  -8.1327    186.5163    211.0015   9.8433004327e+01   6.1176664595e+00    0.2494369    0.1287339  18.83  0.001036871    3.467    0.712
       152  -7.2623    141.6931    211.2929   1.0666667557e+02   1.3536129017e+01    0.1193764    0.0817892  63.63 0.0006997306    1.581    0.367
       153  -8.2626      4.0040    211.4875   1.3177469059e+02   3.1367660796e+01    0.1512291   0.03865924  53.37 0.0008102517    2.573    0.611
       154  -8.2811    242.7522    210.0244   8.8767031740e+01  -2.8317718055e+00    0.2838882    0.1204446  40.41  0.001503812    1.987    0.497
       155  -7.4409    203.6555    210.3097   9.5318739671e+01   3.3577586057e+00    0.1118082   0.08948398  61.59 1.079332e-06    1.701    0.412
       156  -8.0265    162.1624    209.1699   1.0258069209e+02   1.0459935704e+01    0.3242969    0.1893316  -5.08  0.001088563    6.470    0.845
       157  -8.2117    159.4910    217.5149   1.0421039210e+02   9.7102093005e+00    0.2280942   0.09383829  34.55  0.001030291    2.453    0.592
       158  -8.1181    192.6770    208.4612   9.6954044061e+01   5.4173288468e+00    0.1854194     0.112524 -35.70   0.00107698    1.973    0.493
       159  -8.3478    147.1956    209.2080   1.0536583065e+02   1.2950763608e+01    0.1922719    0.1263719   9.41 0.0009480082    2.801    0.643
       160  -8.0064    229.7606    208.4412   9.0610132478e+01  -6.4755062064e-01    0.1657052   0.08826564  31.05 0.0009319797    1.583    0.368
       161  -8.7571    179.2304    207.5325   9.9221511169e+01   7.8094489898e+00    0.3087547    0.1761269  20.81  0.001520915    2.378    0.580
       162  -7.9134    225.4401    205.7373   9.0880914249e+01   3.4505371629e-01    0.1547352     0.101776  -7.92 0.0009366777    1.666    0.400
       163  -8.0555    206.8559    205.1523   9.3946632021e+01   3.4631702610e+00     0.169197    0.1236006  15.58  0.000546717    1.324    0.244
       164  -9.2994    243.6902    198.8045   8.6722998136e+01  -1.7857400576e+00    0.3704673    0.1861163 -25.36  0.001867806    2.085    0.520
       165  -8.7990    237.2569    200.0434   8.7975788456e+01  -9.0549372922e-01    0.4773048    0.2265225  17.47  0.002103523    3.075    0.675
       166  -7.5190    223.3430    201.3310   9.0498588580e+01   1.1956234150e+00    0.1286463   0.07828633  15.81 0.0004744086    1.751    0.429
       167  -8.4368    197.4930    200.8462   9.4896554274e+01   5.5952972204e+00    0.2661978    0.1342326  30.17  0.001312497    1.991    0.498
       168  -8.4644    218.9862    207.1972   9.2202063806e+01   1.2200209153e+00    0.3242706    0.1674727 -22.38  0.001728142    2.361    0.576
       169  -8.6366    230.1407    198.3039   8.8848116876e+01   4.3736947803e-01    0.3176449    0.1636522  22.31  0.001563176    2.142    0.533
       170  -8.7168    231.4789    192.0295   8.7533867290e+01   9.5029721646e-01    0.3638832    0.1927111 -12.13  0.001802807    2.457    0.593
       171  -8.4189    211.2338    199.2135   9.2212915237e+01   3.4675456180e+00    0.3123511    0.1297602  32.64  0.001403611    2.388    0.581
       172  -8.2959    203.1099    195.0971   9.2948319004e+01   5.3849430228e+00    0.2720895    0.1596903  14.60   0.00133716    2.289    0.563
       173  -8.8565    237.3078    193.6189   8.6852164491e+01  -1.8967314241e-01    0.3033912    0.1799361  -8.34  0.001265791    1.902    0.474
       174  -7.7719    195.5668    195.1955   9.4315016731e+01   6.6833368055e+00    0.1628823    0.1150559 -15.56 0.0009479744    1.685    0.407
       175  -7.8043    209.3855    193.7639   9.1614105642e+01   4.4745586947e+00    0.1620726    0.1101639 -13.88 0.0009358767    1.683    0.406
       176  -8.6765    224.8495    190.7643   8.8423927731e+01   2.2108220178e+00    0.3578755    0.1654249 -20.12  0.001623305    2.892    0.654
       177  -7.6941    219.5762    193.2256   8.9753875955e+01   2.8004725159e+00    0.1603076    0.1083064 -10.88 0.0009371973    1.626    0.385
       178  -7.6286    148.3179    192.3237   1.0277097323e+02   1.5425120451e+01    0.1237395   0.09551331  13.52 0.0003793098    1.670    0.401
       179  -9.5702    243.7589    188.9872   8.4979867672e+01  -7.0728880550e-01     0.416738    0.2463779 -17.31  0.002415963    1.733    0.423
       180  -8.1557    214.4871    190.7898   9.0208327591e+01   3.9767277787e+00     0.236739    0.1339823  17.72  0.001158877    2.191    0.544
       181  -7.9645    199.2542    189.7515   9.2729056972e+01   6.7775581757e+00    0.1899975    0.1023704 -22.92 0.0009078517    2.462    0.594
       182  -7.5393    205.6769    189.6813   9.1565600434e+01   5.6548331560e+00    0.1309033   0.08643591  15.58 0.0007044429    1.671    0.402
       183  -8.1147    187.5376    189.4778   9.4825277495e+01   8.9013420902e+00     0.245102     0.101288  35.23  0.001034679    2.403    0.584
       184  -7.6276    173.3503    188.3037   9.7296088588e+01   1.1622065402e+01    0.1317892   0.09251979  17.46 0.0004202102    1.700    0.412
       185  -9.2878    249.6079    184.0612   8.3148592936e+01  -1.0941917509e+00    0.3635597    0.2126227 -12.32  0.002059165    1.768    0.434
       186  -8.8747    231.2077    185.1154   8.6340250616e+01   1.8239579997e+00    0.3597157    0.1944303  22.70  0.001816727    2.002    0.500
       187  -8.1710    220.3051    186.3607   8.8416584893e+01   3.5356267623e+00    0.3584568    0.1474846  27.87  0.001384993    3.309    0.698
       188  -8.6511    226.3807    177.8297   8.5811034156e+01   3.5637333710e+00    0.2947785    0.1721498  -5.40  0.001449152    2.231    0.552
       189  -8.7850    237.9225    185.8922   8.5368833144e+01   6.0562912567e-01    0.3258942    0.1839695 -16.10  0.001469802    1.938    0.484
       190  -9.9989    242.8167    177.2760   8.2974086278e+01   8.0930803163e-01    0.5710274      0.32221 -15.89  0.003061412    1.890    0.471
       191  -8.6039    235.3578    179.8116   8.4672373053e+01   1.7650999375e+00    0.2900817    0.1916085 -11.08  0.001620712    1.556    0.357
       192  -9.0510    231.2211    173.4847   8.4169381332e+01   3.2681129424e+00    0.3529181    0.2115494 -16.12  0.001879572    1.815    0.449
       193  -8.0337    200.1836    171.2803   8.9225785081e+01   9.2251476634e+00    0.2091223    0.1420211  27.92 0.0005714426    1.418    0.295
       194  -9.2076    245.0195    166.7603   8.0594454036e+01   1.7063741896e+00    0.3758676    0.1784082 -28.95  0.001860808    2.082    0.520
       195  -8.4986    237.5751    167.9494   8.2040186928e+01   2.8532413372e+00    0.3141735    0.1924657  -6.85  0.001648804    1.840    0.457
       196  -7.6977    223.6542    166.0263   8.4013158009e+01   5.6020654038e+00    0.2108797    0.1009499 -10.45 0.0007049256    4.406    0.773
       197  -8.0007    229.7954    164.2236   8.2606432265e+01   4.7228533967e+00    0.1860536     0.132479  14.23 0.0005636967    1.382    0.276
       198  -8.2113    234.2464    162.6185   8.1538781909e+01   4.1284881502e+00    0.2197571    0.1435912  -1.76  0.001167729    1.690    0.408
       199  -9.1202    249.9678    160.2225   7.8508695355e+01   1.6545111899e+00    0.3546448    0.1654144 -14.05  0.001508691    2.831    0.647
       200  -8.9685    246.5727    156.7072   7.8336356631e+01   2.6846390854e+00    0.3692644    0.2110675  -3.22  0.001778666    2.174    0.540
       201  -7.5543    243.5046    154.4875   7.8373723749e+01   3.5133465104e+00    0.1942473    0.1140384 -15.65 0.0008171071    1.779    0.438
       202  -8.7124    245.6763    151.6565   7.7442341529e+01   3.4859669304e+00    0.1889772    0.1140207  28.58 0.0006462067    1.641    0.391
       203 -10.1162    249.1202    148.8390   7.6312714743e+01   3.2272298523e+00    0.5436029    0.1975627 -33.94  0.002296721    2.639    0.621
       204  -9.1572    238.1532    157.0999   7.9778241813e+01   4.1413056914e+00    0.2426544    0.1438618 -18.93  0.001252354    1.731    0.422
       205  -8.4022    219.7819    153.5846   8.2174011743e+01   8.0533812422e+00    0.1792977    0.1243812  52.78 0.0005648381    1.603    0.376
       206 -10.4342    238.6609    150.0090   7.8230793003e+01   4.9805903384e+00    0.4770184    0.2415966  19.11  0.001904058    3.046    0.672
       207 -10.3654    234.2448    145.8046   7.8070335980e+01   6.3738288469e+00      0.52157    0.2548324 -13.08  0.002037983    3.069    0.674
       208 -10.3187    242.4359    143.4475   7.6233708804e+01   5.1504093197e+00    0.3953361    0.1892309  30.25  0.001705883    2.445    0.591
       209  -9.5544    243.6187    138.2652   7.4930575756e+01   5.6189024194e+00    0.2647236    0.1947988  19.24  0.001102465    1.331    0.249
       210  -7.6266    219.7594    137.9730   7.8836191502e+01   1.0323741268e+01    0.1832835    0.1121342 -29.84 0.0008884401    1.630    0.386
       211  -9.8525    247.8116    116.4193   6.9403600099e+01   7.7591800835e+00     0.560257    0.2590124 -25.64  0.002191257    2.095    0.523
       212  -8.7067    248.6157    134.1782   7.3260441481e+01   5.2221572724e+00    0.3164039    0.1714473 -18.85  0.001159434    1.905    0.475
       213  -9.5481    247.9324    129.2682   7.2284885143e+01   6.0033375508e+00       0.3787    0.3017205 -35.28  0.002236014    1.320    0.242
       214  -9.3662    249.1447    124.0393   7.0933624571e+01   6.4706575153e+00    0.4198506    0.1885802 -29.92  0.001514176    2.054    0.513
       215  -8.2232    229.6715    136.6794   7.6855306975e+01   8.5311514139e+00    0.1439916   0.09712227  13.24  0.000704808    1.688    0.408
       216  -9.1754    242.3643    132.4040   7.3845491848e+01   6.6477224217e+00    0.4114412    0.2293188 -20.17  0.001967625    1.837    0.456
       217  -9.3675    231.9448    129.8632   7.4958074191e+01   9.0483871733e+00    0.3999838    0.2573198  -0.56  0.001543561    1.907    0.476
       218  -8.6712    239.5032    127.4980   7.3203617314e+01   7.8783488055e+00    0.2776021    0.2400528 -10.20  0.001326608    1.053    0.050
       219  -9.3281    240.4596    123.5071   7.2149295368e+01   8.2425802468e+00    0.3162853    0.2437825  18.45  0.001688972    1.302    0.232
       220  -8.1835    221.2163    127.1667   7.6149543449e+01   1.1631150630e+01    0.2537656     0.143822  13.46 0.0009631448    2.941    0.660
       221  -8.4480    224.5260    121.6429   7.4307866362e+01   1.1763089081e+01    0.3434538    0.1279766 -34.39  0.001299792    2.566    0.610
       222  -8.8307    240.5334    117.0810   7.0662096968e+01   9.1228069865e+00    0.3154384    0.1902954  -4.50  0.001421872    2.114    0.527
       223  -9.7584    231.2012    114.5851   7.1550547826e+01   1.1400213746e+01    0.7117195    0.2070037 -34.29  0.002438208    3.151    0.683
       224  -8.6248    219.0591    114.3671   7.3510339563e+01   1.4020951980e+01    0.3346052    0.2182025   2.46  0.001488952    2.045    0.511
       225  -9.6123    241.5636    107.6538   6.8295537723e+01   1.0230956409e+01    0.5456093    0.2591157 -21.27  0.002246646    2.306    0.566
       226  -8.3216    249.7189    107.1855   6.6984688194e+01   8.6338695284e+00    0.2431065    0.1527743 -29.87 0.0008811743    1.446    0.308
       227  -7.6777    235.6134    107.2226   6.9100539060e+01   1.1533983479e+01     0.201825    0.1260063 -18.88 0.0009549746    1.643    0.391
       228  -8.8287    229.8041    102.1617   6.8780118005e+01   1.3510369040e+01    0.4265081     0.185753 -24.27  0.001621293    2.516    0.603
       229  -8.3600    219.7517    103.6483   7.0773053509e+01   1.5500353307e+01    0.3522713     0.162407 -39.06 0.0008679651    2.124    0.529
       230  -8.2736    247.1996    102.2206   6.6178031936e+01   9.8230470409e+00    0.3262874    0.2027896  13.85  0.001488266    2.165    0.538
       231  -8.9627    248.9872     97.5331   6.4808689737e+01   1.0096112929e+01    0.3240902    0.1852905 -28.07  0.001565126    1.592    0.372
       232  -9.1145    242.2556     98.2597   6.5944700991e+01   1.1399873033e+01    0.3221173    0.2394051 -17.04  0.001730551    1.294    0.227
       233  -8.8514    249.4286     86.7780   6.2158491121e+01   1.1464403001e+01    0.1959599    0.1232287 -14.68 0.0009334002    1.687    0.407
       234  -7.9497    106.6329     84.0384   9.0397857659e+01   4.4755753615e+01    0.2021608     0.176889 -49.56 0.0002828923    1.105    0.095
       235  -8.6383    120.6491     62.5386   7.9824611577e+01   4.6085825425e+01    0.2666676    0.2205204 -29.60 0.0006370418    1.210    0.173
       236  -9.8649    247.8466     38.8936   5.0433582959e+01   1.7990592000e+01    0.4046673    0.1141064 -38.82  0.001460894    2.860    0.650
       237  -9.3977    246.3729     31.8425   4.8803602313e+01   1.9159082801e+01    0.3080063    0.1754942 -27.49  0.001503442    1.638    0.390
       238  -9.2446    249.3853     28.4359   4.7669446089e+01   1.8860696702e+01    0.3194051    0.1926615  -7.89  0.001471341    2.128    0.530
       239  -8.5179    236.6053     29.1727   4.9074511381e+01   2.1756188334e+01    0.1917044    0.1285842 -12.21 0.0009479786    1.706    0.414
       240  -9.2789    244.6638     26.0211   4.7495206249e+01   2.0220385114e+01    0.2381823     0.182142  39.64  0.001324134    1.560    0.359
       241  -8.3746    230.4880     26.0148   4.8858614050e+01   2.3592085461e+01    0.1928591    0.1170462   9.58 0.0008104505    2.563    0.610
       242  -8.9742    239.9293     19.0286   4.6145505480e+01   2.2104630482e+01    0.2082932    0.1577071  26.50  0.001126451    1.686    0.407
       243  -8.8139    193.0548    248.5155   1.0244591753e+02   6.4400147943e-01    0.2607922    0.1368741  26.20   0.00100798    1.922    0.480
       244  -9.0913    113.8531    248.6928   1.1561430625e+02   1.2309312353e+01    0.1688797    0.1126641  35.14  0.001178894    1.497    0.332
       245  -9.1377    109.4058    247.9156   1.1628773430e+02   1.3041409302e+01    0.1762338    0.1470701  39.03 0.0007950169    1.340    0.254
       246  -7.8686    232.2950     15.6717   4.5957584050e+01   2.4293988256e+01    0.1463218   0.08865693 -56.15 0.0004411225    1.630    0.386
       247  -7.9608     95.3162    248.6660   1.1868747483e+02   1.4869527538e+01    0.1112238   0.06018483  62.40 0.0004129844    1.691    0.409
       248  -9.0670    213.2753    245.9232   9.8851562325e+01  -2.0678936328e+00    0.3714001     0.160634  25.34  0.001873774    2.688    0.628
       249  -7.9381    122.4821    241.5169   1.1349465006e+02   1.2067695335e+01    0.1646192   0.08583035  36.65 0.0005841889    1.732    0.423
       250  -9.3962    119.6540    246.5366   1.1444890989e+02   1.1781255086e+01    0.1811563    0.1517707  48.04  0.001447458    1.185    0.156
