#   1 NUMBER                 Running object number                                     
#   2 MAG_AUTO               Kron-like elliptical aperture magnitude                    [mag]
#   3 X_IMAGE                Object position along x                                    [pixel]
#   4 Y_IMAGE                Object position along y                                    [pixel]
#   5 X_WORLD                Barycenter position along world x axis                     [deg]
#   6 Y_WORLD                Barycenter position along world y axis                     [deg]
#   7 A_WORLD                Profile RMS along major axis (world units)                 [deg]
#   8 B_WORLD                Profile RMS along minor axis (world units)                 [deg]
#   9 THETA_WORLD            Position angle (CCW/world-x)                               [deg]
#  10 FWHM_WORLD             FWHM assuming a gaussian core                              [deg]
#  11 ELONGATION             A_IMAGE/B_IMAGE                                           
#  12 ELLIPTICITY            1 - B_IMAGE/A_IMAGE                                       
         1 -12.0167    177.6045     69.8328   2.9020263004e+02   5.9063305597e+00    0.1033821   0.05098912 -87.50  0.005161968    4.729    0.789
         2 -10.1987    213.1243      5.6535   2.8939436151e+02   6.4295782917e+00   0.02827007   0.01608195  80.57  0.001130223    3.206    0.688
         3 -11.4452    202.7296     16.5196   2.8958186706e+02   6.3675307743e+00    0.1254346   0.04871399  56.73  0.005877674    8.543    0.883
         4  -9.9433    221.1727     13.3732   2.8934933600e+02   6.2924025549e+00   0.03096612   0.01699483  69.22  0.002387619    3.285    0.696
         5 -11.4115    227.5816     47.2880   2.8948576205e+02   5.8642938420e+00   0.07092967   0.03871059  88.96  0.005393898    3.395    0.705
         6 -12.6345    218.2859     29.3399   2.8948174576e+02   6.1264988932e+00    0.1478516   0.08205293 -84.31  0.007715799    2.770    0.639
         7 -11.0908    229.2862     19.0669   2.8929100449e+02   6.1780779974e+00   0.02605966   0.01788646 -22.88  0.001315722    1.795    0.443
         8 -11.3210    119.2398      9.6379   2.9050470518e+02   6.9491157287e+00   0.03086522   0.02490079 -11.46  0.002412627    1.397    0.284
         9  -9.2402     62.0513     11.7871   2.9118036650e+02   7.2674476739e+00   0.01047529   0.00889422  59.90 0.0006309993    1.274    0.215
        10  -8.5647     96.9730      9.4835   2.9076156111e+02   7.0845800786e+00   0.01006114  0.004740686  48.92 0.0008102161    2.556    0.609
        11  -9.2169      2.1157      8.9058   2.9185735611e+02   7.6587971974e+00   0.01050358  0.009133803  67.28  0.001052417    1.255    0.203
        12  -8.5279    225.0682      8.4310   2.8927368044e+02   6.3256208182e+00   0.01202181  0.009330343  89.25 0.0006178679    1.511    0.338
        13  -9.1603    172.4120      3.2402   2.8984986267e+02   6.7027218227e+00   0.01962733   0.01245187  83.11  0.001790947    2.311    0.567
        14  -9.8879      5.3065      5.0174   2.9179631873e+02   7.6844475814e+00   0.01188172  0.007559329  26.61   0.00120056    1.584    0.369
        15 -11.5776    234.2748      6.7603   2.8915702590e+02   6.2892152389e+00   0.04333885    0.0229316  69.68  0.003110083    3.827    0.739
        16  -8.1334    144.2425      2.9993   2.9017418904e+02   6.8750584417e+00  0.008903177  0.005557624 -61.47 0.0007851844    1.594    0.373
        17  -8.8496    129.3538      2.4613   2.9034314752e+02   6.9707701887e+00    0.0132107  0.008422867 -67.50  0.001200106    1.648    0.393
        18  -8.2637    202.6852      2.7184   2.8949672922e+02   6.5262399890e+00   0.01737659  0.008908436  57.14  0.001100725    2.835    0.647
        19 -12.4989    242.2482    118.0946   2.8975525728e+02   4.9621543725e+00   0.08050995   0.02854377 -60.47 0.0006704538    2.729    0.634
        20  -9.2058     55.9019    126.9373   2.9196274512e+02   5.9794874861e+00   0.02825422   0.01458992  70.64  0.001896083    4.362    0.771
        21  -8.3314    196.8599    127.8164   2.9033906581e+02   5.1236281993e+00  0.009504609  0.008598024 -26.61 0.0003205934    1.139    0.122
        22  -8.4171    129.1861    123.6512   2.9109501519e+02   5.5782261966e+00  0.009971478  0.008709568 -77.61 0.0002747205    1.202    0.168
        23  -7.6600    223.2943    120.6871   2.8998991740e+02   5.0465154090e+00  0.006783088  0.005039996  65.03 0.0003060981    1.596    0.373
        24  -7.9733     50.3929    120.1495   2.9198465200e+02   6.0905884888e+00  0.008968932  0.006366556 -80.37 0.0004943795    1.634    0.388
        25  -9.3114    167.5505    113.2378   2.9058736543e+02   5.4676082830e+00   0.01333733   0.01185181  80.44 0.0005682459    1.223    0.183
        26  -7.5700    171.3390    112.2709   2.9053762491e+02   5.4559552488e+00   0.00681484  0.005006026 -21.33 0.0006742944    1.604    0.377
        27  -8.7984    205.4672    110.0182   2.9012961805e+02   5.2765405289e+00   0.01467486  0.008566619   1.91   0.00126265    2.506    0.601
        28 -11.2273    188.6086    103.9419   2.9028665567e+02   5.4478867766e+00   0.04381222   0.01840082 -71.05  0.003260471    3.151    0.683
        29  -8.9779    192.2451    100.5642   2.9022376272e+02   5.4648500289e+00  0.009909417  0.009068031  39.14 0.0008837559    1.103    0.093
        30 -10.9182    243.0831     91.2550   2.8957942423e+02   5.2656382112e+00   0.04164466   0.01048667 -57.55  0.002825194    3.471    0.712
        31 -10.1909    238.1278    100.3243   2.8969275301e+02   5.1912672269e+00   0.02008917   0.01807936  88.11  0.002423781    1.191    0.160
        32  -8.0604    229.5351     98.4722   2.8978040559e+02   5.2643395660e+00  0.006674112  0.006305416 -28.32 0.0001014192    1.068    0.064
        33  -8.2962    169.5878     96.8012   2.9046217451e+02   5.6444369202e+00  0.009420872  0.006477929 -76.83 0.0009543512    1.659    0.397
        34  -9.1929    149.7514     93.0910   2.9066844959e+02   5.8063630950e+00   0.01652274   0.01131506 -33.85 0.0009784623    1.632    0.387
        35 -10.9649    153.4542     45.8410   2.9033318092e+02   6.3274292623e+00   0.03201393   0.01500749  49.07  0.002629422    2.584    0.613
        36  -9.5359     67.2361    245.2442   2.9255930639e+02   4.5490164791e+00   0.01170684    0.0110588 -23.62 0.0002775318    1.074    0.069
        37 -11.0194    162.4016     51.0108   2.9026175857e+02   6.2141828471e+00   0.03121572   0.01457881  37.01  0.002758439    2.083    0.520
        38  -8.2511    135.8234     91.4956   2.9081958868e+02   5.9083928702e+00   0.01024692  0.006449308  29.47 0.0003040526    1.579    0.367
        39  -9.3377    158.5108     84.4786   2.9051393159e+02   5.8527744465e+00   0.01248399    0.0117577  68.93 0.0009198313    1.111    0.100
        40  -9.7947    161.6156     81.7456   2.9046113761e+02   5.8655369855e+00   0.01811206   0.01346962  32.25  0.001228219    1.337    0.252
        41 -10.8479    245.4166    100.5375   2.8961001068e+02   5.1448837532e+00   0.02489581   0.02277167  63.70  0.002048263    1.154    0.133
        42  -9.3548    143.5192     81.4182   2.9066828841e+02   5.9780828747e+00   0.01451177   0.01166432 -75.72  0.001010737    1.330    0.248
        43  -9.0045    215.3897    240.8898   2.9082340390e+02   3.7112535665e+00   0.01400764  0.007587699 -48.40  0.001307001    1.832    0.454
        44  -7.7891    176.6734    240.6990   2.9126856102e+02   3.9458594533e+00  0.006948669  0.004971602 -25.24 0.0004783868    1.639    0.390
        45 -10.5977      2.8444    234.1264   2.9323468481e+02   5.0614747748e+00   0.02646755   0.01724799  41.06  0.001679013    1.554    0.357
        46 -10.1404      6.6077    231.2162   2.9317339221e+02   5.0725731742e+00   0.01795334   0.01289109 -55.66  0.001531342    1.361    0.265
        47  -8.4762    215.1756     67.8958   2.8975671373e+02   5.7023203870e+00   0.01257231  0.009095553  38.39 0.0007540043    1.384    0.277
        48  -8.8650    207.6515     66.2955   2.8983366420e+02   5.7660524038e+00   0.02452908    0.0124001  61.65  0.001817136    3.442    0.710
        49 -10.5516    194.8901     50.7127   2.8988447508e+02   6.0220137721e+00   0.02093426   0.01881018  13.59 0.0009526314    1.140    0.123
        50 -10.0541    200.7382     45.5698   2.8978504532e+02   6.0458699864e+00   0.01927099   0.01317755 -18.26  0.001077063    1.858    0.462
        51  -7.9860    158.1236     61.9052   2.9037868456e+02   6.1146780566e+00   0.00895012  0.007544478 -17.83  0.001025385    1.290    0.225
        52  -9.7010    184.3276     60.6334   2.9006797257e+02   5.9716127426e+00   0.01162338   0.01147615  60.81 0.0002950653    1.033    0.032
        53  -8.1539     87.9537     59.7642   2.9117717104e+02   6.5606542413e+00   0.01826767  0.009207616  87.43  0.001109496    5.239    0.809
        54 -11.3323      3.6292    227.5449   2.9318530314e+02   5.1326293819e+00   0.03369413   0.03035333  53.99  0.003134706    1.155    0.134
        55 -10.4549    208.2624     61.6186   2.8979762885e+02   5.8161193313e+00   0.06549066   0.02977343  64.68  0.003227942    8.047    0.876
        56  -8.7776    195.4196     56.9905   2.8991726557e+02   5.9466821211e+00   0.01151275  0.009588774   8.65 0.0006876809    1.279    0.218
        57 -11.6889    177.1461     48.7687   2.9007744317e+02   6.1512149477e+00   0.02944816    0.0136252 -45.78  0.002398589    2.244    0.554
        58  -7.8514    134.1964    231.3942   2.9170130389e+02   4.3077104043e+00  0.009224148  0.005883214  39.71 0.0003646146    1.574    0.365
        59  -9.9722    134.3853     47.6294   2.9056479495e+02   6.4215119497e+00   0.02033739   0.01318745  28.02  0.001401291    1.543    0.352
        60  -8.8327     80.5758     46.6107   2.9118124774e+02   6.7561496587e+00   0.01839987   0.01138835  87.88  0.001628743    2.373    0.579
        61  -9.4909    250.1583     42.9321   2.8919824618e+02   5.7780885518e+00   0.01027764  0.009211272 -41.11  0.000386072    1.118    0.105
        62 -11.1680    142.3525     40.9719   2.9043140873e+02   6.4501518276e+00   0.03675275   0.01458654  39.12  0.002988888    2.477    0.596
        63 -10.7141    132.9659     37.2989   2.9051723928e+02   6.5487898313e+00   0.02271283   0.01683112  12.11  0.002462304    1.479    0.324
        64  -9.3256    120.7997     38.2077   2.9066363596e+02   6.6114363640e+00  0.009634327  0.007734785 -29.02 0.0009950732    1.343    0.255
        65 -10.8383    158.7189     70.6651   2.9042603725e+02   6.0103773237e+00   0.01780183   0.01190863 -50.45 0.0007101299    1.468    0.319
        66  -8.4564    250.6234     34.1976   2.8913868764e+02   5.8755672535e+00   0.01346461  0.006609083 -69.71  0.001133506    2.370    0.578
        67  -7.9393     22.6352     29.8333   2.9174877171e+02   7.2957427165e+00  0.009450179  0.006334705 -76.98 0.0009418878    1.722    0.419
        68 -10.2841    144.6301     23.6227   2.9029756603e+02   6.6358291356e+00    0.0116643   0.01137465 -44.24 0.0002538154    1.016    0.015
        69  -8.1483    103.4395     24.2361   2.9077805763e+02   6.8762523168e+00  0.009077014  0.006489363 -79.00 0.0008741448    1.601    0.375
        70  -9.0056    174.1585     21.2064   2.8994111621e+02   6.4858793821e+00   0.01662597   0.01062851 -82.06   0.00098877    1.982    0.495
        71  -8.7506     44.9467    224.0246   2.9268646589e+02   4.9266500632e+00  0.009978072  0.009511501 -40.46 0.0004340941    1.042    0.041
        72 -12.5071     28.7607    206.9829   2.9276886470e+02   5.2196342243e+00   0.04255143   0.03896654 -65.17  0.002602535    1.096    0.088
        73 -11.2407     39.2974    197.3336   2.9258785957e+02   5.2678898988e+00   0.02710926   0.02085573  -2.88  0.001209992    1.501    0.334
        74 -12.7115     45.1824    189.7338   2.9247315420e+02   5.3202876202e+00   0.09729069   0.06258067 -15.60  0.009197119    2.125    0.529
        75  -9.9442    187.6353    191.5192   2.9083898903e+02   4.4460856032e+00   0.01178492   0.01126184 -44.01 0.0003108165    1.037    0.036
        76  -7.7328    188.0041    176.7965   2.9074387734e+02   4.6133064714e+00  0.008641203  0.005250586  27.38 0.0002557692    1.654    0.395
        77  -7.7553     15.3551    151.7341   2.9258444976e+02   5.9361262381e+00  0.006913263  0.004870807  56.72 0.0004246333    1.628    0.386
        78  -9.5391     69.5208    145.4960   2.9191957665e+02   5.6843039553e+00   0.01696051   0.01263763  32.41  0.001486499    1.335    0.251
        79  -9.6642     66.1727    144.1608   2.9195006901e+02   5.7197132275e+00   0.02324249   0.01523612 -55.17  0.001440388    1.484    0.326
        80  -8.5044    132.1531    138.7385   2.9115387798e+02   5.3867622450e+00   0.01043257  0.008775932 -78.03 0.0003936223    1.266    0.210
