#   1 NUMBER                 Running object number                                     
#   2 MAG_AUTO               Kron-like elliptical aperture magnitude                    [mag]
#   3 X_IMAGE                Object position along x                                    [pixel]
#   4 Y_IMAGE                Object position along y                                    [pixel]
#   5 X_WORLD                Barycenter position along world x axis                     [deg]
#   6 Y_WORLD                Barycenter position along world y axis                     [deg]
#   7 A_WORLD                Profile RMS along major axis (world units)                 [deg]
#   8 B_WORLD                Profile RMS along minor axis (world units)                 [deg]
#   9 THETA_WORLD            Position angle (CCW/world-x)                               [deg]
#  10 FWHM_WORLD             FWHM assuming a gaussian core                              [deg]
#  11 ELONGATION             A_IMAGE/B_IMAGE                                           
#  12 ELLIPTICITY            1 - B_IMAGE/A_IMAGE                                       
         1 -15.8413      6.7324     68.3938   1.3086289307e+02   6.4052013893e+01     2.544493    0.9634487 -78.38    0.0101065    2.603    0.616
         2 -13.7439      8.7753     42.6873   1.2427868116e+02   7.0243945956e+01     1.086795    0.5732362  27.80  0.005421371    1.992    0.498
         3 -15.1964     42.1103      6.5143   8.3333742879e+01   7.2927452101e+01     1.965781     1.338955  -7.64   0.01069918    1.686    0.407
         4 -15.2091      8.5991     29.3434   1.2025367433e+02   7.3288705711e+01     1.690616    0.6639664  26.53   0.00759855    2.526    0.604
         5 -15.4273     13.5216     19.5263   1.1209167606e+02   7.4969269306e+01     1.306989    0.9210189  20.51  0.007770927    1.399    0.285
         6 -14.6407     22.4151     13.6562   1.0152051789e+02   7.5083626093e+01    0.9333761    0.4746814  38.14  0.003167738    2.026    0.506
         7 -13.1661      8.1002      2.6294   1.0728396660e+02   7.8670681502e+01    0.6788374    0.3762718  30.26   0.00227999    1.805    0.446
         8 -13.5024    189.7329     26.7553   5.7596920518e+01   3.4029928284e+01     1.420232    0.3983338 -55.03  0.004330024    4.638    0.784
         9 -12.9805    118.7422     27.8555   6.8088663334e+01   5.2019842094e+01    0.9380475    0.5384865  34.66  0.003899186    2.322    0.569
        10 -13.5635    131.7382     33.0615   6.7420603079e+01   4.7926067894e+01     1.305038    0.4527072 -37.98   0.00471826    2.777    0.640
        11 -14.6137    122.2563     36.9938   7.0763284860e+01   4.9878731070e+01     1.067926    0.5748924  40.33  0.002467596    2.261    0.558
        12 -14.3923    166.3991     30.2341   6.1145959229e+01   3.9307871245e+01     1.152626    0.5985472  69.76  0.003323234    1.819    0.450
        13 -12.7247    139.3844     21.7510   6.2179337959e+01   4.7295955173e+01    0.6691344     0.467219 -87.14  0.001137316    1.413    0.292
        14 -14.6185    146.5962     30.4821   6.3995869372e+01   4.4360235435e+01     1.177447    0.5739701  65.19  0.003614909    1.875    0.467
        15 -13.0138    215.4203     20.7699   5.3974777372e+01   2.8928323094e+01    0.3894338    0.2995679  -2.36  0.001631697    1.892    0.471
        16 -12.9577    218.9105     15.3281   5.2473430848e+01   2.8776902495e+01     0.400469    0.2965328 -59.12  0.001474719    1.077    0.072
        17 -12.6195    215.0592      9.8806   5.1448168527e+01   3.0168004196e+01    0.2772698    0.2199383 -55.38 0.0004517474    1.067    0.062
        18 -15.6947     98.4797     12.8189   6.6324436309e+01   5.9059392077e+01     1.831823    0.7766097  61.42  0.004975539    1.993    0.498
        19 -12.7086    186.8275     13.9040   5.4441696804e+01   3.6146507979e+01    0.2958195    0.2470805  44.35  0.001481228    1.532    0.347
        20 -10.9303    153.0682      8.2857   5.5971561049e+01   4.5123849308e+01    0.1982033    0.1520251  89.52  0.001117488    1.140    0.123
        21 -11.3913    120.1872      3.7229   5.8487171137e+01   5.4194457517e+01    0.2450866    0.1501883  75.58 0.0009180587    1.429    0.300
        22 -12.0297     27.0512      3.2003   9.0780477572e+01   7.6069729293e+01    0.3500765    0.2516689  -1.11  0.002055401    1.454    0.312
        23 -10.7169    221.4377      3.4822   4.9630048906e+01   2.9459634135e+01    0.1211584   0.09250157 -60.29 0.0008070775    1.010    0.010
        24 -10.3918    192.7964      2.9871   5.1149171920e+01   3.5835674701e+01    0.1532042   0.09271496 -31.70 0.0002965893    1.643    0.391
        25 -11.2175    232.8816      1.7382   4.8702785289e+01   2.7294685773e+01    0.1627784    0.1386451 -68.95  0.000737271    1.172    0.146
        26 -12.0073     81.1334      1.7205   6.5205554192e+01   6.4543126473e+01    0.6062405    0.1031063  60.52  0.001878143    3.712    0.731
        27 -12.0715     60.7875      1.6809   7.1512930394e+01   6.9465925804e+01    0.4521891    0.1534447  59.34  0.001760493    2.560    0.609
        28 -11.3376     67.6798      3.6307   7.0227441933e+01   6.7664787882e+01    0.3049175    0.1873353  33.19  0.001522323    1.701    0.412
        29 -11.7838     49.0217    181.6098   1.2838065662e+02   3.1000669854e+01    0.3729508    0.2497415 -45.17  0.001908071    1.871    0.466
        30 -12.5440     58.1017    246.2431   1.3109771689e+02   1.6520242143e+01     0.519205       0.3373  11.83  0.003054665    1.887    0.470
        31 -13.4657     28.2287    246.2969   1.3754133187e+02   1.9705653368e+01    0.4759921    0.2920367  50.80  0.003132056    1.228    0.186
        32 -12.0181      2.8054    249.9280   1.4291307634e+02   2.1421700308e+01     0.368997    0.1449437  40.36  0.002090897    1.658    0.397
        33 -14.0050      8.8844    245.6642   1.4157345241e+02   2.1655125061e+01    0.7961691    0.3596402  45.67  0.003202506    1.508    0.337
        34 -11.7527    249.5937    181.8029   8.3676394558e+01   1.2047158991e+00    0.1556429   0.08876745 -37.78 0.0009550711    1.714    0.417
        35 -11.3538    121.6188    181.0464   1.0872077006e+02   2.0585411321e+01    0.4088136     0.230419  72.26  0.001250882    5.108    0.804
        36 -12.9988    123.9105    166.8369   1.0572458823e+02   2.3190933034e+01    0.5936424    0.4249103 -82.39  0.002752034    2.055    0.513
        37 -11.1237    177.6608    167.6797   9.3499032249e+01   1.3702769459e+01    0.1419532   0.09854036  -0.04 0.0007050043    1.714    0.416
        38 -11.2131    193.0950    164.8789   8.9935324944e+01   1.1632751536e+01    0.1889351    0.1840649  -9.93  0.001235321    1.240    0.193
        39 -12.3645     77.3615    156.9907   1.1710176933e+02   3.3169026244e+01    0.4623744    0.3234331  25.11  0.001515196    1.473    0.321
        40 -13.1692     73.6946    153.6411   1.1770651581e+02   3.4547904281e+01     0.741918     0.509956  24.90  0.003068062    1.509    0.337
        41 -12.6835    189.1971    155.7947   8.8894200590e+01   1.3803437714e+01    0.2669454    0.2248261  30.11  0.001596308    1.194    0.162
        42 -11.6552     56.7043    154.5820   1.2312621193e+02   3.6681950343e+01    0.4401048    0.1814843 -47.24   0.00158344    3.015    0.668
        43 -11.7839     85.6430    153.3166   1.1402126189e+02   3.2778901055e+01     0.367888    0.2968511 -44.40  0.001880196    1.379    0.275
        44 -12.4630    246.0922    149.4681   7.8356144216e+01   5.9310573599e+00    0.3198335    0.2393004 -44.28  0.002126156    1.486    0.327
        45 -12.3200    110.2085    154.7053   1.0716744764e+02   2.8286559219e+01    0.4763976    0.3031651  80.69  0.001826668    2.764    0.638
        46 -11.7296    103.3062    150.0511   1.0824631790e+02   3.0585750499e+01    0.3610103    0.2704296 -24.95  0.001690291    1.698    0.411
        47 -12.1882      6.3273    147.6342   1.3849414307e+02   4.3468718458e+01    0.4835388    0.2541377  48.94  0.002398751    1.704    0.413
        48 -11.9338     63.0078    147.7301   1.2017738949e+02   3.7578475554e+01    0.2089667    0.1823995  42.61 0.0003992018    1.086    0.079
        49 -13.4441     22.3870    181.2124   1.3573723459e+02   3.3911057572e+01    0.5882197    0.5486848  51.70  0.002466187    1.156    0.135
        50 -12.1718    148.4489    141.4621   9.4586458101e+01   2.3983039301e+01    0.4342253    0.2062651 -42.12  0.001719634    2.173    0.540
        51 -13.1958     41.2953    137.5322   1.2599327562e+02   4.2965212526e+01    0.5003397    0.4512121  34.81  0.002854544    1.136    0.119
        52 -12.0155     46.6268    134.8085   1.2378777673e+02   4.3062724095e+01    0.5501416    0.1920841 -60.29  0.001986877    2.640    0.621
        53 -11.1346    230.3301    138.3248   7.8445875976e+01   9.8307312907e+00    0.1265975   0.08723037  -2.59 0.0007050349    1.702    0.413
        54 -12.4344    244.9908    136.5822   7.6049894335e+01   7.8682776335e+00    0.3302088     0.239651 -80.61  0.001802276    2.888    0.654
        55 -11.1531     62.7440    134.3183   1.1816200600e+02   4.1073617869e+01    0.3312725     0.103715  37.71  0.001091217    2.789    0.641
        56 -11.3880     11.0700    134.0784   1.3606765637e+02   4.6622065202e+01    0.2023187    0.1794639  72.14 0.0004347552    1.020    0.020
        57 -14.8297     30.1943    119.2570   1.2764786853e+02   4.8970951437e+01     2.862586    0.5355768 -60.91  0.008640467    3.866    0.741
        58 -12.0484     78.3983    111.3770   1.0813633455e+02   4.4511081802e+01    0.3948951    0.3180489  70.54  0.001508033    1.375    0.273
        59 -14.6721    105.1381    122.4147   1.0192613543e+02   3.6812523020e+01     2.123295     1.115103  41.82  0.008384372    1.824    0.452
        60 -15.0534    106.4704    107.1563   9.7759799614e+01   4.0131684173e+01     1.415825      1.18507  74.32  0.006626307    1.336    0.252
        61 -13.9427     91.9784    109.3143   1.0296300484e+02   4.2528369143e+01     1.118727    0.7825879  34.59  0.005033298    1.441    0.306
        62 -15.0874     17.8584    110.9402   1.3142835514e+02   5.2238277173e+01     1.346028     1.029931   0.78  0.005366974    1.515    0.340
        63 -12.1908    185.3113    124.6108   8.2992826259e+01   1.9948168484e+01    0.2085855    0.1686608 -76.35 0.0007257278    1.647    0.393
        64 -12.4446    180.3613    121.4938   8.3219686525e+01   2.1480345232e+01    0.2876106    0.2394069  16.99  0.001568168    1.337    0.252
        65 -11.6615     59.6459    125.4092   1.1770899611e+02   4.3839860706e+01    0.3780846    0.2513342  -2.66  0.001167062    2.205    0.546
        66 -14.3673      2.4511     97.2291   1.3637227903e+02   5.6786096477e+01     1.369879    0.5342776 -84.40  0.004047536    2.417    0.586
        67 -12.5386      4.3697    119.8231   1.3741333448e+02   5.0766212304e+01    0.6087474    0.2258232  14.83   0.00245361    2.948    0.661
        68 -13.6612    112.2080    101.1068   9.4404894481e+01   4.0291827034e+01    0.5387492    0.4428225 -88.02  0.002034536    1.444    0.307
        69 -14.4127    248.3851    113.5840   7.1090947761e+01   1.0554712352e+01    0.5823154    0.4051144  57.57  0.003711278    1.855    0.461
        70 -13.8064    249.2090    106.7806   6.9629410363e+01   1.1363681068e+01    0.6015192    0.2795329 -44.48  0.003114397    1.926    0.481
        71 -12.1497    174.9825    109.7188   8.1470934378e+01   2.4713851092e+01    0.3378928    0.1976207 -31.52  0.001490971    1.809    0.447
        72 -12.3667     61.5114    108.6905   1.1375941502e+02   4.7943523143e+01    0.6985947    0.3548549 -56.98  0.002817043    1.917    0.478
        73 -12.7637     61.8744     98.4356   1.1129489334e+02   5.0535579037e+01    0.5795254    0.3891866  72.36  0.001964135    1.978    0.495
        74 -15.8079     24.8263     94.8578   1.2630703688e+02   5.5959091805e+01     2.501442     1.539855 -13.21   0.01143485    2.079    0.519
        75 -12.6743    136.2279    103.5817   8.8481605593e+01   3.4426317183e+01    0.5897661    0.2968831  49.64  0.001759828    1.982    0.495
        76 -13.0895    120.5077    102.6573   9.2423087536e+01   3.8130702171e+01    0.5475049    0.2767504  49.43  0.002078715    1.979    0.495
        77 -11.6054    121.3439    111.9554   9.4631702026e+01   3.5894634842e+01    0.2831553    0.2138901  57.14 0.0009754872    1.384    0.277
        78 -12.9765     43.3063     91.7045   1.1752327752e+02   5.4864044305e+01    0.8488489    0.3480736 -71.68   0.00294648    2.887    0.654
        79 -13.2588     50.3146     99.0149   1.1612917657e+02   5.2058030387e+01    0.8604617      0.52769   2.21  0.002722662    2.363    0.577
        80 -12.4654     49.3496     94.7525   1.1559292136e+02   5.3296547068e+01    0.4672612     0.300797  81.98  0.001818072    2.098    0.523
        81 -12.8288    137.7065     95.8379   8.6012114420e+01   3.5674543308e+01    0.4327888    0.3635637 -89.55  0.001100818    1.361    0.265
        82 -12.9583     44.9592    110.5946   1.2057640161e+02   4.9686869002e+01    0.5339094    0.4523802 -53.39  0.002857004    1.191    0.160
        83 -10.8292    161.6747     96.6749   8.0835278406e+01   3.0019298466e+01    0.1506185    0.1185208  10.19 0.0004887205    1.691    0.409
        84 -12.1344    128.2042     95.9997   8.8486030175e+01   3.7824750705e+01     0.387505    0.2166153  64.33  0.001409079    2.428    0.588
        85 -13.2244     84.8086    115.6115   1.0688807028e+02   4.2311499012e+01     1.013375    0.5868068  17.02  0.003680234    2.617    0.618
        86 -11.6667     89.3143     87.2168   9.7856996678e+01   4.8311379314e+01     0.400575    0.2449313  51.24  0.001664264    1.694    0.410
        87 -14.3390    188.2115     84.4668   7.2863945226e+01   2.6213310090e+01    0.6887381    0.3829428  48.63  0.002043506    1.963    0.491
        88 -11.8253    125.6545     86.4951   8.6430062627e+01   4.0375171634e+01    0.3268885    0.2732882  83.19  0.001589247    1.337    0.252
        89 -12.3566    132.1825     86.1567   8.4637581621e+01   3.8903359243e+01    0.2348464    0.2207883  11.57 0.0007039251    1.190    0.160
        90 -13.5689    237.5348     80.2275   6.5409100178e+01   1.6996349202e+01    0.3447309    0.2590201 -68.00  0.001971379    1.461    0.315
        91 -14.4040    161.1865     80.5374   7.6579892110e+01   3.3043799424e+01     1.011193    0.6484843  23.61  0.002560218    2.601    0.615
        92 -15.1362    172.1898     77.1439   7.3624296668e+01   3.1037933668e+01     1.360988    0.6348851  59.93  0.005489792    2.247    0.555
        93 -13.8040     62.4772     56.4384   9.8238602633e+01   6.0419336828e+01    0.9017165    0.6490802 -29.33  0.003521732    1.564    0.361
        94 -13.8063     66.1254     49.4434   9.3827638690e+01   6.1157524345e+01    0.7604055    0.6390018  45.58  0.004069286    1.173    0.148
        95 -14.4660     39.0848     67.9298   1.1354873384e+02   6.1397493775e+01     3.127115    0.5691662  25.13  0.007115398    7.235    0.862
        96 -13.4368     51.4050     69.0281   1.0780237859e+02   5.9435719729e+01     0.978601    0.6492827 -84.24  0.004192686    2.236    0.553
        97 -13.7647     91.2504     57.9643   8.7362485817e+01   5.4114865408e+01     1.287281    0.8532965 -85.25  0.004920518    2.706    0.630
        98 -12.8705     77.2005     73.5016   9.8064474959e+01   5.3874455308e+01    0.6430777     0.414241 -29.67  0.002411154    1.977    0.494
        99 -14.2007     87.5196     65.6546   9.1480935149e+01   5.3418080451e+01     1.043694    0.7207074  12.87  0.003683864    2.216    0.549
       100 -13.3622     55.6504     79.8049   1.0906347781e+02   5.6181224837e+01    0.7030666    0.4431435 -37.34  0.002146019    1.782    0.439
       101 -14.0097     60.7979     75.8452   1.0562866222e+02   5.6319296765e+01    0.8034893    0.5287989 -42.65 0.0007344231    1.574    0.365
       102 -13.4175    210.3506     77.9489   6.8094599147e+01   2.2537488549e+01    0.4718183    0.2451557 -51.12  0.002211092    1.912    0.477
       103 -11.7875     40.3934    243.2862   1.3478813828e+02   1.9003892231e+01     0.283682    0.1941531 -86.57   0.00188168    1.667    0.400
       104 -12.0381    170.4986    241.4859   1.0676071419e+02   3.1295517993e+00    0.1189744   0.09005433  15.67 7.763667e-05    1.004    0.004
       105 -13.8162     95.5243    238.0988   1.2216401698e+02   1.3411086454e+01    0.6067018    0.3334596  37.72  0.001611711    1.402    0.287
       106 -11.4771    147.3926    239.2237   1.1109926760e+02   6.4164724395e+00    0.1357664    0.1199494 -63.44 0.0009448649    1.644    0.392
       107 -12.2317     24.2389    217.1176   1.3716569513e+02   2.5772602763e+01    0.6413403    0.3832289  54.92   0.00380947    1.351    0.260
       108 -13.6665     25.7269    227.4406   1.3729027270e+02   2.3536532871e+01    0.6198211    0.3635899 -59.68  0.003623843    2.161    0.537
       109 -11.9074     90.5362     80.6218   9.5407632044e+01   4.9552509395e+01    0.4683148    0.3889379  -2.37  0.002243964    1.507    0.336
       110 -13.0583    135.2539     79.8116   8.2000223502e+01   3.9401856281e+01    0.8210342    0.3882412  56.85  0.002609475    2.184    0.542
       111 -13.4030    133.2959     67.2371   7.8591195814e+01   4.2201096616e+01     1.073028    0.8072909  15.52  0.004596373    1.906    0.475
       112 -11.9202    113.9429     80.2062   8.7777363523e+01   4.4406599651e+01    0.4199488    0.3435608 -64.40  0.002031866    1.330    0.248
       113 -11.3458     97.3568     78.9023   9.2528057737e+01   4.8457097548e+01    0.2566487    0.2059463  56.49 0.0004957618    1.252    0.201
       114 -12.1441     41.8794     77.2403   1.1471664325e+02   5.8742771815e+01    0.3676618    0.3039237 -67.35  0.001099723    1.218    0.179
       115 -12.1228    219.0283     74.9769   6.6328613054e+01   2.1225135556e+01     0.202006    0.1750877 -48.15 0.0005649882    1.011    0.011
       116 -11.5959     23.1230     75.1828   1.2351811813e+02   6.1234884736e+01    0.2158821    0.1738304 -38.09 0.0005330641    1.227    0.185
       117 -13.8021    164.3756     71.5370   7.3467981423e+01   3.3817657444e+01    0.9499316    0.4282851  44.57  0.003541566    2.662    0.624
       118 -14.1965    199.3863     70.2521   6.7672701408e+01   2.5989316372e+01     0.620379    0.4089783  54.73  0.001954078    1.658    0.397
       119 -11.9376    158.5688     64.2481   7.2433761708e+01   3.6424169690e+01    0.2921123     0.130925 -40.86   0.00113716    2.136    0.532
       120 -13.6764    217.1822     81.0047   6.7938749192e+01   2.0717201852e+01    0.4631436    0.3356023 -39.62  0.001360959    1.197    0.164
       121 -13.9525     79.3665     60.3466   9.2604670951e+01   5.6259466024e+01    0.8046166    0.6009474 -20.48  0.003768158    1.661    0.398
       122 -13.8934    177.8638     57.8001   6.7440604448e+01   3.2742205980e+01    0.7860931      0.53909 -58.18  0.002249182    1.446    0.309
       123 -12.4857     39.2687     60.6189   1.1123621311e+02   6.3130232956e+01    0.4204697    0.2318508  48.64  0.001795102    2.203    0.546
       124 -12.6297     24.4647     59.9209   1.1918644475e+02   6.4936872518e+01    0.3570133    0.2546944 -50.65  0.001024463    1.292    0.226
       125 -13.0091     71.6877     75.2280   1.0083122967e+02   5.4540550150e+01    0.7464088    0.5898421 -36.00  0.003209722    1.351    0.260
       126 -14.8628    119.8029     54.8213   7.7746613569e+01   4.7748878530e+01    0.9234548    0.5915419  46.11  0.001868005    1.578    0.366
       127 -12.3704    109.7129     53.9797   8.0133486086e+01   5.0421854346e+01    0.4805704    0.2993714 -33.05  0.002097955    1.769    0.435
       128 -13.8948    103.2130     50.6962   8.0788572466e+01   5.2593708559e+01    0.6352344    0.4460809 -59.28 0.0008371991    1.676    0.403
       129 -13.3684     97.8211     50.3846   8.2314694781e+01   5.3959799930e+01    0.9654999    0.4336312 -48.01  0.003538624    2.553    0.608
       130 -12.5001    247.3418     50.9917   5.8279414928e+01   1.9037387984e+01    0.3063824    0.2102232  11.29  0.001666495    2.732    0.634
       131 -11.5801    136.4226     49.7290   7.2205220907e+01   4.4319784806e+01    0.2823648    0.2229948  48.86 0.0007799272    1.307    0.235
       132 -13.3522     20.8937    225.1296   1.3828969403e+02   2.4466825904e+01    0.4740389    0.3522689  14.21  0.002170594    1.598    0.374
       133 -12.4665    154.7620     46.4121   6.7740864953e+01   4.0108322662e+01    0.5008489    0.2413148  57.28  0.001877445    1.990    0.497
       134 -13.1758    158.5640     43.2950   6.6173674360e+01   3.9583081567e+01    0.5747697    0.3721352  64.39  0.002044657    1.483    0.326
       135 -13.2090     66.3093    223.4792   1.2758676251e+02   1.9818390173e+01    0.7890065      0.53103  25.28  0.004591072    1.392    0.281
       136 -11.8261    195.0035     23.5503   5.6273731886e+01   3.3168903609e+01    0.3362174    0.2440543 -30.71  0.001129831    1.439    0.305
       137 -12.5836    198.7279     37.5261   5.9503085857e+01   3.0640979495e+01    0.4517415    0.2661614 -77.23   0.00156663    1.841    0.457
       138 -13.8703    217.6181     41.7210   5.8726576970e+01   2.5989883530e+01    0.8808478    0.3846697  63.25  0.004102246    2.421    0.587
       139 -13.0648    205.4164     40.2882   5.9529346035e+01   2.8795902774e+01    0.5095407    0.2805044 -75.98  0.002211671    2.101    0.524
       140 -14.1589     62.7868    214.8120   1.2771699666e+02   2.1991980864e+01     1.087577    0.4607337  36.63  0.005112352    1.817    0.450
       141 -12.1132     94.4961    218.7476   1.2043632815e+02   1.7085316415e+01    0.2613182    0.1571563  33.05  0.001097298    1.354    0.262
       142 -13.4037      9.2344    210.7824   1.4045052008e+02   2.8481165783e+01    0.7934011    0.4049048  30.27  0.004419284    1.683    0.406
       143 -12.9947    110.0235     42.1274   7.5620878704e+01   5.2284512018e+01     0.520256    0.2569678  60.55  0.001253863    1.936    0.483
       144 -13.2002    113.2202     38.3026   7.3346032196e+01   5.2038303503e+01    0.4157304    0.3601746 -36.52  0.001190119    1.243    0.196
       145 -10.4176    169.3282     43.3071   6.4584261063e+01   3.6881931858e+01    0.1386986    0.1076457  34.76 0.0004571792    1.656    0.396
       146 -11.3576     25.5184     43.0406   1.1325064789e+02   6.8790217910e+01    0.2014929    0.1260612 -55.98 0.0004045715    1.546    0.353
       147 -12.4194    105.2572     35.5005   7.4275763347e+01   5.4488516351e+01    0.5420979    0.2925063 -22.25  0.002191619    2.391    0.582
       148 -13.1927     76.0867     37.4690   8.4503183864e+01   6.1235834557e+01    0.4484222    0.3239768  61.63 0.0009724396    1.484    0.326
       149 -12.4687     70.5321     36.5098   8.6287761055e+01   6.2619969018e+01    0.3421173     0.293391  28.53   0.00109746    1.147    0.128
       150 -12.7062     45.7832     34.0149   9.7066154548e+01   6.7868009037e+01    0.5358508    0.3614697 -23.84  0.002666789    1.695    0.410
       151 -12.0949     36.1869     35.3918   1.0336092747e+02   6.9096538885e+01    0.3969725    0.2398595 -18.64  0.001779705    2.222    0.550
       152 -11.9159    242.0292     35.7696   5.5457695699e+01   2.1847174461e+01    0.3548396    0.2066303  74.81  0.002130446    1.902    0.474
       153 -10.4376    136.7001    211.3236   1.0970644695e+02   1.2440439006e+01    0.1264948   0.09504512  55.53 0.0004602256    1.630    0.386
       154 -12.1786    248.5271    216.0211   8.9439328408e+01  -2.8091821305e+00    0.1834634    0.1385304  28.73  0.001397226    1.631    0.387
       155 -13.0137    152.5003     31.5029   6.3430627086e+01   4.2698994480e+01    0.3953541    0.3097453  36.07  0.001259039    1.577    0.366
       156 -10.7031    149.0252    207.2180   1.0637621235e+02   1.1336213565e+01    0.1816346   0.09253955  32.19 0.0006052303    1.686    0.407
       157 -11.4732    211.1918     33.2236   5.7272517108e+01   2.8402733351e+01    0.1870894    0.1225534 -58.60 0.0005243025    1.336    0.252
       158 -12.4766    216.0259     29.4901   5.5982547826e+01   2.7806344550e+01    0.2617181    0.1363787 -47.62  0.001054399    1.582    0.368
       159 -10.8586     89.1525     30.1479   7.6644698196e+01   5.9291081406e+01     0.214983    0.1831716  36.64  0.000260611    1.178    0.151
       160 -13.1458     55.7666     27.4365   8.8505206451e+01   6.7191445454e+01    0.5897212    0.3316977  48.65  0.001629478    1.746    0.427
       161 -11.3649     97.7579     26.8985   7.2704755725e+01   5.7586690245e+01    0.2669585    0.2337285  88.52  0.001253447    1.188    0.158
       162 -12.2406    223.4939     21.1578   5.3509566863e+01   2.7184495008e+01    0.2703955    0.2205715 -81.40  0.000520884    1.177    0.151
       163 -11.7861    200.2578    215.0124   9.7305572302e+01   2.9850171889e+00    0.2203088    0.1859287 -16.13  0.001450412    1.255    0.203
       164 -12.4230     57.1558    203.3929   1.2815496280e+02   2.5088753526e+01    0.4770351    0.2627352  83.06  0.002285816    2.226    0.551
       165 -10.5269    198.3234    204.6450   9.6007345206e+01   4.6981199009e+00    0.1059075   0.09837572  64.08 0.0007046325    1.763    0.433
       166 -10.7829    185.6592    204.3051   9.8348554976e+01   6.4924861104e+00    0.1125424   0.09666865  52.85 0.0007041057    1.681    0.405
       167 -11.5134     60.9440     17.7922   8.0905580816e+01   6.7560598703e+01    0.2332409    0.1967566 -37.11  0.001345928    1.316    0.240
       168 -11.6089     70.7606     16.7520   7.6395962562e+01   6.5485702092e+01    0.2412279    0.2248226  69.10   0.00049546    1.142    0.125
       169 -13.1560     40.5978    195.3854   1.3180374508e+02   2.8779571841e+01    0.4947512    0.2017423  86.02  0.001938863    3.243    0.692
       170 -12.6983     16.6819    195.8305   1.3802260555e+02   3.1072234986e+01    0.9580278    0.3073894 -74.79  0.004042603    3.056    0.673
       171 -13.7104     29.8863    169.5724   1.3281859797e+02   3.5991448123e+01    0.7004564    0.4489107 -40.37  0.001215851    2.054    0.513
       172 -14.4072     18.0369    160.2658   1.3566169576e+02   3.9390466876e+01     2.355864     1.362723  -1.69   0.01092173    2.473    0.596
       173 -14.9584      7.5350    184.0396   1.3987614832e+02   3.4536757546e+01     1.251549      1.04675  68.37  0.008282415    1.065    0.061
       174 -14.1430     15.6442    175.4553   1.3727004772e+02   3.5882671109e+01     1.336574    0.3271756  45.75  0.005004707    3.025    0.669
       175 -11.3377    249.6207    199.8154   8.6692470075e+01  -1.0249857563e+00    0.1489993   0.08607543 -36.11 0.0009552686    1.737    0.424
       176 -11.9025     45.6293    197.8779   1.3067720700e+02   2.7658133506e+01    0.3579753    0.1258652 -76.76  0.001414494    3.216    0.689
       177 -12.2091    201.1749    191.3968   9.3262359135e+01   6.2439583138e+00    0.2967081    0.2100665  18.18  0.001824679    1.287    0.223
