#   1 NUMBER                 Running object number                                     
#   2 MAG_AUTO               Kron-like elliptical aperture magnitude                    [mag]
#   3 X_IMAGE                Object position along x                                    [pixel]
#   4 Y_IMAGE                Object position along y                                    [pixel]
#   5 X_WORLD                Barycenter position along world x axis                     [deg]
#   6 Y_WORLD                Barycenter position along world y axis                     [deg]
#   7 A_WORLD                Profile RMS along major axis (world units)                 [deg]
#   8 B_WORLD                Profile RMS along minor axis (world units)                 [deg]
#   9 THETA_WORLD            Position angle (CCW/world-x)                               [deg]
#  10 FWHM_WORLD             FWHM assuming a gaussian core                              [deg]
#  11 ELONGATION             A_IMAGE/B_IMAGE                                           
#  12 ELLIPTICITY            1 - B_IMAGE/A_IMAGE                                       
         1 -12.0154    188.7311     35.4056   5.7919758575e+01   3.3441993141e+01    0.9878504      0.91656  50.04  0.003293663    1.081    0.075
         2 -12.2537    195.7176     26.3367   5.4127838496e+01   3.2742760074e+01    0.8501061    0.6979681  28.56   0.00136713    1.376    0.273
         3 -10.6808    217.0023      2.0538   4.4729360805e+01   2.9870606444e+01    0.7121406    0.2387799  73.52  0.002628068    2.865    0.651
         4  -9.0337     77.4627    235.0685   1.2293821762e+02   1.8291695347e+01     0.142031    0.0952251 -79.87 0.0005126244    1.525    0.344
         5  -9.5454    140.7662    249.8942   1.1382799385e+02   6.7759578464e+00    0.1956271    0.1423972  76.67  0.001362917    1.599    0.375
         6 -19.4421     13.7767    135.8504   1.2655799779e+02   4.4894066843e+01     17.12454     2.368755 -74.34   0.04892598    6.687    0.850
         7 -10.5822     66.0412    224.9505   1.2404371427e+02   2.1497968823e+01    0.4645703    0.1630128  54.00  0.002330318    2.324    0.570
         8  -8.8641     96.4642    188.4997   1.1482150655e+02   2.3911510774e+01    0.2970359    0.1562457  70.97  0.001367871    2.464    0.594
         9  -9.5795     61.7339    220.5746   1.2443228504e+02   2.2810724542e+01    0.1994246    0.1383821  58.84  0.000782956    1.150    0.130
        10  -8.4349     99.4278    180.9425   1.1324762628e+02   2.4939408294e+01    0.1933907    0.1521198  55.96 0.0006000692    1.147    0.128
        11 -10.1643     78.9594    177.9579   1.1707338155e+02   2.8606198632e+01    0.2786298    0.2473857 -37.92 0.0009917004    1.618    0.382
        12 -10.8053     82.5618    172.6316   1.1566488544e+02   2.9185233769e+01    0.3883985    0.2859623 -40.26  0.002231564    1.951    0.488
        13  -8.6573     68.9257    177.7154   1.1909477439e+02   3.0036821072e+01    0.1701781    0.1361307  64.67  0.000627945    1.119    0.107
        14  -9.0550    104.8119    172.2407   1.1090444112e+02   2.5830677261e+01    0.2316664    0.1263392  74.69 0.0009573255    2.803    0.643
        15  -9.4711    195.6731    168.8111   9.1536236795e+01   9.3304414737e+00     0.265821    0.2301771  36.17 0.0005628164    1.056    0.053
        16  -9.5869     78.6582    167.7224   1.1586017957e+02   3.0771747958e+01    0.2458194    0.1683813  62.34 0.0005978594    1.355    0.262
        17 -10.5252     89.5248    163.3573   1.1291174141e+02   3.0094768389e+01     0.330986    0.3093655  35.94  0.000634802    1.338    0.253
        18  -8.6419    141.3880    158.2431   1.0064868787e+02   2.2121303310e+01    0.2230163    0.1696894 -64.27 0.0004704752    1.434    0.303
        19 -10.5970     95.8036    155.7504   1.1036851425e+02   3.0742514582e+01    0.5726489    0.3882164 -35.97  0.002524091    2.142    0.533
        20  -8.9088    188.6847    155.2961   9.0139152036e+01   1.3046131328e+01    0.2992583    0.2292431 -10.07  0.001517081    1.563    0.360
        21  -8.0610    175.4345    149.4661   9.1600602092e+01   1.6881330665e+01    0.1437128    0.1375224  48.36 0.0001291782    1.042    0.040
        22  -9.6762    133.9826    145.3802   9.9797905785e+01   2.6182135234e+01    0.7870108      0.21036 -53.61  0.002252509    4.520    0.779
        23  -9.6826    107.9756    140.0026   1.0481181899e+02   3.2140677464e+01    0.5043755    0.2933615 -35.62   0.00214415    2.489    0.598
        24 -10.7504     95.4435    140.7450   1.0794156804e+02   3.4078450421e+01    0.2707673    0.2447031 -53.21  0.001631315    1.215    0.177
        25  -9.1392    106.0719    130.9643   1.0351105328e+02   3.4465103499e+01    0.3042532    0.2563566  86.17  0.001365707    1.210    0.174
        26  -9.7380    114.6481    130.6933   1.0135324020e+02   3.2991130643e+01    0.2787741    0.2309145 -18.10 0.0007760467    1.603    0.376
        27  -9.3182    102.4002    126.9406   1.0360829003e+02   3.5995571072e+01    0.2604579    0.2209333 -35.19 0.0008611097    1.370    0.270
        28  -8.2885    110.0978    119.5107   1.0007940028e+02   3.6290448973e+01    0.1984739    0.1424569  43.08 0.0003434189    1.452    0.311
        29  -8.2305    167.5418    112.5218   8.4610218950e+01   2.5719461194e+01    0.1524765    0.1502357 -83.10  9.49505e-05    1.044    0.042
        30  -8.1913    104.5911    111.7947   9.9751013922e+01   3.8996408727e+01    0.1978737    0.1316309 -63.73 0.0004273106    1.567    0.362
        31  -9.0985    120.3524    110.6672   9.5396773030e+01   3.6297543561e+01    0.2370347    0.1785578 -88.59  0.001108723    1.717    0.418
        32  -8.4142    205.2782    110.5204   7.6373706589e+01   1.7254368958e+01    0.2165571    0.1392637  38.96 0.0009452702    1.630    0.387
        33  -9.2526    176.8727    225.3414   1.0460696994e+02   4.2557070355e+00    0.2628519   0.09009191  48.96  0.001105478    2.659    0.624
        34  -8.9580     67.4855    104.4682   1.0824949011e+02   4.6419258923e+01    0.1343229    0.1167905 -68.40 0.0001177932    1.016    0.016
        35 -10.2676     58.1322    103.0444   1.1059926824e+02   4.7924527322e+01    0.3719298    0.1447527 -50.36  0.001577463    2.311    0.567
        36  -8.8537    167.6865    225.3312   1.0623245556e+02   5.8166380011e+00    0.1186731   0.08538572  67.44 0.0006641542    1.678    0.404
        37  -9.8363    176.1459    218.6556   1.0377815856e+02   5.3137156688e+00    0.1666131    0.1466252  52.55  0.001140544    1.160    0.138
        38  -9.2382    163.8517    217.4350   1.0582510904e+02   7.6197915895e+00    0.1792423     0.151564 -36.43 0.0008023159    1.468    0.319
        39  -9.3343    181.4745    214.4946   1.0219826017e+02   4.9766738542e+00    0.1256347    0.1032959  40.33 2.830409e-05    1.018    0.018
        40  -9.8535    165.6764     66.0434   7.1759837018e+01   3.4818247558e+01    0.3684177    0.2926294 -71.69 0.0006462493    1.535    0.349
        41  -9.0290    104.9685     61.2801   8.5411425754e+01   4.9559457066e+01    0.1984842     0.186042  21.37 0.0003303394    1.102    0.092
        42 -11.0188    176.9886     45.3146   6.2999867293e+01   3.5167122460e+01    0.4415075    0.3887829 -15.94 0.0009183001    1.186    0.157
        43  -9.4908    134.0427    246.0566   1.1454027332e+02   8.3473085777e+00    0.1987614     0.135587 -71.85 0.0009929744    1.892    0.472
        44  -8.4354    172.0373    239.5302   1.0735291390e+02   3.1682383861e+00    0.1671189   0.08246533  57.94 0.0008095357    2.525    0.604
        45  -8.3466     94.9592    199.9477   1.1647577936e+02   2.1957433809e+01    0.2032574    0.1212417  70.88 0.0009004105    1.746    0.427
        46 -10.1801    193.8649    192.9790   9.6401115776e+01   5.8844766198e+00    0.6508222     0.347176 -43.71   0.00320625    2.195    0.544
        47  -8.9528    211.6419     15.6821   4.9025863389e+01   2.9816852403e+01    0.1491598      0.10089  37.72 0.0007044403    1.757    0.431
        48  -8.9622     82.0609    195.6405   1.1846754921e+02   2.4662616484e+01    0.2282748      0.21032  54.10  0.001638083    1.340    0.254
