#   1 NUMBER                 Running object number                                     
#   2 MAG_AUTO               Kron-like elliptical aperture magnitude                    [mag]
#   3 X_IMAGE                Object position along x                                    [pixel]
#   4 Y_IMAGE                Object position along y                                    [pixel]
#   5 X_WORLD                Barycenter position along world x axis                     [deg]
#   6 Y_WORLD                Barycenter position along world y axis                     [deg]
#   7 A_WORLD                Profile RMS along major axis (world units)                 [deg]
#   8 B_WORLD                Profile RMS along minor axis (world units)                 [deg]
#   9 THETA_WORLD            Position angle (CCW/world-x)                               [deg]
#  10 FWHM_WORLD             FWHM assuming a gaussian core                              [deg]
#  11 ELONGATION             A_IMAGE/B_IMAGE                                           
#  12 ELLIPTICITY            1 - B_IMAGE/A_IMAGE                                       
         1 -15.8192     97.9806     65.7578   9.1481692243e+01   5.0293954199e+01     1.837731      1.53779 -59.32  0.007453295    1.357    0.263
         2 -15.3230    174.0051     64.1664   7.1963268974e+01   3.3161313959e+01     1.872183     1.124254 -45.26  0.008001833    1.734    0.423
         3 -15.4460    180.1363     49.0401   6.6242380267e+01   3.3904960834e+01     1.583613     1.135604  85.84  0.007367128    1.670    0.401
         4 -14.8148    186.6239     37.2221   6.1607488740e+01   3.3851568398e+01    0.9984304    0.5504916 -20.34  0.004216856    2.069    0.517
         5 -14.0648    196.5820     13.0779   5.3183558787e+01   3.4108388312e+01    0.7204275    0.3112988 -37.65  0.003047032    2.204    0.546
         6 -13.7386     62.1739      3.9946   7.8348105884e+01   6.6499528681e+01    0.8148589    0.4804096  23.32  0.004414086    1.711    0.416
         7 -11.6244     54.5536    221.6925   1.2955123456e+02   2.3312830107e+01    0.2316249    0.1108872  60.15  0.001342059    1.803    0.445
         8 -15.9845    189.3121    241.1909   1.0717105020e+02   3.9870826045e-01     1.736239     0.923944  40.37  0.006494155    1.481    0.325
         9 -17.0386    135.2511    240.3692   1.1669887809e+02   8.9271700831e+00     1.936438     1.450893  31.73  0.008577613    1.333    0.250
        10 -16.4320    114.0346    240.5264   1.2051572798e+02   1.2086324036e+01     1.325137    0.8977003 -63.14  0.007116999    1.795    0.443
        11 -16.6427     96.7299    229.3323   1.2253772677e+02   1.6405118009e+01     1.830554     1.682825  23.84   0.01372628    1.464    0.317
        12 -11.4831     62.0247    250.6348   1.3027431945e+02   1.7507543363e+01    0.1462183   0.07660419  45.23 0.0009637455    1.500    0.333
        13 -19.3237     16.5578    152.9663   1.3176790381e+02   4.1108164863e+01     17.19884     1.346462 -74.24    0.0372348   11.678    0.914
        14 -16.3124     51.1372     75.3988   1.0996739321e+02   5.5421740661e+01     2.316515     1.748658  65.98   0.01064269    1.770    0.435
        15 -11.2958     39.8509    207.8468   1.3123105656e+02   2.7573742827e+01    0.1589836   0.09706467  63.30 0.0004595548    1.323    0.244
        16 -11.0005     61.1067    205.7855   1.2705541585e+02   2.5458032317e+01    0.1381601    0.1288224  85.08 0.0005241329    1.312    0.238
        17 -13.1520    116.7442    200.1615   1.1533623371e+02   1.8529176804e+01    0.6977976    0.4997687 -12.04  0.003518674    2.685    0.628
        18 -12.3881     40.4887    201.8416   1.3067821173e+02   2.8652505908e+01    0.2034497    0.1397508  58.58 0.0004873228    1.200    0.167
        19 -13.8020    194.3956    192.7795   9.8638539139e+01   6.2433512690e+00     0.326506    0.2365822  -6.01  0.001809862    1.622    0.384
        20 -14.6004    127.3856    176.2970   1.0957027050e+02   2.1308359981e+01      1.38803    0.7613216  61.49  0.005998767    2.352    0.575
        21 -16.8812     65.0195     47.8753   9.6457492557e+01   5.9291483128e+01     3.120451     2.360151 -12.91   0.01771055    1.376    0.273
        22 -14.3583     86.6184    168.5068   1.1752204534e+02   2.9560747714e+01     1.124022    0.5823472 -54.82  0.005484393    1.987    0.497
        23 -13.6599     74.5161    162.0018   1.1941569198e+02   3.2701243036e+01    0.5629483     0.481859 -83.64  0.002340376    1.077    0.072
        24 -13.9416     81.4522    157.9191   1.1720781060e+02   3.2616918446e+01    0.7049761     0.531239 -24.06  0.001774821    2.051    0.513
        25 -13.8308    209.1103    159.9802   8.9462595257e+01   8.6466705840e+00    0.9944731    0.6126636  -7.35  0.004387333    2.279    0.561
        26 -14.2300    181.2086    159.9162   9.4961075373e+01   1.4177722566e+01    0.8782597    0.7906176 -68.20  0.004031344    1.350    0.259
        27 -16.4129    162.7914    139.7325   9.4564594349e+01   2.1733759542e+01     2.946057     1.868347 -47.88   0.01080574    1.666    0.400
        28 -13.8085    247.6946    155.9294   8.1787082462e+01   2.0483752280e+00     0.790325    0.5577874 -27.73  0.004514632    1.326    0.246
        29 -14.2407    239.5648    147.2629   8.1287943006e+01   4.7771318345e+00     1.426143    0.5097539 -32.62   0.00555506    2.670    0.626
        30 -13.1234    127.5793    156.4548   1.0606580294e+02   2.5303391872e+01    0.5288218    0.4549192 -48.39  0.002471547    1.233    0.189
        31 -12.7670    122.3644    149.1402   1.0590808024e+02   2.7803042871e+01     0.524722    0.3963608 -22.78  0.002599175    1.803    0.445
        32 -11.8977     40.8138    213.6873   1.3145959569e+02   2.6372011433e+01    0.2963386   0.09893475  51.05   0.00151452    2.378    0.580
        33 -12.3301     70.3369    144.6768   1.1794129872e+02   3.7136861186e+01    0.2326406    0.1522013  87.04 0.0009716614    1.712    0.416
        34 -10.9503     96.5642    140.5787   1.1063865978e+02   3.4160833309e+01    0.1354024      0.12946 -82.42 0.0003472394    1.060    0.057
        35 -16.3417     79.8574    108.2013   1.0865130341e+02   4.4179612625e+01      2.56806     2.053048  -4.46    0.0112291    1.659    0.397
        36 -12.4057     40.9174    119.2731   1.2184608122e+02   4.6468804639e+01    0.3359423    0.2557756 -60.30  0.001464619    1.190    0.160
        37 -12.7225     55.5521    245.7065   1.3102029104e+02   1.9081817713e+01    0.2765518    0.1377666  78.91  0.001701349    2.086    0.521
        38 -10.8970     65.9986    243.2908   1.2911660512e+02   1.8197958550e+01    0.1440474    0.1023929  54.91 0.0002620663    1.099    0.090
        39 -13.9606    215.3511    231.2278   1.0118308695e+02  -2.4299518697e+00    0.6834022    0.4972258  14.39  0.004043272    1.234    0.190
        40 -14.0118    140.0518     62.0105   7.8661613910e+01   4.1892226614e+01    0.7013505    0.3833888  55.77   0.00286632    1.902    0.474
        41 -13.3134    193.3850     25.4642   5.7156476287e+01   3.3560663453e+01    0.3029015    0.2346812  25.92  0.001136097    1.541    0.351
        42 -11.1586     57.6723    213.0272   1.2831338325e+02   2.4518616952e+01    0.1510192    0.1156119  78.78   0.00029203    1.106    0.096
        43 -12.5942     36.1706    223.1272   1.3288932425e+02   2.5166236428e+01    0.1936569    0.1166741  58.74 0.0006413489    1.270    0.213
