#   1 NUMBER                 Running object number                                     
#   2 MAG_AUTO               Kron-like elliptical aperture magnitude                    [mag]
#   3 X_IMAGE                Object position along x                                    [pixel]
#   4 Y_IMAGE                Object position along y                                    [pixel]
#   5 X_WORLD                Barycenter position along world x axis                     [deg]
#   6 Y_WORLD                Barycenter position along world y axis                     [deg]
#   7 A_WORLD                Profile RMS along major axis (world units)                 [deg]
#   8 B_WORLD                Profile RMS along minor axis (world units)                 [deg]
#   9 THETA_WORLD            Position angle (CCW/world-x)                               [deg]
#  10 FWHM_WORLD             FWHM assuming a gaussian core                              [deg]
#  11 ELONGATION             A_IMAGE/B_IMAGE                                           
#  12 ELLIPTICITY            1 - B_IMAGE/A_IMAGE                                       
         1 -13.1995    200.2238     32.9456   6.2295017185e+01   3.1693881503e+01    0.8859766    0.8126541  82.33  0.005885837    1.190    0.159
         2 -13.8031    217.0774     15.3149   5.6710497269e+01   3.0019127382e+01    0.9518855    0.8169227  51.75  0.006532078    1.550    0.355
         3 -11.8567      2.0000     14.4951   1.1042755066e+02   7.0922476375e+01    0.6199815    0.1318974 -47.74  0.002350889    5.534    0.819
         4 -13.0001      2.9573      5.0277   1.0592353823e+02   7.2073285446e+01    0.9677879    0.4931523 -25.73   0.00651803    1.603    0.376
         5 -10.8316     98.5107    231.0989   1.2729913220e+02   1.2675353532e+01    0.3227383    0.2714204 -51.01  0.001576711    1.406    0.289
         6 -11.6496    184.6417    249.4240   1.1186919077e+02  -5.2104129731e+00    0.4463368    0.2751407  26.46  0.001904243    1.552    0.356
         7 -10.9307    169.0069    249.3686   1.1502728499e+02  -2.6640678242e+00    0.2827277    0.2156849  38.13 0.0001966452    1.156    0.135
         8 -12.0342    169.8165    243.7222   1.1398550939e+02  -1.8181750571e+00    0.5110652     0.334529  58.84   0.00140127    1.982    0.496
         9 -10.9015    162.3895    250.1390   1.1649654361e+02  -1.7068620143e+00    0.3139167    0.2628866  45.38 0.0007664239    1.141    0.124
        10 -11.4311    159.3450    244.2769   1.1623844292e+02  -1.6224395204e-01     0.354161    0.2377759  67.60 0.0008411764    2.179    0.541
        11 -11.6217    149.8366    247.9113   1.1875236609e+02   7.7690368213e-01    0.4131211    0.3193889 -64.95  0.002400784    1.574    0.365
        12 -11.3588    143.7514    249.2354   1.2020137904e+02   1.5528467594e+00    0.6564666    0.3793996  70.25  0.002680408    3.248    0.692
        13 -10.9878    135.9627    225.6692   1.1836468271e+02   7.4714863655e+00    0.3761206    0.2027143 -48.90 0.0009912915    2.030    0.507
        14 -10.7974    135.6014    241.2075   1.2076060878e+02   4.4325387178e+00    0.2379018    0.1986392 -41.80 0.0006957108    1.397    0.284
        15 -12.4187    135.2126    234.7232   1.1989983877e+02   5.7692982867e+00    0.8278565    0.4395714 -61.61  0.003743545    2.286    0.563
        16 -12.2814    133.2612    248.8716   1.2232094523e+02   3.3681724938e+00     1.087937     0.333339  37.84  0.003994642    2.950    0.661
        17 -11.5927    116.0490    250.0456   1.2602390687e+02   5.9786753288e+00    0.8290035    0.4123858  38.64  0.003210226    1.798    0.444
        18 -11.2270    109.6456    247.2759   1.2699477629e+02   7.5554201220e+00     0.517149    0.3583434 -79.11  0.002465593    1.668    0.400
        19 -11.0599    122.2838    245.6111   1.2416227556e+02   5.8127375248e+00    0.4495114    0.3053777  77.35  0.001147716    1.871    0.466
        20 -12.0621    125.5156    242.2044   1.2302676053e+02   5.9391421131e+00    0.6131585    0.4240162  52.54  0.001073654    1.327    0.246
        21 -11.1775     99.2831    248.2503   1.2923482262e+02   9.0161206696e+00    0.4549548    0.3382053  74.20  0.002681214    1.337    0.252
        22 -10.0825    102.5408    247.4894   1.2847992383e+02   8.6518379326e+00    0.2169816    0.2070325  81.54 0.0009429019    1.191    0.160
        23  -9.8911     81.5253    247.5165   1.3273868421e+02   1.1892056799e+01     0.315482    0.1805868 -80.50  0.001626799    1.959    0.489
        24  -9.6328     90.7960    250.4257   1.3119597709e+02   9.9032888661e+00    0.2249063    0.1739315  29.13  0.001008165    1.542    0.352
        25 -11.4483     86.7055    248.1810   1.3177166832e+02   1.0976931832e+01    0.3732848    0.3075551  33.12  0.000841325    1.409    0.290
        26 -11.3176     59.7891    245.9325   1.3686736604e+02   1.5338458515e+01    0.4359581    0.3094255  56.69  0.002253194    1.181    0.153
        27  -9.7704     50.1465    250.0797   1.3907151298e+02   1.5786694998e+01    0.2809815     0.160661  41.84  0.001409419    1.645    0.392
        28 -13.7869     12.4350    210.2744   1.4315619508e+02   2.8758949244e+01     2.361951     1.249591 -71.27   0.01347437    1.603    0.376
        29 -13.3477     40.6911    242.8339   1.4025631363e+02   1.8492020969e+01     1.090928    0.7811909 -85.27   0.00237422    1.243    0.196
        30 -13.1864     27.7722    247.1778   1.4296716606e+02   1.9164950595e+01     1.169509    0.7295277  48.21  0.007487767    1.450    0.310
        31 -13.5683      5.4723    245.3423   1.4676849131e+02   2.1996741899e+01     1.360605     0.643064  83.59  0.007836298    1.813    0.449
        32 -12.9525     13.6538    239.3879   1.4497648677e+02   2.2352582923e+01    0.8301705    0.5525541  73.04  0.002911466    1.150    0.131
        33 -12.7086     27.5504    226.1037   1.4142794387e+02   2.3639796412e+01     0.328463    0.2655773 -84.39 0.0007567086    1.185    0.156
        34 -14.1072     34.0891    218.4316   1.3947891109e+02   2.4578648558e+01     1.200283    0.9284225 -67.36  0.007721923    1.358    0.264
        35 -10.4757     97.0320    238.9595   1.2859366703e+02   1.1257942376e+01    0.2674064    0.2190177  82.27 0.0007013481    1.180    0.153
        36 -11.6146     92.0813    241.4951   1.2992456885e+02   1.1512273812e+01    0.7243021    0.3679845  65.52  0.003162584    2.458    0.593
        37 -11.1585    109.4478    232.2844   1.2510215469e+02   1.0635707128e+01    0.4662147    0.2749645  75.69  0.001989851    2.430    0.588
        38 -11.0243    113.5154    230.7350   1.2401200510e+02   1.0282331369e+01    0.3310993    0.3005184 -62.13  0.001311404    1.222    0.182
        39 -11.2239    105.2913    228.1190   1.2544089761e+02   1.2206812811e+01    0.4576389    0.3576873  26.83  0.002523505    1.494    0.330
        40 -11.0426     89.9847    238.0150   1.2995254526e+02   1.2561721713e+01    0.4023291    0.2681009  54.96  0.002219902    1.323    0.244
        41 -10.0795     74.1341    243.3154   1.3378041090e+02   1.3846211362e+01    0.3212333    0.2545723  68.73    0.0011014    1.049    0.047
        42 -10.7470    143.1093    241.1270   1.1916475808e+02   3.1720519630e+00    0.2305949    0.1626193 -43.27 0.0009288479    1.637    0.389
        43 -10.4572     84.0786    240.7269   1.3148448292e+02   1.2902747127e+01    0.4166633    0.2701145  66.65  0.001509632    1.493    0.330
        44  -9.0916     53.8267    241.0916   1.3758573915e+02   1.7154656397e+01    0.1542901     0.138873 -73.75 0.0005851431    1.354    0.262
        45  -9.1977     66.8106    239.7564   1.3488772103e+02   1.5645264608e+01     0.185429    0.1206615  66.55 0.0005632479    1.388    0.279
        46  -9.0804     66.8819    243.8736   1.3528173711e+02   1.4774127827e+01    0.2320887    0.1713486  19.09 0.0009179908    2.064    0.515
        47  -9.9555    172.9172    236.1224   1.1212324707e+02  -9.8605421513e-01     0.192215    0.1728956  56.22 0.0002777842    1.240    0.193
        48 -11.2566    128.8982    235.0038   1.2129621548e+02   6.7963053845e+00    0.4165278    0.2636495  65.62  0.001748725    1.946    0.486
        49 -10.8441    122.1889    233.9294   1.2258498877e+02   8.1565804587e+00    0.3219113    0.2511283  53.22  0.001819194    1.160    0.138
        50 -11.1761    116.7397    238.5517   1.2438589912e+02   8.1326783333e+00     0.443394    0.2570041 -38.10  0.002019989    2.533    0.605
        51  -9.4855     54.6708    235.4017   1.3689284799e+02   1.8249100736e+01    0.2118577    0.1213684  65.45  0.001126005    1.629    0.386
        52 -10.7080    168.5004    233.6357   1.1263994450e+02   2.2225996607e-01    0.3623666    0.2217192  22.44  0.001209517    1.896    0.473
        53 -10.1531    156.7941    232.1748   1.1488279080e+02   2.5230598437e+00     0.264128    0.1876626 -42.24 0.0006481624    1.560    0.359
        54 -10.9085     84.5889    229.6849   1.3010198106e+02   1.5173579328e+01    0.6526117    0.2431527 -65.04  0.001959566    2.837    0.647
        55  -9.2251     45.7358    231.0842   1.3827357902e+02   2.0352371480e+01    0.1943358    0.1345833  75.13 0.0007688159    1.232    0.188
        56 -10.3282     79.3815    226.0330   1.3077954200e+02   1.6766714681e+01    0.5143379    0.2547638 -71.45  0.001959381    2.145    0.534
        57 -10.3979    116.9235    224.6951   1.2241095458e+02   1.0984473969e+01    0.3336791    0.2657301  35.20 0.0006518008    1.276    0.216
        58  -9.4245     92.3385    225.9325   1.2797077097e+02   1.4780545826e+01    0.2390676    0.1653231  56.36  0.000687932    1.320    0.242
        59  -9.8583     51.6245    225.2366   1.3652991194e+02   2.0871544950e+01    0.1932907    0.1792325  77.49 0.0003407041    1.246    0.198
        60  -9.3477     64.9437    224.3868   1.3366471477e+02   1.9242600458e+01    0.2521079     0.136661 -45.55  0.001140962    2.666    0.625
        61 -11.3431     97.7937    222.3695   1.2630932031e+02   1.4686846736e+01    0.7043769    0.3709843  62.72  0.002984426    2.304    0.566
        62  -9.1878    164.3236    224.0334   1.1192687688e+02   2.7714139822e+00    0.1846139    0.1771002 -36.91 0.0003810525    1.125    0.111
        63  -9.6303     87.5686    223.3808   1.2868462331e+02   1.6094923459e+01    0.2513207    0.1798023  82.51  0.001029759    1.438    0.304
        64 -10.8761    141.9850    219.8009   1.1610149977e+02   7.6172712030e+00    0.4089998    0.2902498 -55.32  0.001326002    1.524    0.344
        65 -10.3735     70.7754    219.1066   1.3181924791e+02   1.9592208682e+01    0.5207598    0.3108522  84.06  0.002530035    1.883    0.469
        66 -10.4880    245.5136    220.8802   9.5205682728e+01  -9.9024953389e+00    0.2548804    0.1090495 -36.36  0.001190439    2.151    0.535
        67 -10.4903    110.0675    218.3989   1.2302028904e+02   1.3521935399e+01    0.4838376    0.2141919 -73.25  0.001589882    3.977    0.749
        68  -8.8414     89.3187    218.6496   1.2768999631e+02   1.6876383695e+01    0.1492649   0.09508455  71.34 0.0007047924    1.738    0.425
        69  -9.3899     77.0746    220.6742   1.3063667433e+02   1.8307773191e+01    0.1839562    0.1543192  60.17 0.0003905423    1.090    0.083
        70  -9.4479     88.1201    212.7704   1.2717476754e+02   1.8402189436e+01    0.2681885      0.17847 -83.25   0.00091602    1.616    0.381
        71 -10.4594     63.1960    209.5994   1.3236394736e+02   2.2858006981e+01    0.4822812    0.3156714 -59.04  0.002576251    1.560    0.359
        72 -10.7965     55.7076    209.0559   1.3395662191e+02   2.4008384790e+01    0.6689299    0.3484727  79.06  0.002619228    2.380    0.580
        73  -9.5822     55.6655    204.6969   1.3346782545e+02   2.5033973117e+01    0.3404965    0.2025242  12.75  0.001436333    3.316    0.698
        74  -8.7769    130.9562    211.4555   1.1721182384e+02   1.1385695761e+01    0.2054452     0.134727  41.33 5.429983e-07    1.435    0.303
        75  -8.7935     99.2982    218.3125   1.2542115749e+02   1.5341899600e+01    0.1294384    0.1114734 -20.18 0.0004093111    1.603    0.376
        76  -9.7223    156.1593    208.2641   1.1096922101e+02   7.4441763082e+00    0.2157165    0.1935757 -31.84 0.0002598119    1.191    0.161
        77  -9.0711     90.5043    208.9466   1.2610553266e+02   1.8903922955e+01    0.1997303    0.1333015 -66.13 0.0003888749    1.490    0.329
        78  -9.3065    134.3587    207.7482   1.1581564439e+02   1.1581836558e+01    0.2015187      0.13358 -44.35  0.000941116    1.657    0.397
        79 -10.5046    111.3045    206.3739   1.2091651715e+02   1.6015011288e+01    0.4031075     0.248779 -82.31  0.001080514    2.177    0.541
        80  -8.9481     74.4348    208.4672   1.2970349570e+02   2.1501094504e+01    0.1395303    0.1184393  78.61 0.0001405303    1.032    0.031
        81  -8.8164     69.9475    208.0166   1.3066015109e+02   2.2265603973e+01    0.1608928    0.1377849  81.08 0.0003320021    1.008    0.008
        82 -10.2774    246.9956    205.8278   9.2145926372e+01  -7.7009401448e+00    0.2188483     0.137265   4.05  0.001099441    2.047    0.512
        83  -9.9577     91.5131    205.1016   1.2532579097e+02   1.9636942587e+01    0.3462352    0.1937536  34.50   0.00131612    1.902    0.474
        84 -10.8593      2.7116    193.4025   1.4381917355e+02   3.3479523131e+01    0.4719523    0.2266235  74.57  0.002416311    2.074    0.518
        85 -10.0323      2.1911    202.0666   1.4457919279e+02   3.1564523502e+01    0.3015605    0.1475724 -75.83   0.00108511    1.625    0.385
        86  -9.9046      3.1313    197.9641   1.4408440020e+02   3.2406017003e+01    0.2702309     0.117562  45.54 0.0008347276    2.208    0.547
        87  -9.8940     42.9720    200.2975   1.3580392224e+02   2.7690674409e+01    0.3226126    0.1881131 -48.76  0.001198368    2.083    0.520
        88  -9.7307    250.6008    200.2006   9.0448842384e+01  -7.3035712249e+00    0.1872703    0.1045127 -29.20 0.0006378395    1.683    0.406
        89 -11.9876     56.0310    194.0984   1.3210957123e+02   2.7509209360e+01    0.5285656    0.2957599 -50.22  0.001069623    1.999    0.500
        90 -11.2679     28.0473    194.4470   1.3849786077e+02   3.0783396928e+01    0.4605369    0.4069815 -62.03  0.001354188    1.319    0.242
        91 -10.7427     21.1076    194.4384   1.4001260158e+02   3.1511511290e+01    0.3617857    0.2074426 -62.85 0.0009522032    1.599    0.375
        92 -10.8832     83.8734    201.5942   1.2660437608e+02   2.1679226269e+01    0.2558105    0.2221257 -73.32 0.0002634196    1.132    0.116
        93 -10.1254    103.0073    195.9820   1.2122044981e+02   1.9873895179e+01    0.2174457    0.1999584  81.53 0.0003787832    1.012    0.012
        94 -10.3175    249.6888    193.9144   8.9403641660e+01  -6.1144274011e+00    0.2547832    0.2038267  -5.80  0.001557769    1.221    0.181
        95  -9.0207     78.1032    193.8950   1.2686911173e+02   2.4413850584e+01    0.1727106    0.1671514 -26.65            0    1.289    0.224
        96  -9.7190    191.4943    191.4750   1.0007222402e+02   4.2788476833e+00    0.2458147    0.2345325 -16.74 0.0006250621    1.024    0.024
        97  -8.2443     38.4885    192.4215   1.3594937780e+02   3.0094983940e+01    0.1314404    0.1090219  88.08 7.776669e-05    1.013    0.012
        98 -10.4743    250.3267    187.8483   8.8120438937e+01  -5.1775964797e+00    0.3349378    0.1384481 -35.38  0.001435123    2.237    0.553
        99  -9.2139     40.7729    188.9976   1.3503952345e+02   3.0648444031e+01    0.1958189    0.1580539 -88.12  0.001185789    1.038    0.037
       100 -10.5233     10.3534    187.7818   1.4173615928e+02   3.4098401212e+01    0.3772554    0.1845205  78.12  0.001851051    2.134    0.531
       101 -11.5165      4.4834    186.1528   1.4285972655e+02   3.4992449382e+01    0.3356545    0.2656331  88.05 0.0004147843    1.048    0.045
       102  -8.4198    145.5382    187.4650   1.0954169424e+02   1.4020072305e+01    0.1498858    0.1459258  62.15 7.925733e-05    1.001    0.001
       103 -10.3908     83.6168    186.7285   1.2446082818e+02   2.5303388400e+01     0.247445    0.2131674  79.68 0.0003013686    1.091    0.083
       104 -10.6121     71.5818    186.8230   1.2742071872e+02   2.7109333806e+01    0.3255355     0.281414  -3.48  0.001249711    1.595    0.373
       105 -11.7032     62.7660    186.2182   1.2947630247e+02   2.8511976411e+01    0.2893478    0.2501966 -44.21 0.0004312763    1.377    0.274
       106  -9.3813     24.1116    184.0519   1.3832433328e+02   3.3658339750e+01    0.1923333    0.1517281 -63.08 0.0008001861    1.274    0.215
       107  -9.0011     36.4173    183.0546   1.3536781730e+02   3.2583719001e+01    0.2050096    0.1092427 -68.20  0.001015107    1.605    0.377
       108 -12.6679     41.4940    206.5884   1.3679168184e+02   2.6397173891e+01     1.789647     0.768357  72.05  0.006722283    3.449    0.710
       109  -8.8512     77.1783    188.4518   1.2629687333e+02   2.5876884290e+01    0.1823589    0.1257425  53.88 0.0009074151    1.433    0.302
       110  -9.1055     85.7212    180.2976   1.2291281534e+02   2.6550149029e+01    0.1474178    0.1063134  76.45  0.000149738    1.537    0.349
       111  -9.0158     47.2571    179.6846   1.3236420983e+02   3.2133583980e+01    0.1679026    0.1283069  22.53 0.0005006508    1.673    0.402
       112 -10.5570      4.8560    179.0939   1.4217016176e+02   3.6600968686e+01    0.1957233    0.1315336  82.09 0.0009583281    1.290    0.225
       113  -9.1499    103.1812    176.0256   1.1776461188e+02   2.4672425715e+01    0.2040822     0.187675 -76.39  0.001099256    1.042    0.040
       114 -10.9859     65.2865    175.5107   1.2730958755e+02   3.0803234895e+01    0.3302179    0.2388628  47.19  0.001738097    1.414    0.293
       115 -11.2462     19.3989    174.5869   1.3842095530e+02   3.6380676133e+01    0.3373358    0.2069451  88.82  0.001854496    1.503    0.335
       116 -10.8145     73.7094    174.1705   1.2496293091e+02   2.9922448680e+01     0.263917     0.220895 -51.91 0.0003690827    1.250    0.200
       117 -12.0190    248.3568    172.4726   8.5426783326e+01  -2.1730195968e+00    0.6153006    0.3975122 -38.65    0.0033017    1.343    0.256
       118 -12.2666    246.8047    158.0496   8.2780715674e+01   6.8981904923e-01     1.067622    0.7347068 -83.77  0.004880104    2.725    0.633
       119 -11.8522    245.0081    162.0020   8.3880744666e+01   2.7572541108e-01    0.4731432    0.2535488 -45.44  0.002091274    1.683    0.406
       120 -11.8857     59.7036    172.6303   1.2829225546e+02   3.2283243429e+01    0.3914715    0.2706578 -41.06 0.0008069398    1.731    0.422
       121 -10.0537     12.3081    173.1955   1.3992870834e+02   3.7355404749e+01      0.31971    0.1554388 -66.27  0.001208993    1.658    0.397
       122 -10.8360      2.3499    172.0720   1.4209986136e+02   3.8443997801e+01    0.3884166    0.1913678  76.50  0.001932764    2.175    0.540
       123  -9.7455     27.8199    171.3483   1.3605243034e+02   3.6339635223e+01    0.3726402    0.1799495 -44.70  0.001201697    2.582    0.613
       124  -8.8160    124.5994    171.4901   1.1149368590e+02   2.1830082399e+01    0.1528674    0.1463864 -78.42 -0.0001062366    1.022    0.021
       125  -9.5195     51.7000    171.1116   1.3009998225e+02   3.3697590320e+01    0.2174751    0.1717328  57.69 0.0005555112    1.291    0.225
       126  -9.5014    166.9224    170.0980   1.0104588658e+02   1.3659555716e+01    0.2216272    0.2164765 -43.24 0.0004371776    1.017    0.017
       127  -8.5362     95.7015    169.2452   1.1844601789e+02   2.7641943549e+01    0.1470539    0.1103192  70.89            0    1.485    0.327
       128 -11.8481     81.8157    166.0457   1.2149861896e+02   3.0713605214e+01    0.6273296    0.4834021  25.46  0.003183698    1.537    0.349
       129 -11.0662     82.2896    157.8114   1.1988279043e+02   3.2699624480e+01    0.4972906    0.3418007 -47.99  0.002385332    1.459    0.315
       130 -12.9403      6.6736    143.7687   1.3809932507e+02   4.4802036508e+01    0.7330986    0.5571094 -42.16  0.004432505    1.442    0.306
       131 -11.7693     10.5215    157.4830   1.3870011520e+02   4.1247807854e+01    0.3964505    0.2175237  84.68  0.001400218    1.911    0.477
       132 -10.5261     12.4542    154.4734   1.3787704484e+02   4.1811396372e+01    0.2077994    0.1584795 -72.97  0.000724235    1.054    0.051
       133 -11.0704     14.4937    167.2374   1.3879812957e+02   3.8584461739e+01     0.302405    0.2663354 -47.98  0.001297506    1.349    0.259
       134 -11.7367      8.3076    165.9520   1.4013404789e+02   3.9411153670e+01    0.4000551    0.3179967 -18.28  0.001879619    1.790    0.441
       135  -9.0410     64.7020    167.2682   1.2618387300e+02   3.2938446209e+01    0.1959145    0.1801857  57.60 0.0004173648    1.152    0.132
       136  -9.7283     43.1231    161.0458   1.3086244556e+02   3.7220744646e+01    0.2286231    0.1730004 -83.98 0.0003476585    1.219    0.180
       137 -10.9463     45.0619    164.7366   1.3088775856e+02   3.6082469618e+01    0.4662471    0.2175226 -49.07   0.00202117    2.222    0.550
       138  -8.4230     53.7172    164.6903   1.2864246458e+02   3.5039078823e+01    0.1364074   0.09943536 -41.76 0.0003534855    1.567    0.362
       139 -10.2990     31.2502    163.1494   1.3419548290e+02   3.7988848217e+01    0.2491643    0.2220921  75.60 0.0002650303    1.148    0.129
       140  -9.3282     37.7860    163.0306   1.3251740408e+02   3.7327140718e+01    0.2754482    0.1286263  55.33  0.001164214    2.609    0.617
       141  -9.4446     24.2303    161.9613   1.3581227377e+02   3.8970544422e+01    0.1799929    0.1430101 -75.90 0.0004310018    1.034    0.033
       142  -8.2688    119.3128    158.6988   1.1022598940e+02   2.5948800892e+01    0.1589929    0.1208606  79.47 0.0007017701    1.610    0.379
       143 -10.9132     68.4290    166.3012   1.2505545952e+02   3.2655748006e+01    0.2627645    0.2341087 -84.68 0.0003262416    1.026    0.025
       144  -8.7930    228.4219    155.5033   8.5389798804e+01   4.4549779716e+00    0.1422808    0.1264958 -41.28 0.0001553852    1.026    0.026
       145 -11.0071     25.8685    155.3145   1.3455632933e+02   4.0431743658e+01    0.4269525    0.1687351  32.26  0.001910035    2.761    0.638
       146  -9.3192     32.8131    153.8652   1.3254587629e+02   4.0104595047e+01    0.1990121    0.1576848 -56.74 0.0005207332    1.195    0.163
       147 -13.3400    247.6776    100.8233   7.0864490128e+01   1.0882914665e+01     1.690649    0.8110626 -33.01   0.00716262    2.474    0.596
       148 -12.2349    248.1252    113.0624   7.3325146088e+01   8.6409910331e+00    0.9703354    0.6787172  -9.92  0.004579989    2.528    0.604
       149 -12.0040    248.1049    142.1856   7.9331097118e+01   3.3640887453e+00    0.5961441    0.4501748 -20.54  0.003274298    1.520    0.342
       150 -13.1392    248.2055    134.4280   7.7720955350e+01   4.7640545719e+00     1.445103    0.7794005 -35.45  0.006766829    1.790    0.441
       151 -10.4831     95.2117    150.3496   1.1490761435e+02   3.2424180450e+01    0.3655941    0.2806707  51.69  0.001076214    1.362    0.266
       152 -11.5089     21.5176    149.1850   1.3488847883e+02   4.2317942668e+01    0.4287324    0.2376145  36.66  0.002269418    2.027    0.507
       153 -10.1901     83.2381    149.5621   1.1804392877e+02   3.4609670670e+01    0.2613475    0.2287306 -45.92 0.0003093824    1.163    0.140
       154  -9.6415     59.0102    147.2316   1.2435781992e+02   3.8710977721e+01    0.3397111    0.1223784 -44.21  0.001129166    3.379    0.704
       155 -12.2134     68.4248    144.0978   1.2113218055e+02   3.8205732672e+01    0.7082136    0.5228563  88.97  0.002170069    1.571    0.364
       156  -9.7511     41.0751    147.2606   1.2933953776e+02   4.0857275509e+01    0.1989282    0.1698019 -47.12 0.0005434972    1.213    0.176
       157 -10.3103    235.9849    146.0219   8.2089612071e+01   4.8546789627e+00    0.2135902    0.1914505 -36.43 0.0005017834    1.049    0.046
       158  -8.9551     98.5187    146.4817   1.1319324117e+02   3.2802585654e+01    0.1524065    0.1448495 -54.68 4.857046e-05    1.052    0.049
       159  -9.1543     52.6996    146.3303   1.2596383030e+02   3.9735879232e+01    0.1425118    0.1013627  77.89 0.0002056535    1.646    0.392
       160  -9.9176    133.2135    140.7727   1.0264877773e+02   2.7462206239e+01    0.3801421     0.249009 -63.25  0.001582814    1.740    0.425
       161 -10.5991     38.8162    141.7323   1.2908732428e+02   4.2458839100e+01    0.2500944    0.2076005 -88.59  0.001486381    1.193    0.162
       162 -12.0700     17.3538    140.1833   1.3479671376e+02   4.4839593279e+01    0.3938963    0.2750576  57.23  0.002313522    1.633    0.388
       163  -9.8632    107.9672    136.1362   1.0829478708e+02   3.3597344513e+01    0.3941486    0.2693779 -15.71  0.001397014    2.321    0.569
       164 -10.5634     31.5391    139.0624   1.3070791678e+02   4.3847613163e+01    0.2601459    0.1734516  80.39  0.001354989    1.763    0.433
       165 -10.4988     47.7078    135.8347   1.2554368275e+02   4.2918074039e+01    0.2622274    0.2214009 -36.14   0.00142015    1.262    0.207
       166 -11.6843      2.9668    130.9811   1.3751325640e+02   4.8060394145e+01    0.4738029    0.2054764 -56.59  0.002417514    1.793    0.442
       167  -8.7628     94.5077    133.0116   1.1135743608e+02   3.6798741822e+01    0.2117024    0.1212515 -32.93 0.0006731245    2.305    0.566
       168 -10.7006     44.8266    130.5457   1.2542768145e+02   4.4533094364e+01    0.3037981    0.2041881  74.98  0.001058739    1.969    0.492
       169  -8.9347    114.3608    129.2992   1.0492088897e+02   3.3991736437e+01     0.158893    0.1243452  -6.21 0.0005100204    1.715    0.417
       170 -10.3635     59.8360    136.3215   1.2210739266e+02   4.1301067627e+01    0.3218068    0.2334743 -73.09 0.0002923863    1.380    0.275
       171 -12.9827     13.4841    126.4501   1.3393163669e+02   4.8400366164e+01    0.6326869    0.3800928 -39.49  0.001511956    1.732    0.423
       172 -11.5394      2.1456    121.6889   1.3651334692e+02   5.0265994346e+01    0.5456159    0.1581948 -69.21  0.002229884    2.722    0.633
       173 -11.8790      7.1883    121.0050   1.3495797628e+02   5.0107383003e+01    0.3212692    0.2388324  55.90  0.002030097    1.620    0.383
       174  -9.5650     55.9477    135.7512   1.2313115429e+02   4.1941465139e+01     0.213109    0.1895461 -59.29 0.0004798122    1.022    0.022
       175  -9.0018     48.2189    126.3646   1.2362532613e+02   4.5157084595e+01    0.1733477    0.1252011  42.45 0.0003424519    1.562    0.360
       176  -8.9181    209.7090    125.6858   8.2231807778e+01   1.4044007479e+01    0.1424319    0.1176631  -5.21  0.000440788    1.592    0.372
       177 -11.1301     30.9928    118.5045   1.2739336471e+02   4.8820521695e+01    0.4135762    0.1355212 -44.88  0.001562743    2.980    0.664
       178 -12.0381     18.0774    116.5654   1.3101306552e+02   5.0365370902e+01    0.4832497     0.249108 -12.95  0.001742056    3.131    0.681
       179 -12.2378      9.2220    112.7164   1.3308594830e+02   5.1880857288e+01    0.2994298    0.2641276 -50.53  0.001680198    1.127    0.112
       180 -10.8344    231.9186    116.0731   7.6364002192e+01   1.1272907680e+01    0.3013646    0.1846951 -50.11  0.001208616    1.474    0.321
       181 -10.0868    167.8089    113.0285   8.7551234567e+01   2.5976631857e+01    0.3411308    0.2641549 -83.46  0.001037293    1.565    0.361
       182 -11.1512    249.5440    151.0366   8.0912327608e+01   1.4963885358e+00    0.5735221    0.2631151 -42.88  0.002557472    1.871    0.466
       183  -9.0636    203.4625    111.5150   8.0105386508e+01   1.8176729588e+01    0.1480314    0.1378066 -61.45 3.919307e-05    1.029    0.028
       184 -11.3291      2.1154    109.4179   1.3474097428e+02   5.3065167489e+01    0.3505702    0.1422675 -72.59  0.001254828    2.247    0.555
       185  -9.2792     34.9223    107.1838   1.2394000358e+02   5.1071953181e+01    0.1821146     0.167021  89.01 0.0003015115    1.253    0.202
       186 -12.6374     14.8760    102.4590   1.2953634209e+02   5.3816619456e+01    0.4275231    0.3980889  82.96   0.00301722    1.274    0.215
       187  -8.7710     71.7486    100.0391   1.1022836693e+02   4.8140822825e+01    0.1746994    0.1140215 -50.47 0.0002877781    1.444    0.308
       188 -11.8257      1.7033     91.4169   1.3186979098e+02   5.7057224781e+01     0.684011    0.1071571 -66.78  0.001881409    6.581    0.848
       189 -10.8947     14.1759     93.9853   1.2814361252e+02   5.5736633590e+01    0.1996694    0.1710306 -17.77 0.0007989812    1.247    0.198
       190 -10.7324    249.8485    117.8423   7.4065206034e+01   7.4621199244e+00    0.5540841    0.3488857 -19.25  0.001692712    2.597    0.615
       191 -10.8079     20.9356     93.5783   1.2575645397e+02   5.5328645386e+01    0.2488273    0.1333466 -46.44 0.0005666037    1.524    0.344
       192  -8.6985    184.5157     77.4551   7.5278257969e+01   2.8790732450e+01    0.1443737    0.1342759  89.24 6.251664e-05    1.034    0.033
       193 -12.4000    200.5427    246.7343   1.0826791187e+02  -7.2819982775e+00    0.6856841    0.2903693  33.16  0.003082904    2.200    0.546
       194 -12.2479    178.3278    244.4911   1.1236189250e+02  -3.3604143901e+00    0.5013071    0.4528337  71.47  0.002865606    1.400    0.286
       195 -10.7282     19.7631     26.9478   1.0691044665e+02   6.7677420567e+01    0.2667361    0.1379088  41.49  0.001428846    3.046    0.672
       196 -12.1340    102.9162    238.4734   1.2729841815e+02   1.0416654665e+01    0.5698861     0.549486 -69.19  0.001339775    1.235    0.190
