#   1 NUMBER                 Running object number                                     
#   2 MAG_AUTO               Kron-like elliptical aperture magnitude                    [mag]
#   3 X_IMAGE                Object position along x                                    [pixel]
#   4 Y_IMAGE                Object position along y                                    [pixel]
#   5 X_WORLD                Barycenter position along world x axis                     [deg]
#   6 Y_WORLD                Barycenter position along world y axis                     [deg]
#   7 A_WORLD                Profile RMS along major axis (world units)                 [deg]
#   8 B_WORLD                Profile RMS along minor axis (world units)                 [deg]
#   9 THETA_WORLD            Position angle (CCW/world-x)                               [deg]
#  10 FWHM_WORLD             FWHM assuming a gaussian core                              [deg]
#  11 ELONGATION             A_IMAGE/B_IMAGE                                           
#  12 ELLIPTICITY            1 - B_IMAGE/A_IMAGE                                       
         1 -16.6355    243.6723    172.3387   2.0122290443e+01   4.6194296938e+00     2.251406     0.976667 -37.54   0.01241923    1.880    0.468
         2 -15.4237    249.2982     63.7022   3.5852654513e+02   1.8977122349e+01     5.863646          nan -38.12   0.01440541    8.364    0.880
         3 -14.7621    241.3180      5.2062   3.4702888509e+02   2.7128818835e+01    0.9543332    0.6210633  77.34  0.006110203    1.735    0.424
         4 -15.5138    249.7188     15.9837   3.4883915593e+02   2.4539778054e+01     1.745392    0.7827786 -25.35  0.009382413    2.460    0.593
         5 -15.6584    110.5698     31.0056   7.7979935100e+00   5.3725235978e+01     2.198619     1.315654  57.14   0.01012529    1.564    0.361
         6 -14.9377    159.8611      4.9234   3.5172547722e+02   4.4320427364e+01     1.131527    0.9365138  85.26   0.00719527    1.144    0.126
         7 -14.2862    248.8539      5.6052   3.4681085440e+02   2.5760144247e+01     1.187203    0.6307459  39.76  0.005619241    4.997    0.800
         8 -13.0539      7.0834     12.0849   4.8668480680e+01   7.7339235355e+01    0.3233339    0.1415838 -43.59  0.001548138    2.072    0.517
         9 -11.6916      1.5108      6.4908   5.1095421157e+01   7.8897723394e+01    0.2286252   0.08296926 -45.78   0.00103712    2.367    0.577
        10 -16.5102    137.2426     17.7056   3.5824724260e+02   4.8590795423e+01     2.661094     1.973187 -70.15   0.01301881    1.285    0.222
        11 -11.5684    103.1541      6.1050   3.5909141808e+02   5.8410066034e+01    0.2071439    0.1707521  47.55 0.0005551598    1.254    0.203
        12 -12.1082     89.1381      9.2644   3.3462240641e+00   6.1651945028e+01    0.2253803    0.1892821   7.37 0.0009271938    1.397    0.284
        13 -12.9626    223.9234      2.1952   3.4712651988e+02   3.0664363955e+01    0.3376127       0.1891  79.26  0.002102901    1.852    0.460
        14 -11.7419     40.4421    237.9205   7.1346995662e+01   1.8621459255e+01    0.3588277    0.2350878 -18.78  0.001975445    2.393    0.582
        15 -11.3832    139.7693    248.8678   5.0499727516e+01   5.5987766476e+00      0.27005    0.1310267 -38.09  0.001468736    2.372    0.578
        16 -11.1583    124.1074    249.3199   5.3783585945e+01   7.3170020792e+00    0.2190279    0.1681955 -62.94  0.001474345    1.782    0.439
        17 -10.6748    101.8138    238.7192   5.7484466628e+01   1.1688534242e+01    0.1957139    0.1328928  13.48  0.001104826    1.435    0.303
        18 -11.2451    120.4816    225.0851   5.1784808973e+01   1.1835351892e+01    0.3355941    0.1932317   9.20  0.001232979    2.055    0.513
        19 -11.8199    108.1604    233.5930   5.5529250616e+01   1.1837370048e+01    0.4379321    0.2769863  -6.21  0.001876546    2.098    0.523
        20 -12.0206    114.5717    228.9265   5.3567677441e+01   1.1885279694e+01     0.451677    0.2648044   9.49  0.002108735    1.963    0.490
        21 -12.1002    105.1767    249.9562   5.7862191916e+01   9.3798934666e+00    0.6051859    0.1971392  24.47  0.002533831    2.807    0.644
        22 -12.2320    106.3749    241.6504   5.6776090930e+01   1.0641212540e+01    0.8752367    0.4651507  -1.65    0.0037722    3.319    0.699
        23 -12.0405    112.6497    245.6082   5.5821668608e+01   9.2402038903e+00    0.3806773    0.2484921 -32.46  0.001695887    1.852    0.460
        24 -12.3361    117.1655    240.8077   5.4336176037e+01   9.5117014181e+00    0.4279655    0.2629572 -25.66  0.001679432    2.076    0.518
        25 -11.8764     88.1427    249.8736   6.1539079848e+01   1.1318949689e+01    0.3178247    0.1888542  16.40  0.001664903    1.638    0.390
        26 -11.3783     73.0425    250.5130   6.4889412084e+01   1.2872176635e+01    0.2459037    0.1411178  22.11 0.0008124684    1.545    0.353
        27 -11.3256     75.5311    246.9236   6.4066654448e+01   1.3236179964e+01    0.2361732    0.1675351 -34.01 0.0009171392    1.850    0.459
        28 -12.1570     61.8469    249.3535   6.7263427773e+01   1.4277051488e+01    0.2576816    0.2233087   5.09  0.001395032    1.322    0.243
        29 -11.2072     46.5459    250.5508   7.0687161699e+01   1.5634806289e+01    0.2351417   0.09648138  25.12  0.001167411    2.068    0.516
        30 -11.6508     30.6925    248.6808   7.4040259069e+01   1.7518941793e+01    0.2289731    0.1839878 -63.51  0.001151967    1.581    0.368
        31 -12.9769      2.8669    242.2519   7.9815291052e+01   2.1177606601e+01     0.610702    0.2741217  44.15  0.002609186    1.574    0.365
        32 -13.2013      5.2983    235.0209   7.9106706022e+01   2.2388698278e+01    0.4949699    0.2746039  21.30  0.002615423    1.758    0.431
        33 -12.4912     23.9825    241.1873   7.5192250487e+01   1.9560111174e+01    0.4714612    0.2282188 -63.68  0.002233541    2.472    0.596
        34 -12.6007      3.1347    250.1219   7.9940107055e+01   1.9673518646e+01    0.3774485    0.1665353  26.50  0.001805175    1.882    0.469
        35 -13.2334     11.3723    248.1689   7.8162930220e+01   1.9348849623e+01    0.6945406    0.1946995  36.48  0.002316166    2.211    0.548
        36 -10.9198    134.7215    240.0775   5.0510868237e+01   7.5526971145e+00    0.1577911     0.137942  -5.63 0.0009510248    1.165    0.142
        37 -13.0456     14.4146    239.1718   7.7226556932e+01   2.0803942964e+01    0.5269136    0.1483755  33.06  0.001906842    2.343    0.573
        38 -13.0609    227.7318    153.1032   1.8940117951e+01   9.4023550281e+00    0.9083878    0.2705536 -30.61  0.003140873    4.233    0.764
        39 -12.7662    233.6841    151.9046   1.7851070914e+01   8.7812978271e+00    0.3205839    0.2469062   0.77  0.001001782    1.352    0.260
        40 -12.9314    207.7922    156.0815   2.2637052018e+01   1.1744701112e+01     2.055328     1.068576  -8.62  0.007215111    4.699    0.787
        41 -14.3481    214.6301    171.9848   2.4478752115e+01   8.2823365401e+00     1.960189     1.130151 -15.59    0.0104181    1.971    0.493
        42 -13.1810    209.6068    164.1263   2.3862097244e+01   1.0193753554e+01     2.101737     1.061743  -1.77  0.005814321    8.036    0.876
        43 -13.9430    235.7141    144.2688   1.6127955047e+01   9.6355368003e+00    0.5810042    0.3799596  -4.84  0.003409619    1.885    0.469
        44 -13.6868    243.8247    138.5057   1.3952063991e+01   9.3813118179e+00    0.7281202    0.4105033  -4.38  0.003442873    3.215    0.689
        45 -16.1876    202.0198    201.5189   3.1730537719e+01   5.3984153412e+00     5.378509     2.770719   9.18   0.02615914    2.601    0.615
        46 -11.9381     87.7810    204.9521   5.7139409628e+01   1.9983867697e+01    0.4135377     0.202231  40.11  0.001466982    1.799    0.444
        47 -12.6589     78.5863    236.2571   6.2499290513e+01   1.4843035631e+01    0.3857939    0.3250759  46.91  0.001515058    1.132    0.116
        48 -11.8993     79.5834    209.3732   5.9687386956e+01   2.0084976738e+01    0.5189404    0.1632894  40.49  0.001992794    2.660    0.624
        49 -12.4554     91.3488    214.7652   5.7372401299e+01   1.7495806738e+01    0.5899469    0.3924346 -19.41  0.003022846    2.054    0.513
        50 -11.3529     97.8240    212.1228   5.5500600704e+01   1.7202190133e+01    0.3150008    0.2519628  24.60  0.001073922    1.116    0.104
        51 -12.5168     79.4557    228.1984   6.1577129304e+01   1.6279323850e+01     0.421502    0.2815745 -36.52  0.001697845    1.916    0.478
        52 -12.3854     83.1721    222.9055   6.0192322206e+01   1.6875653999e+01    0.4322554    0.2932173   8.35  0.002185805    1.663    0.399
        53 -12.7494     92.2411    236.0531   5.9369488893e+01   1.3295875158e+01    0.4386933    0.3179578   1.55  0.002074073    1.561    0.359
        54 -13.4146    101.6256    229.4172   5.6554928629e+01   1.3388592756e+01    0.8433759    0.5508282  -7.75  0.004493616    2.024    0.506
        55 -11.9971     93.5336    208.7127   5.6146756636e+01   1.8452351608e+01    0.5994383    0.2881975  16.34  0.002464736    2.586    0.613
        56 -13.4782     88.5097    226.8980   5.9328278914e+01   1.5454551687e+01     1.401325    0.5728472 -35.36  0.004767776    5.235    0.809
        57 -13.3610     95.4093    225.3022   5.7550744079e+01   1.4921525703e+01     1.109742    0.5210846 -29.87  0.004149073    4.273    0.766
        58 -11.1953    139.1778    235.7180   4.9046002246e+01   7.7236732583e+00    0.2105046    0.1605885 -28.82   0.00114111    1.401    0.286
        59 -10.7574    129.3876    235.8439   5.1136188302e+01   8.8802245069e+00    0.1584939    0.1035353 -33.05  0.000930592    1.728    0.421
        60 -10.7710     57.6824    236.3272   6.7305224825e+01   1.7147993985e+01    0.2024818    0.1417129  45.84  0.001061148    1.198    0.166
        61 -12.6647     55.0099    231.6251   6.7594550795e+01   1.8353006440e+01    0.4459344    0.3348058 -26.66  0.002129714    1.795    0.443
        62 -12.2941     34.5154    233.1675   7.2446402025e+01   2.0140774121e+01    0.4802593    0.1864904 -61.57  0.002288723    2.957    0.662
        63 -13.7599     39.6045    221.9188   7.0611744685e+01   2.1937536485e+01     1.031032    0.2883032 -65.73  0.004174688    3.614    0.723
        64 -11.7789     44.6038    229.9477   6.9919547979e+01   1.9778957915e+01    0.3743773    0.1946245 -67.16  0.001742566    2.178    0.541
        65 -13.7061     69.1076    219.5191   6.3264020403e+01   1.9225051711e+01     1.204402    0.5170655 -37.65  0.004403521    4.387    0.772
        66 -13.4201     69.0279    227.6758   6.3990609533e+01   1.7587181440e+01    0.7383273     0.471276 -39.12  0.004054199    2.057    0.514
        67 -12.1014     74.5170    222.2181   6.2199626325e+01   1.8042928168e+01    0.2638668     0.260432 -48.77 0.0009763337    1.196    0.164
        68 -14.4522     46.6224    206.2623   6.7790175168e+01   2.4597299747e+01     1.076833    0.6164889 -43.68   0.00526521    2.298    0.565
        69 -14.8810     61.7650    214.0873   6.4595511090e+01   2.1208996633e+01      1.40599    0.9120386 -35.13  0.007351697    2.083    0.520
        70 -14.1950     53.9859    210.5879   6.6254639784e+01   2.2839350196e+01     1.172292    0.6952065 -33.97  0.005627558    2.477    0.596
        71 -14.6245     67.5465    199.7893   6.1774103076e+01   2.3656191717e+01     1.616455     0.695313  28.74  0.006960169    2.057    0.514
        72 -11.6820    123.0862    231.6995   5.2006739926e+01   1.0348405415e+01     0.368115    0.2178714  -2.03   0.00162689    2.276    0.561
        73 -11.5999    221.7803    230.5857   3.2872413241e+01  -7.4764335245e-01    0.2425922    0.1810116 -27.31  0.001840608    1.386    0.278
        74 -11.4562    145.2968    231.9148   4.7284673318e+01   7.6002296736e+00    0.2266838    0.1529638  15.95 0.0008822273    1.289    0.224
        75 -10.4084    237.3225    231.6965   3.0580402351e+01  -2.3726954768e+00   0.08602215   0.07665326  -3.44   0.00070301    1.635    0.388
        76 -11.0153    133.8328    231.1132   4.9605454790e+01   9.1293073563e+00    0.1926284    0.1294845 -10.35  0.001101987    1.698    0.411
        77 -12.8158     19.6263    247.5980   7.6384397790e+01   1.8735067925e+01     0.653504    0.1845426  32.83  0.003102764    2.314    0.568
        78 -12.9911      4.7903    227.2367   7.9007085293e+01   2.3998259893e+01    0.4362315     0.209025  44.87  0.002460109    1.550    0.355
        79 -11.7451     10.4840    224.8506   7.7632553568e+01   2.4020368189e+01    0.3001924    0.1067545  34.60  0.001461121    2.031    0.508
        80 -14.2238    240.0765    155.2150   1.7565073436e+01   7.4678092504e+00     0.996787      0.45429 -15.31  0.003539993    5.168    0.807
        81 -10.9451    143.7572    226.4795   4.6894401643e+01   8.6780469001e+00     0.164768     0.102486  15.16 0.0005265976    1.511    0.338
        82 -10.5272    217.4782    225.2379   3.2788518229e+01   3.6819573391e-01    0.1276614   0.09426662 -35.38 0.0006004381    1.557    0.358
        83 -10.8032    129.4072    224.1969   4.9691911679e+01   1.0866276949e+01    0.2464287    0.1412322  10.95 0.0009343078    1.965    0.491
        84 -13.0986     84.9301    214.0357   5.8857746577e+01   1.8448521763e+01    0.7259857    0.4387899 -20.63  0.003344875    2.591    0.614
        85 -10.8184    227.5615    222.6298   3.0761042558e+01  -3.2322120640e-01     0.204114    0.1058456  12.80   0.00108064    1.930    0.482
        86 -10.7423    135.4800    223.4977   4.8273484597e+01   1.0219998407e+01    0.1274877    0.1040271   7.67 2.371855e-05    1.095    0.086
        87 -11.8607     14.7250    222.4913   7.6562220129e+01   2.4150915052e+01    0.2406515    0.1241172 -63.43   0.00128612    2.256    0.557
        88 -10.9884    239.9860    221.9921   2.8737272871e+01  -1.4596789942e+00    0.1240354   0.08809603   2.30 0.0008199599    1.158    0.136
        89 -10.8882    115.1405    221.7473   5.2584405004e+01   1.3119047342e+01    0.2399144    0.1556582   8.14  0.001280357    1.694    0.410
        90 -10.8525    140.7782    220.8394   4.6771895731e+01   1.0005196559e+01    0.1881158     0.142945  -2.54  0.000960323    1.294    0.227
        91 -12.6179      2.9287    220.0987   7.9234829776e+01   2.5630827592e+01    0.3393674    0.2241581  24.20  0.002106766    1.474    0.321
        92 -11.1517    249.9078    219.5201   2.6894968311e+01  -2.0946522802e+00    0.1367157   0.08464962  15.17 0.0007698373    1.505    0.336
        93 -11.3558    227.9403    217.6789   2.9948487088e+01   2.6934363681e-01     0.200523    0.1482813   7.11 0.0007130557    1.190    0.160
        94 -11.3543    231.9710    217.8049   2.9333322628e+01  -1.5532475673e-01    0.2303991     0.193243 -44.66  0.001725066    1.934    0.483
        95 -10.6337    233.4866    214.4868   2.8586926839e+01   1.1326306311e-01     0.171628    0.1098143  -9.78 0.0002598463    1.288    0.223
        96 -11.3105    109.9302    218.9333   5.3442776251e+01   1.4311362161e+01    0.3265173    0.1636882  18.23  0.001482397    2.164    0.538
        97 -11.2735    105.1581    217.5414   5.4391817752e+01   1.5189412896e+01    0.3927886    0.2377921 -13.30  0.001825738    2.510    0.602
        98 -11.0519    120.1489    217.4199   5.0899114139e+01   1.3276311276e+01    0.2430031    0.1382248  18.13  0.001210302    1.772    0.436
        99 -11.3579     77.2271    217.1426   6.1060398990e+01   1.8753095978e+01    0.1881761    0.1695839   1.77 0.0008247854    1.222    0.181
       100 -10.7456    239.0495    216.7915   2.8089416034e+01  -7.3076188532e-01    0.1235633   0.07381457  22.72 0.0006413207    1.646    0.392
       101 -11.6769    143.8304    214.6066   4.5246631505e+01   1.0691295147e+01    0.3002364    0.1848903   1.36  0.001269154    1.965    0.491
       102 -11.1155    132.3387    213.7368   4.7652183963e+01   1.2356172135e+01    0.2182929    0.1372573  10.00 0.0008167698    1.729    0.422
       103 -10.8415    250.0991    213.0664   2.5883389394e+01  -1.3397068151e+00    0.1565686    0.1022311  -7.32 0.0005936272    1.211    0.174
       104 -12.1679     30.6027    217.1835   7.2518463670e+01   2.3829685006e+01    0.2629254    0.1980718  83.85  0.001321563    1.349    0.259
       105 -10.8675     16.4966    213.4603   7.5775873549e+01   2.5928543060e+01    0.1252607    0.1015545  51.59 0.0003026197    1.011    0.011
       106 -12.1206      2.7204    212.3326   7.9062284258e+01   2.7310465569e+01    0.2348955    0.1220534  71.81  0.001272384    1.739    0.425
       107 -10.7724    117.7952    212.3792   5.0788052066e+01   1.4534351451e+01    0.1954149    0.1120065  17.38 0.0009447318    1.820    0.450
       108 -11.2690     24.6028    212.2611   7.3730596753e+01   2.5463553019e+01    0.1633669    0.1111166 -69.95  0.000951455    1.624    0.384
       109 -11.1917    242.0032    210.0778   2.6606653736e+01  -1.8457473927e-01    0.1606167     0.115515 -14.98 0.0005313295    1.040    0.039
       110 -10.9257    235.5856    209.5181   2.7488600943e+01   5.3528646323e-01    0.2762467    0.1425267  17.60  0.001683605    2.002    0.501
       111 -10.6947    149.4813    210.5236   4.3439440157e+01   1.0661250242e+01    0.1300479    0.1066725   2.71  0.000107171    1.093    0.085
       112 -10.7331    107.4094    210.0901   5.2944051177e+01   1.6355421601e+01     0.257625     0.142191  14.76  0.001174394    2.100    0.524
       113 -10.7145    140.7207    209.4663   4.5187019438e+01   1.2014629832e+01    0.1765001    0.1116672  16.65   0.00093152    1.552    0.356
       114 -14.3447    246.1184    144.7864   1.4829679871e+01   8.1822954933e+00     1.014737    0.4631646 -19.09  0.004324793    3.480    0.713
       115 -11.2728    146.0163    207.7646   4.3778144822e+01   1.1609288349e+01    0.2398232    0.1553163   9.01 0.0006833793    1.646    0.392
       116 -11.3818    150.0136    205.3762   4.2554003254e+01   1.1495457888e+01    0.2531233    0.1762974  13.82 0.0008989689    1.374    0.272
       117 -10.6837    134.8722    208.3328   4.6324462845e+01   1.3007943958e+01    0.1814958    0.1082872  19.98 0.0004468572    1.632    0.387
       118 -10.2495    131.4785    208.4895   4.7112677960e+01   1.3437183940e+01      0.13268    0.1119637   5.54 9.474067e-06    1.103    0.093
       119 -11.5141     32.1257    207.8978   7.1604000397e+01   2.5715373722e+01    0.2184355    0.1409811  53.30  0.001226167    1.337    0.252
       120 -11.9530    161.8195    209.1882   4.0648788750e+01   9.2683833406e+00    0.2984704    0.1934698   6.12  0.001195234    1.617    0.382
       121 -11.1217    171.8645    206.5002   3.8199143986e+01   8.4082712709e+00    0.2111758    0.1440249   7.95 0.0006706584    1.421    0.296
       122 -11.1418    120.3329    206.3164   4.9380429806e+01   1.5362576318e+01     0.243865    0.1453683  17.76 0.0007602755    1.735    0.424
       123 -10.8059    115.6363    206.5595   5.0521930234e+01   1.5952345689e+01    0.2589411    0.1205009  25.21  0.001129701    2.075    0.518
       124 -12.9020     50.0984    222.9561   6.8150313185e+01   2.0632768131e+01    0.5594115    0.4645483 -61.63  0.003142076    1.424    0.298
       125 -11.6027      2.8888    206.1328   7.8834692949e+01   2.8662438930e+01    0.2148466    0.1313845  51.77  0.001253452    1.310    0.237
       126 -11.2464    157.0058    205.1900   4.1036776968e+01   1.0586944404e+01    0.1982551    0.1452415  -1.68 0.0008202733    1.359    0.264
       127 -10.5782    126.6850    205.4555   4.7779918264e+01   1.4662079851e+01    0.1834968    0.1165408  17.78 0.0009391614    1.570    0.363
       128 -10.4718    104.4807    205.4477   5.3060132155e+01   1.7679096223e+01     0.133909    0.1180532  19.09 0.0001206201    1.055    0.052
       129 -11.4318    140.0317    203.5864   4.4472874177e+01   1.3181406547e+01    0.2381252      0.17739 -10.17 0.0009231566    1.428    0.300
       130 -11.8285     18.5206    234.0415   7.6129704888e+01   2.1454651799e+01    0.2599038    0.1685565  73.72  0.001173787    1.482    0.325
       131 -11.5259    180.2116    202.3768   3.5904638731e+01   7.9984141529e+00    0.2496085    0.1624901  -0.16  0.001042816    1.626    0.385
       132 -10.5521     20.7066    203.6837   7.4273161245e+01   2.7732113010e+01    0.1175406   0.09483854 -38.70  0.000319001    1.601    0.375
       133 -11.2019    173.9154    202.4618   3.7151026477e+01   8.8040714215e+00    0.1768578     0.110063  23.10 0.0008208051    1.507    0.336
       134 -11.0524     93.7195    202.5822   5.5363583008e+01   1.9709349507e+01    0.2534168    0.1227647  25.55 0.0008540112    1.965    0.491
       135 -12.0056    165.8323    200.2001   3.8416996934e+01   1.0259224543e+01    0.3400605    0.2088726   1.38  0.001725903    1.973    0.493
       136 -11.2267    144.5663    200.5128   4.2997927125e+01   1.3121565065e+01    0.2151408    0.1506199  -5.93 0.0006606585    1.600    0.375
       137 -10.8172    100.0628    200.9905   5.3575563045e+01   1.9195902296e+01    0.2168094    0.1440157  52.17 0.0008183857    1.626    0.385
       138 -12.2614     40.4545    246.0939   7.1782779208e+01   1.7061715292e+01     0.410541     0.298257 -15.03  0.001947125    1.969    0.492
       139 -10.8250    155.1102    199.9922   4.0626025944e+01   1.1757054338e+01    0.1986175     0.137187  -6.99 0.0006055793    1.590    0.371
       140 -11.0634    132.0402    200.4765   4.5819517454e+01   1.4876016185e+01    0.2420313      0.12134  25.02  0.001094362    1.958    0.489
       141 -11.3880     82.0219    199.2386   5.7944555582e+01   2.1962481641e+01    0.3058165    0.1843339  42.45  0.001404664    1.500    0.333
       142 -11.5041     41.8714    200.1524   6.8561739163e+01   2.6484816177e+01    0.2164234    0.1536371  53.91 0.0009288071    1.252    0.201
       143  -9.9414    162.4746    197.4912   3.8673171404e+01   1.1184876376e+01    0.1323288    0.1080266  -2.91 0.0001689632    1.111    0.100
       144 -11.2102    149.7211    196.6568   4.1259697640e+01   1.3109474008e+01    0.2337469    0.1365873  21.34 0.0007318229    1.719    0.418
       145 -11.5113    177.2921    195.8277   3.5401722710e+01   9.4546694183e+00    0.2357643    0.1576485  16.07 0.0009620076    1.454    0.312
       146 -11.2801    170.9365    195.9177   3.6681696337e+01   1.0298367856e+01    0.2010206     0.145155  -0.74 0.0008964071    1.380    0.275
       147 -10.9332    156.8740    196.2285   3.9647728495e+01   1.2184357087e+01    0.1817795    0.1326088   4.95 0.0008708806    1.378    0.274
       148 -10.1645    125.3314    196.2912   4.6761392159e+01   1.6641192694e+01    0.1373316   0.09888972  -7.01 0.0004370417    1.628    0.386
       149 -11.4837     91.0542    195.9737   5.5216684118e+01   2.1486633381e+01    0.3410501    0.1687277  37.33  0.001537175    1.772    0.436
       150 -10.2363    140.8689    195.4186   4.3030208205e+01   1.4594961894e+01    0.1775819    0.1167002  16.10 0.0006633314    1.560    0.359
       151 -12.0044    207.7746    230.2825   3.5166801093e+01   7.1743917519e-01    0.3769176     0.323502 -24.81  0.002922804    1.465    0.317
       152 -10.7702     36.6564    193.9299   6.9488058313e+01   2.8470229692e+01    0.1869881    0.1576772  69.72 0.0006381164    1.108    0.097
       153  -9.9886    133.4722    193.4648   4.4418294784e+01   1.6033162107e+01    0.1352773    0.1200452   8.33 0.0002026616    1.032    0.031
       154 -11.2750    148.5086    239.0656   4.7536379764e+01   6.0899423700e+00     0.159348    0.1135161 -40.76  0.001030616    1.583    0.368
       155 -10.2832    157.7939    192.3462   3.8816287726e+01   1.2753557919e+01    0.1739414      0.11082  18.19 0.0005817921    1.594    0.373
       156 -10.5545    152.4251    192.2110   3.9950495694e+01   1.3543573433e+01    0.1350902   0.09039473   6.04 0.0005054882    1.678    0.404
       157 -11.1637    162.5173    190.2200   3.7462754983e+01   1.2464957741e+01    0.2361941    0.1681035   1.32 0.0007644361    1.486    0.327
       158 -10.6299    146.7719    191.3062   4.1046677472e+01   1.4525889919e+01    0.1828611    0.1117342  22.20 0.0005589533    1.632    0.387
       159 -12.4540     67.0667    190.4928   6.0919877825e+01   2.5841518815e+01    0.4443051    0.2322446  32.08  0.001812374    1.690    0.408
       160 -10.7155     43.7184    191.5536   6.7388007550e+01   2.8295873837e+01    0.1952516    0.1058658  39.29 0.0009313231    1.577    0.366
       161 -11.0728    186.5708    188.6741   3.2401213849e+01   9.3879388292e+00    0.2370318     0.152615   2.39  0.001140326    1.746    0.427
       162 -11.3481    173.3519    189.0308   3.5038705051e+01   1.1145793541e+01    0.2349874    0.1568071  11.15 0.0009073364    1.572    0.364
       163 -11.2245     79.6256    189.0788   5.7361933334e+01   2.4558007825e+01    0.2945777    0.1608226  43.42  0.001352378    1.694    0.410
       164 -11.6974    180.0219    187.8011   3.3508621570e+01   1.0428455824e+01    0.2324222    0.1580074  -3.42  0.001024305    1.585    0.369
       165 -10.0341     91.6067    188.2993   5.4070584516e+01   2.3111719191e+01     0.152721   0.09566521  55.58 0.0007008219    1.802    0.445
       166 -10.5621     73.8143    187.6396   5.8759740025e+01   2.5651047257e+01    0.2085241    0.1100352  38.62 0.0009390677    1.674    0.403
       167 -10.7174    152.7421    233.1165   4.5907981178e+01   6.5149150585e+00    0.1650129     0.133738  -1.04 0.0009366709    1.099    0.090
       168 -11.2467    157.7659    186.0589   3.7764495891e+01   1.3906092529e+01    0.2559772     0.155688   4.72   0.00118235    2.193    0.544
       169 -10.5570     20.5181    186.5165   7.3393018855e+01   3.1773460159e+01    0.1326573    0.1144176  59.13 4.171188e-05    1.016    0.016
       170 -10.3566    151.3362    185.2354   3.9022630456e+01   1.5005832090e+01    0.1329773   0.09538122   1.18 0.0003664012    1.540    0.351
       171 -11.1375     35.4517    184.8598   6.9135317652e+01   3.0765284070e+01    0.2612529    0.1741518   1.13   0.00106535    1.944    0.486
       172 -11.2462    167.3136    183.8640   3.5374659339e+01   1.2914229555e+01    0.2489236    0.1574913   9.27  0.001246629    1.864    0.463
       173 -11.0071    190.6946    183.4372   3.0715932173e+01   9.6869838400e+00    0.1614263     0.108551  14.30  0.000915223    1.529    0.346
       174 -10.3631    173.9653    183.5147   3.3959942245e+01   1.2017114161e+01    0.1806947    0.1194833  26.88 0.0006196981    1.481    0.325
       175 -11.7588    184.7778    180.6829   3.1342246708e+01   1.0967170084e+01    0.3190065    0.2024499  -1.37  0.001323189    1.920    0.479
       176 -11.1546     69.0072    182.5089   5.9475827687e+01   2.7480688863e+01    0.2211567    0.1296112  29.60  0.001030641    1.583    0.368
       177 -11.5188    198.3662    180.8117   2.8852570836e+01   9.0705323082e+00    0.2572667    0.1497791   9.77  0.001295759    2.183    0.542
       178 -10.1506    155.3647    181.3018   3.7460899103e+01   1.5149151959e+01    0.1419306   0.09739541  -5.28 0.0007035322    1.732    0.423
       179 -10.3479     47.5051    181.4480   6.5435390452e+01   3.0319615494e+01     0.138356    0.1245774  53.21 0.0002341658    1.017    0.016
       180 -11.2872     56.6753    180.1078   6.2686035280e+01   2.9588853783e+01    0.2645428    0.2008413  20.38 0.0008718196    1.364    0.267
       181 -11.4659    177.4612    178.9454   3.2452660455e+01   1.2311958071e+01    0.2419678    0.1631324   8.22 0.0009589862    1.648    0.393
       182 -10.3852    160.3781    179.2680   3.6021277545e+01   1.4777990032e+01    0.1389913   0.09616054  -1.48 0.0006991364    1.684    0.406
       183 -11.8993    191.8159    176.9908   2.9358178897e+01   1.0595534870e+01    0.2948722    0.2051999   5.96  0.001302374    1.530    0.347
       184 -10.2530     43.2900    178.3597   6.6354557414e+01   3.1544852436e+01    0.1392262    0.1013169 -38.31 0.0007026675    1.690    0.408
       185 -10.0998     66.3170    177.2912   5.9610684527e+01   2.9084849619e+01     0.139129    0.1084768 -22.96 0.0004353241    1.598    0.374
       186 -10.5185    169.9812    176.0138   3.3427886942e+01   1.3935415777e+01    0.2119694    0.1442968  -6.34    0.0007207    1.716    0.417
       187 -11.5512    183.3844    173.8340   3.0370105680e+01   1.2337877347e+01    0.2446567    0.1563113  10.11  0.001116716    1.867    0.464
       188 -11.0032    188.1160    170.8644   2.8923850927e+01   1.2156842460e+01     0.207569    0.1384014  -8.44  0.001100274    1.715    0.417
       189 -11.2991    178.5186    167.6109   3.0156627160e+01   1.4157044247e+01    0.4795418    0.2378336 -17.69   0.00163111    4.224    0.763
       190 -10.2894     64.3189    170.2931   5.9326933547e+01   3.1068957699e+01    0.1419642    0.1099025 -24.79 0.0004422306    1.606    0.377
       191 -16.2245     92.6731    149.0902   4.7606388634e+01   3.2269755136e+01     2.643516     2.131906  -6.47   0.01018727    1.509    0.337
       192 -10.4543    116.3145    157.2944   4.2490571399e+01   2.6412552932e+01    0.1484005    0.1137833 -11.77 0.0003146678    1.599    0.375
       193 -10.9857    218.8956    142.8384   1.8287636945e+01   1.2234272646e+01    0.1871216    0.1417556 -11.84 0.0006395404    1.327    0.247
       194 -11.5235    208.3846    142.9729   1.9962012373e+01   1.3794424748e+01     0.225867    0.1740703  16.44  0.000759492    1.459    0.315
       195 -11.0054    214.3154    140.5668   1.8540298210e+01   1.3279434989e+01    0.1970678    0.1285179 -20.48 0.0005209266    1.568    0.362
       196 -12.3142    230.3645    138.2299   1.5711536348e+01   1.1282221483e+01     0.290098    0.1805552 -31.49 0.0008622882    1.313    0.238
       197 -10.2872    192.7178    152.6702   2.4579038453e+01   1.4591198439e+01    0.1332468   0.09283902 -11.91 0.0007004474    1.607    0.378
       198 -11.9663    112.9324    139.3525   3.9842996565e+01   3.1171750646e+01    0.2899926    0.2207928 -41.80 0.0008231542    1.347    0.258
       199 -11.4645    224.6478    138.2162   1.6523439869e+01   1.2110272858e+01    0.2117019    0.1629138  -9.81 0.0006300379    1.335    0.251
       200 -11.0073    202.5963    149.7931   2.2281136232e+01   1.3553722542e+01    0.1969868    0.1350053 -23.13 0.0005918105    1.393    0.282
       201 -11.6703    218.8925    136.0347   1.6936204475e+01   1.3307527205e+01    0.2471434    0.1707592  -0.79   0.00116628    1.850    0.460
       202 -14.6092    248.5540    152.8423   1.5988038784e+01   6.7403705775e+00    0.9163531    0.3244859 -29.14  0.004083232    2.821    0.646
       203 -12.7145    235.0421    132.4530   1.3945201553e+01   1.1481064636e+01    0.4056361    0.2055848  40.30  0.001992356    2.441    0.590
       204 -12.1598    249.6313    122.4979   1.0184845465e+01   1.0875341023e+01    0.2462312    0.1733215 -12.92 0.0009531493    1.560    0.359
       205 -12.7771    242.6739    131.8262   1.2828059879e+01   1.0501597366e+01    0.2807922    0.2086467  -2.76  0.001198196    1.544    0.352
       206 -12.9375    248.4443    127.4764   1.1279098448e+01   1.0333203667e+01     0.273652    0.2190282  15.72  0.001872707    1.519    0.342
       207 -10.1932    215.6640    133.7339   1.6956799612e+01   1.4167504106e+01    0.1221486   0.08988746  -4.01 0.0006976268    1.589    0.371
       208 -11.6577    226.3415    131.2788   1.4905784591e+01   1.2928825911e+01    0.2296667    0.1654062  -9.33 0.0006674813    1.566    0.361
       209 -11.5110    197.7469    154.6549   2.4076420391e+01   1.3476844833e+01    0.2662107    0.1819873 -11.05  0.000997106    1.650    0.394
       210 -11.6095    233.6694    127.0761   1.3070799434e+01   1.2482112056e+01    0.2297238    0.1675812 -18.31  0.000734731    1.351    0.260
       211 -11.6480     87.6116    127.9498   4.5000262757e+01   3.8432140361e+01    0.2860793    0.2237039  10.20 0.0008795717    1.544    0.352
       212 -11.9279    192.6057    162.8958   2.6592292834e+01   1.2853242402e+01     0.359919    0.2214753 -13.89  0.001787816    2.004    0.501
       213 -12.1102    248.1824    116.0999   9.1176791793e+00   1.1983971120e+01     0.286662    0.2186366  21.24  0.001951454    1.716    0.417
       214 -10.6198    242.8866    117.3563   9.9873430223e+00   1.2565551013e+01    0.2208117    0.1335423 -16.55 0.0006318435    2.015    0.504
       215 -12.0949    241.9366    122.4596   1.1104958469e+01   1.1963674151e+01    0.2859551    0.2238953  -3.02  0.001376284    1.467    0.318
       216 -12.4061    240.6417    114.5491   9.7014028114e+00   1.3301836568e+01     0.446553    0.2921822   5.61  0.002434329    2.494    0.599
       217 -10.5771    235.3442    121.3097   1.1706663766e+01   1.3094779158e+01    0.1699821    0.1370527   7.61 0.0006058766    1.486    0.327
       218 -10.8337    238.7236    119.4243   1.0905013391e+01   1.2873369862e+01    0.1908058    0.1534038   0.96 0.0007111822    1.462    0.316
       219 -11.4278    228.0096    122.8452   1.2979851528e+01   1.3968936135e+01    0.1805092    0.1451216 -15.91 0.0005248006    1.248    0.199
       220 -10.7688    187.6339    154.1633   2.5805451801e+01   1.5128666560e+01    0.1922676    0.1095093 -31.31 0.0009361486    1.694    0.410
       221 -11.0224    185.3339    163.5491   2.8068402438e+01   1.3836893846e+01    0.2537373    0.1631436  -8.66 0.0008102107    1.969    0.492
       222 -10.6560    197.1210    148.1610   2.2897412019e+01   1.4676303375e+01     0.199054    0.1545965  -9.81 0.0008105637    1.318    0.241
       223 -12.4225    224.0102    144.6577   1.7876291690e+01   1.1208684866e+01    0.3011499    0.2114574   5.43 0.0009910341    1.725    0.420
       224 -11.4776    221.1275    126.7069   1.4721685438e+01   1.4432529278e+01    0.2251063    0.1431971 -14.25  0.000561122    1.951    0.488
       225 -10.1680    231.3351    114.2637   1.0797219984e+01   1.4756029840e+01     0.114506   0.08733145  -4.65 0.0003496082    1.583    0.368
       226 -11.5867    248.0573    110.9418   8.1244369929e+00   1.2732096155e+01    0.2160951     0.174292  15.96 0.0007406683    1.599    0.375
       227 -10.8819    244.2508    107.6198   7.8991719046e+00   1.3763401585e+01    0.1351457    0.1096276  29.84 0.0004874247    1.594    0.373
       228 -11.3718    248.4100    105.0953   6.9347773427e+00   1.3504570146e+01    0.1893161    0.1548065  16.18  0.000822601    1.601    0.375
       229 -11.7161    241.6951    104.6848   7.6023021025e+00   1.4568930585e+01    0.1606987    0.1248581  45.97  0.000688745    1.647    0.393
       230 -12.6549    247.2671    100.6819   6.1834073989e+00   1.4294202448e+01    0.2743865    0.2255717 -87.94  0.001507918    1.621    0.383
       231 -12.0312    248.7061     95.8213   5.0626884637e+00   1.4755615330e+01    0.1804889     0.151976 -45.28 0.0005141396    1.134    0.118
       232 -13.3386    249.5914     85.2455   2.8572778547e+00   1.6073003822e+01    0.4840013    0.1905756 -27.16  0.001846122    2.973    0.664
       233 -12.6995     95.3814    244.8418   5.9503779657e+01   1.1367052776e+01    0.4877731    0.2813986  15.76  0.002228167    1.730    0.422
       234 -12.7969     82.1615    244.6107   6.2407519564e+01   1.2911027220e+01    0.4238538    0.2959822   3.56  0.001847433    1.651    0.394
       235 -11.5537    177.6347    244.1659   4.2508798020e+01   2.0623458734e+00    0.3200964    0.1585912 -30.46   0.00183935    2.089    0.521
       236 -11.0834    134.1820     43.6256   7.5233677065e+00   4.6040838105e+01    0.2453511    0.1726246  57.86 0.0007158198    1.410    0.291
       237 -10.9366    132.5271    246.2626   5.1689384543e+01   6.8292163985e+00    0.1504424    0.1019271 -29.00 0.0009386799    1.659    0.397
       238 -11.2903    194.5134    243.6014   3.9358529154e+01   3.5374393641e-01    0.2229611    0.1588132 -15.49  0.001620066    1.217    0.179
       239 -12.9143     69.2706    240.4299   6.4962711122e+01   1.5109793871e+01    0.4678656    0.2983277 -42.60  0.002485954    2.042    0.510
       240 -12.5229     51.5518    242.0486   6.9078904065e+01   1.6701498662e+01      0.32495    0.2477392 -63.12  0.001429984    1.601    0.375
       241 -12.4735    123.9257     36.2318   6.9495765556e+00   4.9655348335e+01    0.2787254    0.2178442  70.85 0.0008526468    1.217    0.178
       242 -11.1157    124.2352     47.3002   1.0787291053e+01   4.7945845862e+01    0.2653866    0.1670697  58.57 0.0009210706    1.539    0.350
       243 -11.1061    124.9782    241.5181   5.2738052783e+01   8.4702843142e+00    0.2139633    0.1494994 -28.35  0.001332593    1.628    0.386
       244 -11.2423    170.1975    240.8685   4.3480547532e+01   3.3403641085e+00     0.219595      0.13356 -18.80  0.001339226    1.699    0.411
       245 -11.7337     62.0151    239.6399   6.6550227455e+01   1.6049675455e+01    0.2543894    0.2095045 -19.11  0.001227721    1.545    0.353
       246 -10.7045    113.9138     48.0000   1.3411902519e+01   5.0376652010e+01    0.2465019   0.08130821  58.06 0.0008023897    2.942    0.660
       247 -11.0119     35.1557    240.7848   7.2688978256e+01   1.8585981072e+01    0.2248667    0.1674251 -30.69  0.001296027    1.908    0.476
