#   1 NUMBER                 Running object number                                     
#   2 MAG_AUTO               Kron-like elliptical aperture magnitude                    [mag]
#   3 X_IMAGE                Object position along x                                    [pixel]
#   4 Y_IMAGE                Object position along y                                    [pixel]
#   5 X_WORLD                Barycenter position along world x axis                     [deg]
#   6 Y_WORLD                Barycenter position along world y axis                     [deg]
#   7 A_WORLD                Profile RMS along major axis (world units)                 [deg]
#   8 B_WORLD                Profile RMS along minor axis (world units)                 [deg]
#   9 THETA_WORLD            Position angle (CCW/world-x)                               [deg]
#  10 FWHM_WORLD             FWHM assuming a gaussian core                              [deg]
#  11 ELONGATION             A_IMAGE/B_IMAGE                                           
#  12 ELLIPTICITY            1 - B_IMAGE/A_IMAGE                                       
         1 -14.7961      3.6858    133.1640   1.5134694993e+02   4.6495452497e+01     3.891551    0.8610145 -85.59   0.01396117    4.091    0.756
         2 -13.7133    197.1009     25.6643   6.9854542850e+01   3.2122446793e+01     1.720816     1.412297  26.62  0.006925442    1.398    0.285
         3 -13.6045    212.6285      6.5716   6.2873456796e+01   3.0129251346e+01    0.9095852    0.8055918  75.54  0.005531097    1.160    0.138
         4 -11.3992      2.4917      8.5471   1.3738734805e+02   7.6292730099e+01    0.4247914    0.1432593 -66.54  0.001920676    2.370    0.578
         5 -11.0278      3.1670      2.9851   1.3473206977e+02   7.7486825683e+01    0.3389539    0.2013318  -0.69  0.001998603    1.790    0.441
         6 -10.5755     81.0849    248.4750   1.4012816422e+02   1.6679217215e+01     0.180702    0.1129321  52.87 0.0008455227    1.326    0.246
         7 -11.4264    226.9616    249.9940   1.1369737862e+02  -2.1970417252e+00    0.4555724   0.06505232  36.03  0.001639749    5.158    0.806
         8 -12.7800    175.7063    248.2635   1.2231212902e+02   4.4938466994e+00    0.5190008    0.3071398  28.08  0.003532186    1.187    0.157
         9 -12.9140    123.7436    249.5942   1.3210697452e+02   1.1208959855e+01    0.6061996    0.3105028  34.33  0.003807378    1.378    0.274
        10 -13.2144    143.6167    249.0249   1.2830800263e+02   8.6705679363e+00    0.9209715    0.2389936  35.77  0.004130349    2.660    0.624
        11 -11.0277     30.2476    249.0691   1.4957597414e+02   2.2037141508e+01    0.2723731    0.2046779  53.38  0.002327903    1.132    0.117
        12 -12.0979     19.8830    247.0512   1.5136936416e+02   2.3310092944e+01    0.4534658    0.2707441  22.26  0.003250507    1.948    0.487
        13 -10.6512      2.5631    249.0270   1.5442699346e+02   2.4508074358e+01      0.19035    0.1562293  89.55  0.001362045    1.530    0.346
        14 -11.8072    198.9904    245.8262   1.1787745111e+02   1.6981308855e+00    0.3923131    0.1037484  31.37  0.001709633    3.048    0.672
        15 -13.3223     47.7299    217.7543   1.4490512544e+02   2.5370758411e+01     1.356896     0.799952  44.26  0.006212659    1.243    0.196
        16 -13.3422     32.8459    236.3368   1.4866793302e+02   2.3774493035e+01    0.3266666    0.2460943  80.93 0.0007430614    1.389    0.280
        17 -14.1363     37.3962    230.0376   1.4755352793e+02   2.4352227484e+01    0.7592738    0.4229949  44.85  0.002422321    1.256    0.204
        18 -10.3037     19.9982    237.5364   1.5109857932e+02   2.4788555920e+01    0.2386006    0.1196951  80.92 0.0008951112    1.953    0.488
        19 -11.8769    237.7570    248.2970   1.1172927910e+02  -3.3328607252e+00    0.2857857    0.1933578  12.99  0.002280811    1.081    0.075
        20 -13.0704    121.3302    232.1782   1.3092437481e+02   1.3929436780e+01    0.9414792    0.1816298  35.30  0.003417632    3.739    0.733
        21 -11.3531    139.3210    231.9048   1.2731961570e+02   1.1485982012e+01    0.2436126    0.1355783  31.06  0.001460613    1.376    0.273
        22 -12.5206    104.9248    230.6382   1.3407988012e+02   1.6356791505e+01     0.992305   0.02196966  38.43  0.002859607    5.982    0.833
        23 -11.9247     89.0503    227.3136   1.3702810969e+02   1.8926917365e+01    0.7975835   0.07325427  41.34  0.002655208    4.621    0.784
        24  -9.6260      4.0343    227.7243   1.5381931133e+02   2.7760478973e+01    0.2451324   0.09848331  34.46  0.001563019    1.857    0.462
        25  -9.7631    172.9800    222.5217   1.1959282461e+02   7.9220406475e+00    0.1951124   0.09006487  34.18  0.001043932    1.629    0.386
        26 -11.2781    184.4845    237.0607   1.1934482234e+02   4.5656227004e+00    0.2216892    0.1441787 -46.68  0.001457962    2.407    0.584
        27 -10.6617     57.7928    212.3651   1.4247828124e+02   2.5214889813e+01    0.2273444    0.1339068  58.74 0.0008253557    1.468    0.319
        28  -9.8647     20.3355    211.8812   1.5026414895e+02   2.9093345386e+01    0.3362832    0.1453011  16.24  0.001612439    3.639    0.725
        29 -12.1664     10.3310    206.7415   1.5214176371e+02   3.0877738826e+01    0.5230553    0.3335165  23.18  0.002966516    1.736    0.424
        30 -11.9940     59.6570    201.6349   1.4134713255e+02   2.6952008525e+01    0.2335801    0.2060115  45.82 0.0005136698    1.179    0.152
        31  -9.8147     12.4941    196.4549   1.5140293619e+02   3.2600925381e+01    0.2075347   0.08757765  29.81 0.0006889523    2.075    0.518
        32 -12.2638     66.2280    192.8555   1.3917797600e+02   2.7836110880e+01    0.2338376    0.2104254  50.09 0.0004515818    1.154    0.133
        33 -12.9774     62.6698    178.8700   1.3882526811e+02   3.1040042659e+01    0.2762652    0.2514153 -53.58 0.0008277839    1.371    0.271
        34 -12.2836     64.6479    175.6779   1.3804355376e+02   3.1455913008e+01    0.2369366    0.2118571  45.88  0.001592725    1.127    0.113
        35 -10.9449     76.8479    179.3343   1.3538320255e+02   2.9158757092e+01    0.2115046    0.1890707  58.67 0.0003140813    1.088    0.081
        36  -9.7162    100.0241    176.8214   1.2938555143e+02   2.6398634157e+01    0.3203182    0.1637392  61.14  0.001355638    2.678    0.627
        37 -11.3595     19.0898    173.1864   1.4906008268e+02   3.6657424846e+01    0.3841349   0.09817963  55.64  0.001581633    3.263    0.694
        38 -12.0906     84.3360    170.1197   1.3247730760e+02   3.0024059830e+01    0.6448941    0.5367211   8.22  0.003298463    1.473    0.321
        39 -12.1371    243.3284    247.4276   1.1072889650e+02  -3.9088799827e+00    0.3410154    0.2009231  18.54  0.002563576    1.127    0.113
        40 -10.2272    109.0122    138.2025   1.2100753261e+02   3.2976242660e+01    0.4315803       0.2889 -22.15  0.001894772    2.258    0.557
        41 -10.7500     96.0765    135.6633   1.2421205181e+02   3.5728842982e+01    0.2378836    0.2319367  26.23 0.0003574993    1.097    0.088
        42 -10.8358     30.6804    131.2455   1.4330746392e+02   4.5010544233e+01    0.2679388    0.1801557  48.36 0.0005877855    1.370    0.270
        43  -9.6974    116.4507    129.0414   1.1712251896e+02   3.3622864812e+01    0.4222307    0.2450662 -13.89  0.001242589    4.901    0.796
        44 -11.6986     21.6267    126.3879   1.4567155884e+02   4.6892538733e+01    0.4492704    0.1878789  45.81  0.001227148    2.164    0.538
        45  -9.1294    106.1888    124.4884   1.1911603784e+02   3.6508163298e+01    0.2062311    0.1397557  37.19 0.0004714987    1.396    0.283
        46 -10.9440     96.7435    153.7980   1.2700733373e+02   3.1631084518e+01    0.3496813    0.3094838 -40.94 0.0007436082    1.312    0.238
        47  -9.8446     99.9656    149.4966   1.2546163594e+02   3.2045165287e+01    0.2417706    0.2100889 -61.11 0.0003302798    1.264    0.209
        48 -12.1355     85.6466    152.9187   1.2989050004e+02   3.3502628251e+01    0.2772181    0.2542665 -23.08 0.0007415797    1.317    0.241
        49 -10.4032    157.6882     75.9528   9.2268137852e+01   3.5205611262e+01    0.2240878    0.2035697 -29.99  0.000539429    1.119    0.107
        50 -12.2264     67.3938    143.4613   1.3374183110e+02   3.8157005066e+01     0.675921    0.3739691  54.29  0.002756654    1.812    0.448
        51  -9.0470    134.0000    144.9676   1.1566448051e+02   2.7027789572e+01    0.2250836   0.08457493 -48.50  0.000804964    2.960    0.662
        52 -11.7148    191.1677    248.1199   1.1953580785e+02   2.4784850712e+00    0.3027766    0.2118748  51.82  0.002020222    2.277    0.561
        53 -12.5990    143.9909    243.7929   1.2769664755e+02   9.2766600179e+00     0.369575     0.243549  44.03  0.002545159    1.361    0.265
        54 -12.0909    100.4148    248.4436   1.3644756132e+02   1.4337832014e+01    0.4245231    0.2273038  33.49  0.002728911    1.389    0.280
