#   1 NUMBER                 Running object number                                     
#   2 MAG_AUTO               Kron-like elliptical aperture magnitude                    [mag]
#   3 X_IMAGE                Object position along x                                    [pixel]
#   4 Y_IMAGE                Object position along y                                    [pixel]
#   5 X_WORLD                Barycenter position along world x axis                     [deg]
#   6 Y_WORLD                Barycenter position along world y axis                     [deg]
#   7 A_WORLD                Profile RMS along major axis (world units)                 [deg]
#   8 B_WORLD                Profile RMS along minor axis (world units)                 [deg]
#   9 THETA_WORLD            Position angle (CCW/world-x)                               [deg]
#  10 FWHM_WORLD             FWHM assuming a gaussian core                              [deg]
#  11 ELONGATION             A_IMAGE/B_IMAGE                                           
#  12 ELLIPTICITY            1 - B_IMAGE/A_IMAGE                                       
         1 -16.1164    240.6024     94.6709   4.8517536678e+01   1.3527472892e+01     7.548743     2.194343 -38.70   0.02741252    2.911    0.656
         2  -9.8144     40.7667     14.0739   7.0784588588e+01   6.8463900167e+01    0.1684605    0.1290568   2.26 0.0002614076    1.063    0.059
         3 -11.8189    159.6069    243.7811   9.3760936730e+01   8.0815968474e-01    0.1989985    0.1716542 -39.89  0.001288655    1.350    0.259
         4 -11.4799    163.1786    225.9752   9.0308279851e+01   3.3148582168e+00    0.4360832    0.2973165  27.76  0.001804723    1.332    0.249
         5 -10.5203     99.3338    225.8690   1.0427574047e+02   1.3414520533e+01    0.3130369    0.2093164  30.81  0.001225386    1.485    0.327
         6 -11.2358    126.1055    220.7432   9.7622036659e+01   1.0288578257e+01    0.2358786     0.209599  70.40 0.0005934723    1.223    0.182
         7  -9.5929     83.6444    220.3076   1.0709911610e+02   1.6883261818e+01    0.1433684   0.08766384  62.31  0.000704216    1.723    0.420
         8  -9.8500    205.3011    218.6340   8.0402848816e+01  -2.0161710308e+00    0.1161983    0.1071916  84.78  0.000703428    1.733    0.423
         9  -9.9731    191.6746    217.2959   8.2897520776e+01   3.0154200068e-01    0.1215746    0.1058494  60.99  0.000272617    1.625    0.385
        10 -10.1268    143.9526    216.8630   9.3045462267e+01   8.1456991261e+00    0.2278979    0.2040775 -42.00 0.0009306186    1.221    0.181
        11  -9.9054    186.4718    214.9772   8.3559580832e+01   1.5249421541e+00    0.1646478    0.1228789 -71.92 0.0005216609    2.372    0.578
        12 -10.1563    131.7006    214.0366   9.5358681021e+01   1.0731552605e+01    0.1890244    0.1829723  11.85 0.0007754376    1.080    0.074
        13  -9.6568    116.3382    210.6614   9.8372254768e+01   1.3945716715e+01     0.147351    0.1016943  66.35 0.0005403771    1.759    0.431
        14  -9.4954    139.6756    208.3190   9.2635148058e+01   1.0566338472e+01    0.1420329    0.1074191  66.78  0.000704536    1.675    0.403
        15 -10.3329     99.6119    206.3564   1.0166114122e+02   1.7539396594e+01    0.2240816    0.1542117  67.41 0.0008464274    1.654    0.395
        16 -11.3971    186.0724    203.9495   8.1658951319e+01   3.5560212049e+00     0.424418     0.250548 -55.52  0.001920267    2.320    0.569
        17 -11.5834    164.9939    202.4031   8.5917824039e+01   7.4200377637e+00    0.5145522    0.3664756 -63.68  0.002532961    1.899    0.473
        18 -11.7455    162.8635    194.3065   8.4911145013e+01   9.3982001013e+00    0.4980708    0.3664526  72.06  0.001742473    2.122    0.529
        19 -10.4758    131.0467    203.5388   9.3845069063e+01   1.3020975822e+01    0.2861116    0.1752858  79.98  0.001036862    3.503    0.715
        20 -10.6421    149.5307    198.7961   8.8756438035e+01   1.0827919239e+01    0.3484991    0.2479516  85.68  0.001536076    2.411    0.585
        21 -11.0454     88.9903    199.1779   1.0319766808e+02   2.0789661303e+01    0.3089613    0.2148313  79.49  0.001423809    1.673    0.402
        22 -11.9743    177.2670    197.8317   8.2396417728e+01   6.1883905081e+00    0.3885116    0.3108878  66.20  0.002020944    1.765    0.434
        23 -11.6199    172.6583    195.8622   8.3029189963e+01   7.3678824190e+00    0.3613349    0.2733738  25.45  0.001758809    1.277    0.217
        24 -10.6462    173.1639    191.8315   8.2154929827e+01   8.0696100626e+00    0.2811953    0.2537752  71.88   0.00111886    1.416    0.294
        25 -10.8168    113.2303    198.2436   9.7217482689e+01   1.7161434953e+01    0.3014577    0.1926867  67.28  0.001327892    2.088    0.521
        26 -11.4620    125.4987    197.6951   9.4192498154e+01   1.5222442721e+01    0.3942901    0.2529735  31.48  0.001865036    1.549    0.354
        27  -9.4236    203.3419    197.6851   7.6943162311e+01   1.8346589213e+00    0.1256296    0.1122534  80.42 0.0003945755    1.707    0.414
        28  -9.7172    193.4315    196.2645   7.8685620514e+01   3.7285673354e+00    0.1863933    0.1308693 -50.10 0.0009451663    1.659    0.397
        29 -10.2750     66.7629    195.1589   1.0804094635e+02   2.4908385509e+01    0.2487648    0.1210776  66.27 0.0009547618    2.857    0.650
        30 -10.8175    186.4873    193.8712   7.9676693379e+01   5.3522147103e+00    0.2570809    0.2291344  68.27  0.001036015    1.509    0.337
        31  -9.7149    205.9010    191.3786   7.5215988356e+01   2.5328330502e+00    0.3357695    0.1892667 -48.34  0.001547677    2.023    0.506
        32 -11.3997    204.4984    185.1632   7.4269028000e+01   3.8877104559e+00    0.4146285    0.2934861 -57.09  0.001800852    1.903    0.474
        33  -9.9797    200.0326    191.9832   7.6510212468e+01   3.4003887001e+00    0.1981137    0.1778406  87.06 0.0007146217    1.647    0.393
        34  -9.9973    179.6449    191.1474   8.0612530776e+01   7.0613209359e+00    0.2117104    0.1793855 -56.70 0.0006453371    1.416    0.294
        35 -10.9000    139.1361    189.5367   8.9527031347e+01   1.4625769567e+01    0.3820937     0.271217 -70.68   0.00158891    1.822    0.451
        36 -10.0487    210.6521    189.3400   7.3881663789e+01   2.1129462258e+00    0.1894512    0.1689282 -78.92   0.00094715    1.686    0.407
        37 -10.9861    129.4705    188.6409   9.1688527873e+01   1.6535333239e+01    0.3238735    0.2335633  78.47   0.00147247    1.963    0.491
        38 -10.8652     86.9886    188.9845   1.0224747255e+02   2.3474987973e+01    0.2418292    0.1609503  68.31   0.00113874    1.734    0.423
        39 -10.1398    217.9242    187.9081   7.2199690968e+01   1.1831974914e+00    0.1907992    0.1732732 -79.68  0.001123743    1.656    0.396
        40  -9.8149    192.6888    188.1330   7.7261792654e+01   5.3612545052e+00    0.2133015    0.1777092 -57.50 0.0008376398    1.504    0.335
        41 -10.6773    156.0164    187.0582   8.5105114902e+01   1.2117085794e+01    0.3427914    0.2198367 -57.05  0.001406718    1.821    0.451
        42 -12.3294     95.4628    186.7430   9.9789139374e+01   2.2693601919e+01    0.5012713    0.3073355  64.94  0.002181066    2.049    0.512
        43 -10.1501    165.5444    186.1102   8.2747968166e+01   1.0585011159e+01    0.4836342    0.2896088 -60.14  0.002039519    2.256    0.557
        44 -11.7841    120.4833    185.2650   9.3295102320e+01   1.8871191252e+01    0.5116761    0.2789746 -66.98  0.002030038    2.383    0.580
        45 -11.5275    109.2293    185.7192   9.6172614083e+01   2.0688845619e+01    0.4267904    0.2744981  82.60  0.001760446    2.393    0.582
        46 -10.4333     55.0029    187.0029   1.0993210904e+02   2.8383058304e+01    0.2963856    0.1231868  65.08 0.0009561797    4.110    0.757
        47 -11.9334     15.2012    186.3112   1.1934141061e+02   3.2812861675e+01    0.2564582    0.2033084 -64.25  0.001606036    1.320    0.242
        48 -10.1362    211.2638    183.2894   7.2562445049e+01   3.0880955521e+00    0.2407606    0.1868068 -31.80 0.0009743042    1.198    0.165
        49  -9.9934    183.2163    184.2114   7.8483677644e+01   7.7785631172e+00    0.1893517    0.1758621 -75.01  0.000776132    1.367    0.269
        50 -10.5803    174.5061    183.5398   8.0244054905e+01   9.4805906459e+00    0.2896799     0.265771  85.61  0.001087439    1.391    0.281
        51 -10.2676     74.4161    184.1841   1.0472312543e+02   2.6474723952e+01    0.2024717     0.128552 -82.23 0.0009454372    1.734    0.423
        52 -10.4223    197.3108    182.8127   7.5250086108e+01   5.5573499683e+00    0.2549765    0.2201697 -64.89  0.001091269    1.534    0.348
        53 -11.6345    148.2027    180.6686   8.5705963444e+01   1.4914060240e+01    0.4010605    0.2846222 -57.89  0.001503127    1.576    0.366
        54 -10.7876     83.3941    182.1646   1.0214955039e+02   2.5653334922e+01    0.2068014    0.1325149 -78.57 0.0009489153    1.743    0.426
        55 -10.8400    137.8927    179.0924   8.7882847278e+01   1.7159461020e+01    0.3110809    0.2228409 -77.24  0.001107949    1.930    0.482
        56 -10.4503    192.5582    178.0164   7.5258160360e+01   7.3088690365e+00    0.2939585    0.2478359 -83.68  0.001431672    1.755    0.430
        57  -9.8116    205.6534    178.3168   7.2659217857e+01   4.9460922722e+00    0.2038903    0.1742313 -79.87  0.001092704    1.753    0.430
        58 -10.1920    129.4055    177.2193   8.9616297144e+01   1.9132472756e+01    0.2114139    0.1452915 -66.26 0.0007383034    1.712    0.416
        59 -10.7333     88.9465    176.9720   9.9915603306e+01   2.6068232776e+01    0.2450829    0.1686952  69.47  0.001137732    1.709    0.415
        60 -11.6532     77.5655    176.2417   1.0276660889e+02   2.7963087822e+01    0.4567852    0.1968015  49.63  0.001732928    2.542    0.607
        61 -10.4411    183.3206    175.8398   7.6765934768e+01   9.4120231167e+00    0.2752446    0.2646824 -38.69  0.001216182    1.153    0.133
        62 -11.2863    105.6532    175.1777   9.5277172148e+01   2.3788599100e+01    0.3285649    0.2211456  63.28  0.001468134    1.786    0.440
        63 -10.0492    159.6548    175.3550   8.1960941616e+01   1.3926580720e+01    0.2276092    0.1850892  80.27 0.0009515056    1.686    0.407
        64 -10.6692    177.3569    171.2051   7.7100959085e+01   1.1457827716e+01    0.3483908    0.2742484 -66.75   0.00124871    1.655    0.396
        65 -11.0827    134.6204    171.3712   8.7186948018e+01   1.9516278263e+01    0.3485133    0.2654639 -76.78  0.001458226    1.663    0.399
        66 -10.6942    206.3649    169.8200   7.0764108989e+01   6.4027906288e+00    0.2991058    0.2358955 -63.84  0.001155468    1.725    0.420
        67 -12.1947    122.1031    169.0227   8.9892412222e+01   2.2369249640e+01    0.5298345    0.4115785 -87.10   0.00214161    1.614    0.381
        68 -10.6390    168.3235    169.0491   7.8667339060e+01   1.3621369109e+01    0.3507291    0.2795423 -76.94  0.001379984    1.727    0.421
        69 -10.6884    149.8919    169.6542   8.3102003159e+01   1.7020067194e+01    0.3356422    0.2532401  81.74  0.001348963    1.958    0.489
        70 -11.3836    211.9182    168.2218   6.9350252469e+01   5.7197973517e+00     0.393272    0.2626792 -68.99  0.001640379    2.902    0.655
        71 -10.4069    111.8757    167.3677   9.2229561190e+01   2.4596406831e+01    0.3004463    0.2085323 -87.37  0.001285263    1.993    0.498
        72 -10.1275     88.4047    168.2266   9.8617893837e+01   2.8306124429e+01    0.2111041    0.1385821 -75.08 0.0009461725    1.692    0.409
        73 -10.9031    192.4822    164.8921   7.2527649952e+01   9.8848076893e+00    0.6228463    0.2164535 -45.97   0.00212012    2.915    0.657
        74  -9.8957    185.6294    167.1340   7.4448913425e+01   1.0725248468e+01    0.2289856    0.1824833 -57.42  0.001063106    1.467    0.318
        75 -12.2622    139.2870    164.5091   8.4633454258e+01   2.0210058035e+01        0.604     0.415231 -76.51  0.002214328    2.131    0.531
        76 -11.1062     99.2243    166.1145   9.5349401198e+01   2.7074933311e+01    0.3063554      0.18183  59.17  0.001244458    2.105    0.525
        77 -12.4952    213.1214    162.8495   6.7988664137e+01   6.5017676749e+00    0.8746237    0.2832821 -47.37  0.002841219    3.535    0.717
        78 -10.5905    159.7347    163.6562   7.9505403131e+01   1.6438581128e+01    0.4361301    0.2428198 -55.78  0.001723834    2.102    0.524
        79 -11.3181     79.5924    163.6812   1.0023642293e+02   3.0792695865e+01    0.4925873    0.2621355  79.62  0.001569687    3.920    0.745
        80  -9.9896    132.5824    163.7874   8.6169962515e+01   2.1653649027e+01    0.2137751    0.1487039 -63.29 0.0006646083    1.635    0.388
        81 -12.4208    207.9310    150.6985   6.6353563294e+01   9.7404924232e+00     1.123669    0.2846122 -46.16  0.003175149    4.299    0.767
        82 -11.7035    198.1036    136.2661   6.5003875889e+01   1.4458774675e+01    0.7461375    0.2489384 -44.02   0.00248441    2.831    0.647
        83 -11.4209    196.7807    157.2596   6.9993343474e+01   1.0578391084e+01    0.5284718    0.3345587 -54.01  0.002002129    1.844    0.458
        84 -12.1737    190.2245    149.5853   6.9636559204e+01   1.3377457643e+01    0.7117411    0.4736719 -63.69  0.002382786    2.116    0.527
        85 -11.6317    200.3217    148.3330   6.7309583913e+01   1.1650536134e+01    0.6474442    0.3441494 -46.80  0.002369369    1.867    0.464
        86 -11.8117    195.8239    143.0716   6.7018215395e+01   1.3570555290e+01    0.5936644     0.418083  50.29  0.001907057    1.581    0.367
        87 -11.3336    205.8806    162.0567   6.9216666625e+01   7.9557293420e+00     0.456569    0.2880279 -46.74  0.001372911    1.607    0.378
        88 -11.7714    204.5717    155.0190   6.7951068233e+01   9.5435339385e+00    0.5738583    0.2957346 -41.80  0.001808059    1.808    0.447
        89 -10.1301     69.5069    162.9976   1.0288381801e+02   3.2420386110e+01    0.2121386    0.1198667  87.29 0.0008105314    2.582    0.613
        90 -11.1109    177.7686    160.0939   7.4634281834e+01   1.3672144426e+01    0.4610775    0.3199733 -58.01  0.001562542    1.721    0.419
        91 -10.8991    151.6867    160.5175   8.0746158607e+01   1.8707605815e+01    0.3633875    0.2982991 -84.78  0.001428886    1.580    0.367
        92 -11.5478     92.8270    160.2136   9.6004695200e+01   2.9594331589e+01    0.4354761    0.2782052  72.76  0.001780643    2.225    0.551
        93 -10.4628    128.3978    158.8510   8.6218288889e+01   2.3606296379e+01    0.3056041    0.2497658  76.12  0.001198835    1.481    0.325
        94 -11.5475    105.4956    157.0905   9.1945392925e+01   2.8226560803e+01    0.5033107    0.3167629 -70.39  0.002106909    1.904    0.475
        95 -11.9719    218.2497    156.5699   6.5691236850e+01   6.7479706453e+00    0.3757143    0.2371817 -46.54  0.001636541    1.584    0.369
        96 -10.7316    188.3426    157.3460   7.1756321289e+01   1.2179475080e+01    0.3384817    0.2464955 -55.40  0.001175755    1.565    0.361
        97 -11.2632    167.7923    156.7062   7.6126073252e+01   1.6353981529e+01    0.4953668    0.3425925 -57.59  0.002035251    1.667    0.400
        98 -10.7790    157.7432    156.0014   7.8310643947e+01   1.8511232494e+01    0.3740611    0.2432346 -60.50  0.001247155    1.875    0.467
        99 -13.3613    232.6933    144.6982   6.0607104556e+01   6.3363552464e+00     1.187722    0.5395677 -57.19  0.003672928    4.842    0.793
       100 -11.8765    166.1996    248.7679   9.3132671720e+01  -9.8809747280e-01    0.2869791    0.1901629  27.56   0.00139062    1.287    0.223
       101 -11.5514    219.6871    136.4126   6.1029110827e+01   1.0206472821e+01    0.4014371    0.2327755 -32.22  0.001535104    1.655    0.396
       102 -11.9379    211.9302    129.0308   6.0740714908e+01   1.3083755101e+01    0.4602554    0.2941539 -62.68   0.00191378    2.136    0.532
       103 -10.9167    215.2394    135.4331   6.1598888395e+01   1.1236652475e+01    0.2673497     0.161062 -48.58 0.0006797317    1.649    0.394
       104 -11.1357    172.2214    137.2923   7.0667566811e+01   1.9598607806e+01    0.4975812    0.3062366 -56.69  0.002048092    1.908    0.476
       105 -10.7100    144.5488    154.5032   8.1184520046e+01   2.1477192565e+01    0.3689665    0.3036071 -88.62  0.001274942    1.550    0.355
       106 -10.9461    138.3732    137.4822   7.8853859384e+01   2.6647175685e+01    0.3205568    0.1925762 -50.23 0.0009751424    1.666    0.400
       107 -10.1479    192.5627    136.3060   6.6115643770e+01   1.5576628270e+01    0.3711731     0.140127 -39.13  0.001279258    2.549    0.608
       108 -11.4116    162.6384    135.8845   7.2515499293e+01   2.1922572959e+01    0.4807716    0.2817917 -53.18  0.001329879    1.849    0.459
       109 -10.6871    187.9002    135.1025   6.6784934114e+01   1.6778172305e+01    0.3778751    0.2125303 -45.64    0.0011366    1.715    0.417
       110 -11.2740    179.5416    133.0701   6.8060281059e+01   1.8941835309e+01    0.4862784    0.2754948 -49.23  0.001425955    1.798    0.444
       111 -11.0054    112.5193    132.5968   8.4687894030e+01   3.2956463509e+01     0.454538     0.286019 -63.68  0.001776189    1.847    0.459
       112 -10.5923    142.6134    148.6845   8.0370900128e+01   2.3198458994e+01    0.3548284     0.235642 -59.20  0.001027404    1.695    0.410
       113 -11.8759    143.0756    130.2170   7.5891871312e+01   2.7331040464e+01    0.6442885    0.3162228 -46.64  0.001974971    2.002    0.500
       114 -12.2872    131.7241    129.3020   7.8614348704e+01   2.9914875609e+01    0.8946078    0.3579801 -53.03  0.002883994    2.769    0.639
       115 -11.8523     83.3223    131.0328   9.2930688224e+01   3.8486609109e+01    0.5364815    0.3157396 -73.46  0.002067461    2.214    0.548
       116 -11.5372    203.0739    121.7181   6.0654965021e+01   1.6265845272e+01    0.4276496    0.3342989 -84.67  0.002100992    1.715    0.417
       117 -11.9149    204.5291    129.8617   6.2289101256e+01   1.4406558501e+01    0.4771083    0.3240508 -65.63  0.001944192    2.016    0.504
       118 -10.3752    200.3568    124.8212   6.1895622564e+01   1.6232162321e+01    0.2248294    0.1825042 -37.28 0.0005224611    1.141    0.124
       119 -10.8795    192.9414    129.4591   6.4431571722e+01   1.6863256152e+01    0.4282875    0.2891098 -47.67  0.001257899    1.445    0.308
       120 -11.7415    168.8011    128.6711   6.9353772085e+01   2.2155057912e+01    0.5261634    0.3339343 -47.65  0.002124832    1.557    0.358
       121 -10.4021    186.2085    129.0933   6.5707375996e+01   1.8348358490e+01    0.3587803    0.2091276 -42.44 0.0009054985    1.620    0.383
       122 -11.8058    152.7766    127.7947   7.2883792493e+01   2.5802042030e+01    0.6612421    0.3257669 -49.25  0.002294752    2.070    0.517
       123 -12.2857     98.4755    125.8188   8.7168561276e+01   3.7213124646e+01    0.9078934    0.3514139 -59.77  0.002787586    3.254    0.693
       124 -10.5720     72.6971    128.7149   9.5706956728e+01   4.0700757779e+01    0.3084793    0.1842182 -83.24  0.001184711    2.517    0.603
       125 -11.8588    180.1222    123.6007   6.5643887929e+01   2.0764707919e+01     0.684413    0.3544279 -36.98   0.00270131    1.924    0.480
       126 -12.0939    117.5517    123.9083   8.1156216089e+01   3.4058064977e+01    0.6618578    0.3397964 -58.27  0.002399229    2.286    0.563
       127 -11.0365     59.3050    124.1720   9.9002499513e+01   4.3700013929e+01    0.4946882    0.2753494  84.90  0.001685405    3.611    0.723
       128 -10.9855    188.7501    122.9889   6.3720203654e+01   1.9033957770e+01    0.5547312    0.2804605 -40.36  0.002226561    1.865    0.464
       129 -11.1927     44.0853    123.1267   1.0369379754e+02   4.5770074948e+01    0.6127908    0.3246137  81.39  0.002169168    3.561    0.719
       130 -11.7536    212.0378    122.7950   5.9287599421e+01   1.4231133850e+01    0.5484182    0.2216064 -42.53  0.002091318    2.234    0.552
       131 -12.2283    205.3033    105.5986   5.6411715455e+01   1.8820473355e+01    0.4919178    0.2185566 -46.89  0.001911591    2.172    0.540
       132 -10.2662    209.1926    118.1961   5.8720174459e+01   1.5668955905e+01    0.2717755    0.1836562 -45.88 0.0007205999    1.374    0.272
       133 -11.2887    208.6653    113.2000   5.7637902165e+01   1.6708145535e+01    0.4890687    0.2387854 -51.52  0.001932059    2.225    0.551
       134 -10.0228    164.5129    124.4921   6.9292963483e+01   2.3972437695e+01    0.1560018    0.1506367 -34.05 0.0004239522    1.001    0.001
       135 -10.8506     28.4800    122.3732   1.0856991284e+02   4.7483450751e+01    0.6349223     0.282014  76.36  0.001714166    6.580    0.848
       136 -13.4241    193.4049    102.2058   5.7709089919e+01   2.2040229859e+01     1.199148    0.3241666 -40.20  0.003635957    3.405    0.706
       137 -10.6772    203.3440    115.4924   5.9128664990e+01   1.7392462990e+01    0.3044031     0.203932 -47.04 0.0008774867    1.410    0.291
       138 -11.6019    201.0302    110.1194   5.8258250464e+01   1.8895281626e+01    0.5369375    0.3187769 -24.49  0.002234607    2.110    0.526
       139 -12.7976    196.8071    107.8609   5.8479133764e+01   2.0231431139e+01    0.9162167    0.2602374 -37.95   0.00277344    3.444    0.710
       140 -10.7265    194.9639    121.5141   6.2140076120e+01   1.8003859674e+01     0.477427    0.2282639 -49.14  0.001389234    2.163    0.538
       141 -11.1358    193.1942    114.5674   6.0798876178e+01   1.9733025763e+01     0.532037    0.2655097 -43.10   0.00149332    1.871    0.466
       142 -11.1386    172.5258    120.0805   6.6399377982e+01   2.3143296558e+01    0.4912802    0.2763092 -47.93  0.001473867    1.772    0.436
       143 -12.0097    158.5681    119.8952   6.9510652695e+01   2.6257080347e+01    0.6037799     0.306994 -43.69  0.002318463    1.911    0.477
       144 -12.5155    141.6056    116.4900   7.2779842653e+01   3.0722294555e+01    0.9648851    0.3914199 -45.59   0.00327764    2.424    0.588
       145 -12.0478    130.5981    117.1312   7.5827472432e+01   3.2946039933e+01    0.6318954    0.3163809 -54.18   0.00228464    2.241    0.554
       146  -9.6668     12.3320    129.0048   1.1448895842e+02   4.7078720453e+01    0.2196006   0.08774836  83.87  0.000705143    4.348    0.770
       147  -9.7294    199.5026    117.0481   6.0206735764e+01   1.7906895570e+01    0.2311018    0.1376394 -40.35 0.0007346642    1.552    0.356
       148 -11.1798    185.9894    115.2287   6.2373975675e+01   2.1169619405e+01    0.4952823    0.2461753 -43.57   0.00144604    1.902    0.474
       149 -11.7622    182.7941    108.4894   6.1328583718e+01   2.3199529245e+01    0.4774887    0.2393348 -45.68   0.00130716    1.930    0.482
       150 -11.3313    167.4021    112.7339   6.5658988271e+01   2.5794816913e+01     0.528618     0.322806 -28.02  0.002139831    1.941    0.485
       151 -10.7825    153.4680    114.5862   6.9350100441e+01   2.8521581289e+01    0.3309489    0.1524354 -43.50  0.001085288    2.118    0.528
       152 -11.7525    108.5725    111.6094   8.0586173126e+01   3.8721678966e+01    0.8978416    0.3364136 -51.47  0.002915889    2.755    0.637
       153 -10.9886     78.7320    112.1579   9.0023998205e+01   4.3904836176e+01    0.5164937    0.3122975 -86.53  0.001768647    3.435    0.709
       154 -11.3636    174.6402    110.4776   6.3513463480e+01   2.4629882236e+01    0.5929626      0.27932 -44.71  0.002209678    2.052    0.513
       155 -11.6680    159.3945    110.5074   6.6889002245e+01   2.8054667791e+01    0.5933455    0.2982227 -41.39  0.001957824    1.943    0.485
       156 -11.9859    122.2227    110.5433   7.6373901059e+01   3.6200161170e+01    0.6449659    0.2699375 -41.37  0.002200752    2.442    0.591
       157 -11.3014     92.1931    110.8978   8.5399758156e+01   4.1948277996e+01    0.7777387    0.3133225 -58.33  0.002506841    3.022    0.669
       158 -10.5385     14.2993    110.1042   1.1128165468e+02   5.1632830887e+01    0.3472684    0.1985591  87.08  0.001672816    2.089    0.521
       159 -11.3286    133.1089    108.5372   7.2868870457e+01   3.4323690027e+01    0.4606712    0.2347859 -44.93  0.001450413    1.931    0.482
       160 -10.5468     66.3946    110.2080   9.3630866270e+01   4.6232936946e+01    0.2163892    0.1362664 -67.48 0.0009549289    1.750    0.429
       161 -12.0923    189.1835    107.2010   5.9750128166e+01   2.2029347476e+01    0.5378037    0.2463848 -44.83  0.001761675    2.080    0.519
       162 -10.3973    154.4609    108.4843   6.7505831140e+01   2.9588683977e+01     0.279391    0.1432909 -51.88   0.00102505    2.156    0.536
       163 -12.0436    149.9642    100.4212   6.6395082126e+01   3.2277620506e+01    0.8953331    0.2902057 -44.06  0.002758897    3.044    0.672
       164 -12.1087    139.6611    102.5755   6.9532466875e+01   3.4160728876e+01    0.6595035    0.3216154 -39.87  0.002460355    2.065    0.516
       165 -11.5989     45.8020    102.6454   9.8997276287e+01   5.0688430633e+01    0.6536524    0.3409445  66.87  0.002038402    5.032    0.801
       166 -11.2070     22.6715    102.2957   1.0711488901e+02   5.2946076512e+01     0.601334    0.3125167  70.88  0.002318582    3.607    0.723
       167 -11.6723    119.2483    154.6636   8.7743200777e+01   2.6329827509e+01    0.4747402    0.3154738 -66.34  0.002037536    1.749    0.428
       168 -11.4437    175.6546    100.8949   6.0826380684e+01   2.6289962288e+01    0.4077955    0.2786183 -38.69  0.001292264    1.423    0.297
       169 -11.8814    128.6637     99.9528   7.1681844779e+01   3.7151733934e+01    0.6147698    0.3426731 -35.34  0.002415834    1.930    0.482
       170 -11.2614    159.9568     99.2349   6.3754489224e+01   3.0223066122e+01    0.5488431    0.2363102 -38.97  0.001843523    2.318    0.569
       171 -12.0427    108.1276     96.6128   7.6574493959e+01   4.2203642707e+01     0.861943    0.4166459 -51.31  0.003213877    2.206    0.547
       172 -11.8345    183.8550     96.0694   5.7949484529e+01   2.5335196652e+01    0.3732323    0.1898686 -47.67  0.001085825    1.957    0.489
       173 -11.0577     63.4277     95.9130   9.1104565150e+01   5.0088849920e+01    0.3720958    0.2390811 -88.55  0.001449133    2.966    0.663
       174 -10.6477    171.2992     95.3091   6.0251625910e+01   2.8366599413e+01    0.2796829    0.1854669 -29.13  0.001132417    1.664    0.399
       175 -10.7708     94.5899     94.4909   8.0156413137e+01   4.5302900701e+01    0.6118771    0.1737049 -42.96  0.001784726    3.571    0.720
       176 -13.0766    210.3602     92.6991   5.2470989700e+01   2.0044614532e+01    0.5475381    0.3189824 -33.95  0.002504594    1.697    0.411
       177 -11.1111    164.9667     92.7721   6.0901779134e+01   3.0323460585e+01    0.4675093    0.2327928 -36.96   0.00180772    2.030    0.507
       178 -11.4241    188.3653     92.5939   5.6211034942e+01   2.4948644809e+01    0.2992406      0.18112 -35.99  0.001323733    1.629    0.386
       179 -10.9609    157.9293     90.5468   6.1825331980e+01   3.2393702595e+01    0.4013073    0.2182797 -38.70  0.001423241    1.829    0.453
       180 -11.5777    138.5770     90.2901   6.6332276954e+01   3.6929473957e+01    0.5495638    0.2981263 -38.20  0.002196277    1.869    0.465
       181 -11.3678    166.7996    102.1834   6.3033201205e+01   2.8063930172e+01    0.5674976    0.2847619 -35.77  0.001925648    2.068    0.517
       182 -11.4970    123.7705     90.0183   7.0146636047e+01   4.0304259611e+01    0.4158887    0.3028628 -56.61  0.001788019    1.542    0.352
       183 -11.5045    124.3267     86.3420   6.8901195449e+01   4.0927373053e+01    0.6363537    0.3911686   9.02  0.002118229    3.432    0.709
       184 -10.7211     34.7698     89.6420   1.0008059696e+02   5.4947352317e+01    0.3908655    0.2116124 -78.52  0.001615605    2.715    0.632
       185 -10.2279    183.5359     89.6776   5.6355124840e+01   2.6586298860e+01    0.2865309    0.1452313 -33.90  0.001130867    2.058    0.514
       186 -11.3319    151.0729     88.0107   6.2666873905e+01   3.4484055757e+01    0.3731081    0.2248059 -39.29  0.001515953    1.654    0.395
       187 -11.0370    188.2885     87.0084   5.4792267017e+01   2.5972706436e+01    0.2162665    0.1854057 -41.58 0.0008311147    1.127    0.113
       188 -10.6154    163.9486     86.2010   5.9317905367e+01   3.1800532099e+01    0.2803073    0.2174008 -38.08  0.000981184    1.284    0.221
       189 -10.3286     86.5231     86.8357   8.0544172320e+01   4.8458279357e+01    0.2748001     0.199168  76.43  0.001178656    2.298    0.565
       190 -11.5604    179.4497     84.9025   5.5870977241e+01   2.8396269600e+01    0.3510817    0.2117157 -48.63  0.001471366    1.652    0.395
       191 -11.9931    176.7383     92.1907   5.8323337736e+01   2.7695170085e+01    0.5152337    0.2468554 -44.07  0.002010236    2.016    0.504
       192 -10.6497     48.4027     84.3125   9.3554008041e+01   5.4723530223e+01    0.2978552     0.194531  63.03  0.001327092    2.563    0.610
       193 -11.1432    158.1429     82.1061   5.9413672929e+01   3.3927184251e+01    0.4305964    0.2771831 -23.45  0.001829971    1.925    0.480
       194 -12.8510    201.1180    102.7144   5.6444696048e+01   2.0252655072e+01    0.6378579     0.442301   3.27  0.002709368    2.438    0.590
       195 -11.6837    193.3714     82.3325   5.2707731521e+01   2.5626771180e+01    0.3384639    0.2453843   7.03  0.001518467    2.213    0.548
       196 -10.9461    170.7716     82.3157   5.6856110691e+01   3.0898925749e+01    0.3095284      0.20798 -27.56  0.001394618    1.675    0.403
       197 -11.3038    140.7430     81.4446   6.3210842629e+01   3.8144673547e+01    0.4326383    0.2747683 -32.27  0.001880587    1.680    0.405
       198 -10.9711    104.0103     82.3088   7.3547056732e+01   4.6066181577e+01    0.3838921    0.2144103 -53.40  0.001539163    2.098    0.523
       199 -12.9611    215.8414     78.8068   4.8331677962e+01   2.1208718157e+01    0.6988306    0.2706863 -29.66  0.002408151    3.373    0.704
       200 -11.9085    133.3203    152.1890   8.3519257337e+01   2.4227921235e+01     0.603484    0.3911375 -67.45   0.00230036    1.996    0.499
       201 -10.3946     24.3018     80.5907   1.0203418724e+02   5.7970319064e+01    0.2754802     0.186848  88.22  0.001271476    2.129    0.530
       202 -10.8617    150.1150     78.9634   6.0287543975e+01   3.6402808951e+01    0.3690568    0.2226027 -37.76  0.001594189    1.673    0.402
       203 -11.4041     81.6673    154.3471   9.8038909482e+01   3.2835962876e+01     0.400003    0.2562969  77.37  0.001660393    2.195    0.544
       204 -11.7771    189.5581     75.6546   5.1641865248e+01   2.7643025960e+01    0.7366249    0.2643849 -26.95  0.001960601    5.364    0.814
       205 -10.9757    174.9133     77.5163   5.4750490158e+01   3.0765343072e+01    0.3779858    0.2049927 -38.39  0.001275138    1.809    0.447
       206 -11.2173    167.3973     76.8232   5.6015689730e+01   3.2672075063e+01    0.4122299    0.2622577 -16.84  0.001697046    2.261    0.558
       207 -10.2825    118.8613     78.2924   6.7950017664e+01   4.3714781429e+01    0.3045281     0.181912 -29.63   0.00126501    1.886    0.470
       208 -12.1467    211.6996     75.9115   4.8239573649e+01   2.2584360029e+01    0.3720416     0.171925 -38.00  0.001139881    2.003    0.501
       209 -10.8039    195.4050     72.2794   4.9819178211e+01   2.6848679453e+01    0.3410006    0.1792002 -24.00  0.001330495    2.637    0.621
       210 -11.9572    184.1616     75.4987   5.2529301524e+01   2.8929496114e+01    0.5005549    0.2146488 -32.68  0.001856483    2.536    0.606
       211 -10.4020    157.4212     75.1979   5.7602342695e+01   3.5338345798e+01    0.3318998    0.2379534 -24.08  0.001080633    1.607    0.378
       212 -11.7817    128.0079     72.6723   6.3739463462e+01   4.2710819593e+01    0.6601997    0.3145563 -33.31   0.00250731    2.294    0.564
       213 -10.4658     49.7488    155.1599   1.0717198932e+02   3.6949327583e+01     0.250757    0.1283315  67.62  0.000956196    2.832    0.647
       214 -10.0610    151.4157     72.2414   5.8036574212e+01   3.7289894490e+01    0.2850253    0.1487036 -32.04  0.001129935    2.092    0.522
       215 -10.8805     67.7002    153.5706   1.0185908187e+02   3.5065495572e+01    0.3383705    0.1969165  75.55  0.001327045    2.559    0.609
       216 -10.5125    175.6267     70.8719   5.2816232140e+01   3.1724357656e+01    0.4240029    0.1464475 -32.40  0.001370111    3.318    0.699
       217 -10.0870     82.3167     72.6697   7.7542152638e+01   5.2166021181e+01    0.1401343    0.1187679  89.55 0.0007046578    1.683    0.406
       218 -10.4723    162.9704     70.4720   5.5115311678e+01   3.4822231290e+01      0.28474    0.2153717 -15.57  0.001365824    1.640    0.390
       219 -10.4635    170.4904     70.0105   5.3530350496e+01   3.3095073213e+01    0.2245956    0.1442506 -35.28   0.00102827    1.588    0.370
       220 -10.6118     51.1646     69.0846   8.8047012152e+01   5.7715186752e+01    0.3226419     0.190444 -72.29  0.001253221    3.365    0.703
       221 -10.5099    182.3324    150.4498   7.1498893493e+01   1.4769192355e+01    0.3464634    0.2511435 -56.76  0.001069156    1.572    0.364
       222 -10.4074    157.1492     68.8432   5.5828986732e+01   3.6495984538e+01    0.2054698    0.1797372   6.00 0.0009352175    1.352    0.260
       223 -10.1969    193.8700     67.1275   4.8750620683e+01   2.8034191841e+01    0.2544591    0.1937625 -32.10 0.0009988263    1.382    0.276
       224 -10.9191    199.5224     76.4820   5.0223842482e+01   2.5214199825e+01    0.1431978    0.1307419 -63.51  7.54513e-05    1.007    0.006
       225 -11.0458    147.2439     65.8582   5.7056330817e+01   3.9375111705e+01    0.4835207    0.2703596 -24.42  0.001947334    2.259    0.557
       226 -10.8679    138.3848     64.8848   5.8764701508e+01   4.1649604376e+01    0.3895269    0.1772902 -38.55  0.001507769    2.226    0.551
       227  -9.8186    176.2714    151.6637   7.3093725908e+01   1.5730018260e+01    0.1483896    0.1215727 -76.59 0.0003152367    1.599    0.375
       228  -9.4423    164.3073     64.3316   5.3112284234e+01   3.5513384427e+01    0.1471607     0.114737  20.71  0.000514169    1.664    0.399
       229  -9.7066     16.3334     69.6762   1.0269746321e+02   6.1021260876e+01    0.1182982   0.09599899  70.85  0.000515295    1.708    0.414
       230 -10.1319     37.4836     63.9991   9.2114334146e+01   6.0393534246e+01    0.1748439     0.117564 -79.03 0.0008102102    2.582    0.613
       231 -10.5125    162.5104    150.2176   7.5892522889e+01   1.8821395766e+01    0.3565665    0.2467961 -66.84   0.00134714    1.945    0.486
       232  -9.6291    187.6682     62.4804   4.8528710973e+01   3.0216422489e+01    0.2506122    0.1278896 -36.14  0.001075969    1.940    0.484
       233  -9.3671    198.2861     63.6679   4.7202971489e+01   2.7555641079e+01    0.1469582   0.09853167 -65.72 0.0005086537    1.619    0.383
       234 -11.0493     98.3797    149.6661   9.2429001198e+01   3.1303146524e+01    0.4381525    0.1890714 -55.46  0.001593847    2.248    0.555
       235  -9.6842    156.6712    150.3162   7.7293832776e+01   1.9985630759e+01    0.1563773      0.12588  86.46 0.0007045605    1.678    0.404
       236 -10.2475     73.3531     59.8991   7.6397223160e+01   5.6192808681e+01    0.2699856    0.1258812 -49.27  0.001081291    2.467    0.595
       237 -14.9020    223.6992    119.2523   5.6498176969e+01   1.2568996131e+01      1.98208     1.245974 -67.08  0.008661424    2.377    0.579
       238 -11.6279    203.4261     66.0031   4.7030673102e+01   2.6015840728e+01     0.335329    0.1556355 -36.83  0.001120633    2.059    0.514
       239  -9.7169    187.5634     68.0338   4.9995047028e+01   2.9362321625e+01    0.2198334    0.1360534 -37.43 0.0008829621    1.589    0.371
       240 -10.9998    140.4020     73.8538   6.1027094409e+01   3.9618734899e+01    0.3907977    0.2356104 -29.10  0.001656157    1.865    0.464
       241  -9.5187    175.3130     55.3359   4.8632920620e+01   3.4252622318e+01     0.142178    0.1104146  25.46 0.0004845446    1.688    0.408
       242 -10.2573    121.3247     63.8324   6.2673408606e+01   4.5793260270e+01    0.3806325    0.1402406 -27.89  0.001098682    4.258    0.765
       243 -10.1255     39.7130    147.9692   1.0898656155e+02   3.9898369310e+01    0.2564862    0.1109289  59.40 0.0008996154    3.487    0.713
       244  -9.5339    100.5216     54.4926   6.5383906704e+01   5.1919948929e+01    0.1448892    0.1314528  15.93 -2.874836e-05    1.039    0.037
       245 -10.9892    175.6790    145.9848   7.1931635045e+01   1.7044497859e+01    0.3625049    0.2544354 -58.80  0.001256557    1.672    0.402
       246  -9.9674     31.2932     51.6685   9.0863286737e+01   6.3528568198e+01    0.1124533    0.1025684  85.41  0.000320546    1.633    0.388
       247 -12.6386    149.1237    143.2384   7.7499409240e+01   2.3115885766e+01    0.9136793    0.5042593 -56.31  0.003503767    2.091    0.522
       248 -10.1117     45.4679     49.4746   8.3772010169e+01   6.2311005431e+01    0.1337015    0.1102558 -14.99 0.0001076216    1.030    0.029
       249 -12.7959    106.9972    143.7065   8.8758275198e+01   3.1263961754e+01    0.9202145     0.522575 -67.28  0.003511327    2.231    0.552
       250  -9.9510    130.3110     46.3358   5.4727921665e+01   4.6444702939e+01    0.1485274    0.1063109  24.07 0.0003917584    1.683    0.406
       251  -9.9493    113.4966     41.7321   5.7244107414e+01   5.1000005416e+01    0.1853862    0.1352922  -9.01 0.0009344054    1.607    0.378
       252 -10.4822      4.7500     40.4567   1.0001154894e+02   6.7823940713e+01    0.3768876     0.144073 -65.31  0.001566964    3.459    0.711
       253  -9.4338     84.3178     39.7157   6.5025646875e+01   5.7509248758e+01    0.1242421     0.110628 -89.67  0.000290982    1.586    0.370
       254 -10.3187     77.6743    146.5054   9.7737770054e+01   3.5434376337e+01    0.2725981    0.1319931 -60.13  0.001076647    1.962    0.490
       255 -11.4158     55.9102    145.4515   1.0391400983e+02   3.8688534048e+01    0.5134024    0.2708991  71.25   0.00186796    3.154    0.683
       256  -9.6039    106.3055     37.3085   5.7554025750e+01   5.3216821875e+01    0.1432479    0.0992635  23.38 0.0002533303    1.610    0.379
       257  -9.8940    208.8789    144.3706   6.4771287897e+01   1.0768503340e+01    0.2783875    0.1848095 -60.86  0.001209144    2.009    0.502
       258 -11.5774    165.7947    143.2453   7.3526231826e+01   1.9664162345e+01    0.4850232    0.3066815 -49.81  0.001914432    1.609    0.379
       259 -12.3898    124.6845    141.4895   8.3396873913e+01   2.8457727152e+01    0.8150662    0.4167284 -61.50  0.002873656    2.509    0.601
       260 -10.9343    138.0043    143.8347   8.0435430309e+01   2.5249317298e+01    0.2938253     0.231696 -49.37  0.001390716    1.258    0.205
       261 -11.6957     87.8571    142.2850   9.3943902712e+01   3.4915734853e+01    0.6009123    0.2109472 -60.14  0.001912973    3.028    0.670
       262 -11.0544    182.0474    141.1516   6.9429349403e+01   1.6748062732e+01    0.4065628    0.3061764 -56.27  0.001381457    1.459    0.315
       263 -11.7286    224.7939    139.6261   6.0850605646e+01   8.6659498370e+00    0.4396044    0.1735337 -40.08  0.001724615    2.232    0.552
       264 -10.1911    203.0942    141.2812   6.5180363157e+01   1.2484554446e+01    0.1984121    0.1941652  -1.96 0.0006428087    1.094    0.086
       265  -9.7226     12.6589     21.3050   8.8675967651e+01   7.0699403646e+01   0.09768989   0.09190379  36.19 0.0007041005    1.681    0.405
