#   1 NUMBER                 Running object number                                     
#   2 MAG_AUTO               Kron-like elliptical aperture magnitude                    [mag]
#   3 X_IMAGE                Object position along x                                    [pixel]
#   4 Y_IMAGE                Object position along y                                    [pixel]
#   5 X_WORLD                Barycenter position along world x axis                     [deg]
#   6 Y_WORLD                Barycenter position along world y axis                     [deg]
#   7 A_WORLD                Profile RMS along major axis (world units)                 [deg]
#   8 B_WORLD                Profile RMS along minor axis (world units)                 [deg]
#   9 THETA_WORLD            Position angle (CCW/world-x)                               [deg]
#  10 FWHM_WORLD             FWHM assuming a gaussian core                              [deg]
#  11 ELONGATION             A_IMAGE/B_IMAGE                                           
#  12 ELLIPTICITY            1 - B_IMAGE/A_IMAGE                                       
         1 -11.5535    228.4924     33.3263   2.6311339670e+01   2.4468472107e+01     1.009139    0.6783678  38.88  0.004015686    1.893    0.472
         2 -10.7305    246.3844     16.4757   2.1126617788e+01   2.2615361583e+01    0.5136733    0.4532042 -52.46  0.002867658    1.098    0.089
         3  -8.2190     20.5236     20.5425   8.3347039677e+01   7.3492431587e+01    0.1327856    0.1175238 -27.15 2.501823e-05    1.003    0.003
         4  -8.2447    248.7782    250.0288   6.5340624519e+01  -2.9680276412e+00    0.1340724   0.09652396  43.53 0.0008921498    3.592    0.722
         5  -7.2074    125.6125    249.8256   8.7022612337e+01   1.0735449965e+01    0.1172705    0.1046442  67.39 0.0005186805    1.617    0.382
         6 -10.0473     18.1987    218.7797   1.0783763315e+02   2.7160532800e+01     0.534273     0.281496  42.25  0.001913134    1.354    0.261
         7 -11.2425     38.5538    247.3587   1.0454313938e+02   2.0536598482e+01     1.260363    0.3687799  23.48  0.005672148    3.248    0.692
         8 -10.1878     27.4167    181.3862   1.0417377441e+02   3.3643924963e+01    0.4475022    0.2517933  16.99  0.002428811    1.878    0.467
         9 -11.3769     27.4956    248.7991   1.0680345563e+02   2.1317117809e+01     1.339315    0.3562092  29.25  0.006784772    2.495    0.599
        10 -11.3521      3.6820    209.8365   1.1081275036e+02   2.9940074735e+01      1.43724    0.4251271  74.88  0.006657595    3.393    0.705
        11 -11.0521      9.2872    230.9413   1.1002824195e+02   2.5765713750e+01    0.5879375    0.4439819  49.82  0.004682339    1.081    0.075
        12  -9.3813      1.9872    230.9795   1.1152089618e+02   2.6325215033e+01    0.2314994    0.1592744  75.89  0.001144169    1.442    0.307
        13 -10.7779      2.6993    222.5227   1.1124414752e+02   2.7727978084e+01    0.5760708     0.328803  70.22  0.003984832    1.579    0.367
        14 -12.1116     27.0077    196.0185   1.0497348440e+02   3.0694891538e+01     1.186426    0.6127233  81.64  0.006633138    2.050    0.512
        15 -11.1463     10.6795    207.7760   1.0920542037e+02   2.9789904293e+01    0.6613161    0.3822075  71.98  0.001400555    1.602    0.376
        16 -10.4557     17.5898    203.7573   1.0750789462e+02   2.9994693486e+01     0.293104    0.2491436 -12.02   0.00076628    1.592    0.372
        17 -10.4366     13.1835    244.1528   1.0951546540e+02   2.3272845461e+01    0.3237562    0.2198538  56.42 0.0003531934    1.212    0.175
        18 -10.0214     13.2272    240.1071   1.0942035446e+02   2.3922955241e+01    0.2946542    0.1846442  29.65 0.0008648722    1.314    0.239
        19  -7.5905    116.6920    247.6954   8.8608684858e+01   1.2073085411e+01    0.1081114   0.07265789   7.64 0.0005572524    1.607    0.378
        20  -7.3033    140.3267    246.3324   8.3768491931e+01   9.4383578067e+00    0.1133116   0.07094527   6.24 0.0002307799    1.713    0.416
        21  -7.9595    160.0089    242.8996   7.9574646599e+01   7.4967531985e+00    0.1715242    0.1209948  19.88 0.0005533214    1.022    0.022
        22  -8.2396     72.2887    242.5772   9.7355237747e+01   1.7877167495e+01    0.2270443   0.07179131  33.17  0.001127972    2.085    0.520
        23 -10.6310      2.9741    239.4883   1.1144709350e+02   2.4836952339e+01    0.4455133    0.3923225  68.66  0.002024846    1.338    0.252
        24  -8.0083    150.0555    238.4671   8.0994594782e+01   9.2654750101e+00    0.1577543    0.1234191  17.49 0.0003189512    1.111    0.100
        25  -8.8682     50.3953    236.1957   1.0159880575e+02   2.1179870487e+01    0.2945337    0.1922647  80.03  0.002039278    1.784    0.439
        26  -8.3943    109.3131    237.0152   8.9143819982e+01   1.4468219888e+01    0.1520933    0.1229759  29.65 0.0003662763    1.111    0.100
        27  -9.1794     75.6564    236.1890   9.6215095366e+01   1.8509254930e+01    0.2685768    0.1642942  -4.47  0.001354052    2.746    0.636
        28 -10.0137     91.2149    235.1046   9.2807820166e+01   1.6907352338e+01    0.3344358    0.1718157  36.76  0.001993661    1.412    0.292
        29  -9.4311     82.6827    233.9632   9.4546449648e+01   1.8071373458e+01    0.3587995    0.1676906 -56.67  0.001902945    2.759    0.638
        30  -7.7218     63.7877    234.9754   9.8675342428e+01   1.9995024339e+01    0.1547133    0.1195957  42.13 0.0005515733    1.080    0.074
        31  -8.6916     41.6372    234.0258   1.0335316759e+02   2.2399003556e+01    0.2572514    0.1822989 -18.82  0.001097712    2.237    0.553
        32  -8.8767     35.6053    232.8635   1.0458301752e+02   2.3165263785e+01    0.3046699    0.1195093  41.97  0.001742024    1.724    0.420
        33  -9.2606    111.5086    230.7583   8.8083239924e+01   1.5132220251e+01    0.2751596   0.09521411  39.06  0.001309653    2.196    0.545
        34  -9.5063    128.2398    229.5074   8.4419488084e+01   1.3221246487e+01    0.2044167     0.156654  24.74 0.0002439294    1.041    0.039
        35  -8.5956     90.6364    230.0879   9.2516723763e+01   1.7763007733e+01    0.2043739    0.1181095  36.65 0.0005077899    1.280    0.219
        36  -8.9647     24.8044    227.8918   1.0669672008e+02   2.4990333612e+01    0.2700298    0.1532292  61.96  0.001336968    1.562    0.360
        37  -8.3573    103.3237    227.2872   8.9509248880e+01   1.6675146459e+01    0.1139094   0.08029714   6.40  0.000290743    1.604    0.377
        38  -7.8532     36.0040    226.9946   1.0425555340e+02   2.4127731688e+01    0.1455491    0.1249055 -12.31 0.0003709316    1.607    0.378
        39  -9.5068    110.6454    224.6799   8.7662561801e+01   1.6171329695e+01    0.2694056    0.1787066  -5.17  0.001566184    2.046    0.511
        40  -7.5378     55.3493    225.1357   9.9920232968e+01   2.2530410643e+01    0.1409749   0.09349453  71.85 0.0002514308    1.655    0.396
        41  -7.4663    102.4863    223.4735   8.9327140414e+01   1.7382262292e+01    0.1219615   0.09189729  31.66 -8.178347e-05    1.002    0.002
        42  -7.7379     61.0278    223.0013   9.8524628740e+01   2.2296699800e+01    0.2006943   0.09884927  49.39  0.001132589    1.725    0.420
        43  -8.6957     36.2427    222.8381   1.0402442588e+02   2.4829857774e+01    0.2696557    0.1603202  27.08  0.001722666    1.426    0.299
        44  -7.7228     36.2881    219.3065   1.0385743938e+02   2.5452116616e+01    0.1659254   0.07514576  35.71  0.000405629    1.577    0.366
        45 -10.1053     31.4586    217.5405   1.0486028079e+02   2.6219289973e+01    0.3445661    0.2359913   7.81  0.002035137    1.792    0.442
        46  -6.9972     93.5223    222.4988   9.1218964805e+01   1.8642927078e+01    0.1213973   0.09254557  31.99 6.171296e-05    1.021    0.021
        47  -7.3555     86.7099    222.3181   9.2721951034e+01   1.9493870053e+01    0.1207089    0.0718467  50.45 0.0002572472    1.598    0.374
        48  -7.9737     79.9179    222.1139   9.4225707924e+01   2.0329215089e+01    0.1815003    0.1201525  45.27 0.0004441173    1.268    0.211
        49  -7.5949    151.4241    217.4945   7.8161689640e+01   1.1920499600e+01    0.1209542   0.09235603  22.56 0.0002829349    1.029    0.029
        50  -7.8819     54.0348    217.2760   9.9742507732e+01   2.4045646694e+01     0.297563   0.09204607  24.39   0.00123228    3.016    0.668
        51  -7.4976     83.9532    216.0468   9.2801999025e+01   2.0886773725e+01    0.2357384    0.1317628 -15.17 0.0009684071    4.211    0.763
        52  -7.4740    137.1946    213.2889   8.0614823222e+01   1.4449145322e+01     0.148271   0.09983094 -63.74  0.000855303    2.348    0.574
        53  -7.7504     84.5239    211.6161   9.2275388704e+01   2.1589418260e+01    0.2299599     0.138554   1.20  0.001094469    2.557    0.609
        54  -9.5510     24.8153    210.1776   1.0607038631e+02   2.8166638265e+01    0.1963752    0.1868192  63.49 0.0002597634    1.278    0.218
        55  -7.6046     95.4646    211.5343   8.9735479380e+01   2.0244120033e+01     0.124491   0.09790484  30.59 0.0002277335    1.039    0.037
        56  -8.5659     64.1926    208.6189   9.6794718795e+01   2.4513758527e+01    0.2194752    0.1801717  -1.41  0.001462241    1.506    0.336
        57  -7.3965    118.3986    208.4940   8.4165833241e+01   1.7751160377e+01    0.1244802   0.09897998  30.43 0.0001072224    1.038    0.037
        58  -8.3636     46.5679    207.1067   1.0086119820e+02   2.6682819001e+01    0.2258311    0.1723288  -0.87  0.001453633    1.690    0.408
        59  -8.2431    159.1465    206.8388   7.5122224795e+01   1.2388382093e+01    0.1678594    0.1194251   7.45  0.000402884    1.318    0.241
        60  -8.0834     91.4993    204.4127   8.9944680618e+01   2.1998948255e+01    0.2052151    0.0984408  31.75 0.0007405926    1.638    0.389
        61  -7.9482     97.3190    200.9503   8.8195849667e+01   2.1866513678e+01    0.1668624     0.152541  40.92  0.001139587    1.154    0.134
        62  -7.1799    112.9775    199.9783   8.4385453766e+01   1.9927794867e+01    0.1528979    0.1215795  29.75 0.0003646343    1.005    0.005
        63  -8.2874     79.0000    198.9155   9.2411361685e+01   2.4578755973e+01     0.214724    0.1753632 -74.03  0.001401377    1.483    0.325
        64  -9.4027     38.6131    199.6088   1.0233575712e+02   2.8910609723e+01    0.3797165    0.2301772  32.74   0.00229798    1.335    0.251
        65  -7.5456    109.3985    199.1238   8.5121781305e+01   2.0568533939e+01    0.1486343    0.1220901  86.92 0.0004899272    1.643    0.391
        66  -8.6553    101.2260    198.8270   8.7026367523e+01   2.1729299554e+01    0.2057686    0.1631583  37.00 0.0004028924    1.063    0.059
        67  -8.3315     48.6086    199.1805   9.9877367474e+01   2.7989563600e+01    0.2677004     0.167761  15.38  0.001523538    1.736    0.424
        68  -7.8447     88.7012    197.2860   8.9880869369e+01   2.3660191522e+01      0.25536    0.1420569   9.53 0.0007270694    2.560    0.609
        69  -9.3882     71.6439    191.4390   9.3532599181e+01   2.6916480432e+01    0.2207514    0.1874371  32.58   0.00025564    1.085    0.078
        70 -10.4171      3.4985    249.3434   1.1148479968e+02   2.3223685585e+01    0.8435665     0.211903  26.13  0.004264247    2.893    0.654
        71  -8.2291      6.6495    191.2562   1.0972975731e+02   3.3293769489e+01    0.1409965   0.09681117 -79.27 0.0003292738    1.597    0.374
        72  -7.4487     60.3462    190.3165   9.6295849002e+01   2.8464898275e+01    0.1206147   0.09351004 -13.99 0.0005413464    1.722    0.419
        73 -11.2278     33.8421    189.9168   1.0298308834e+02   3.1295828919e+01    0.6814178    0.4414763  59.64   0.00367747    1.372    0.271
        74  -7.1535     90.3897    189.2277   8.8585387910e+01   2.4962948475e+01     0.127658   0.09090869   7.96 0.0006888972    1.633    0.388
        75  -9.6000     15.7606    188.3463   1.0742368956e+02   3.3183375485e+01    0.2420789    0.1681948  28.44  0.001443637    1.317    0.241
        76  -9.4966     56.2927    171.8318   9.5755446207e+01   3.2778152585e+01    0.2771557    0.2292171  -4.13  0.000404072    1.478    0.323
        77  -9.0471     11.2101    183.4263   1.0839187427e+02   3.4544520084e+01    0.2648557    0.1762805  43.47  0.001710555    1.193    0.162
        78  -9.0465      2.5289    181.4204   1.1050449394e+02   3.5582184442e+01    0.2298884     0.182817  50.57  0.001637281    1.029    0.029
        79  -9.7832     42.6143    179.4911   1.0007197956e+02   3.2605127503e+01    0.3607948    0.2335702  13.20  0.001746203    1.735    0.424
        80  -9.6569     36.3447    179.0408   1.0170223816e+02   3.3317588676e+01    0.3032959    0.2569901  48.64 0.0009863847    1.034    0.033
        81  -7.5666     80.5905    179.5086   9.0001438206e+01   2.8180322068e+01    0.1302959    0.1133464  34.58 0.0001012104    1.050    0.048
        82  -7.3930    117.0000    177.9870   8.0479064860e+01   2.3316229444e+01    0.1841324   0.07863551 -54.03 0.0004768483    2.776    0.640
        83  -8.0049     87.0049    178.3105   8.8179642483e+01   2.7569359875e+01    0.1896824    0.1508691  32.38   0.00036787    1.080    0.074
        84  -8.4237     64.1180    177.0139   9.4117948782e+01   3.0759616279e+01      0.19754    0.1626227  42.23 0.0004498413    1.021    0.020
        85  -9.7029     28.7605    172.9469   1.0336461463e+02   3.5325976428e+01    0.3577919    0.2224092 -46.38  0.001592248    2.086    0.521
        86  -7.6949      1.5407    175.4610   1.1062020095e+02   3.6890132413e+01     0.117592   0.09298248  54.32 0.0001185807    1.002    0.002
        87  -9.1811    175.1567    172.3655   6.6315419733e+01   1.5141465536e+01    0.2620509    0.2171735  17.98 0.0006865652    1.058    0.054
        88  -9.4105     23.5313    170.7608   1.0466135305e+02   3.6253713403e+01    0.2757775    0.1406344  34.09  0.001179856    1.618    0.382
        89  -9.0404     16.1429    170.5616   1.0664457138e+02   3.6893214617e+01    0.2198817    0.1555572  42.57  0.001385193    1.177    0.150
        90  -7.7716     43.1270    168.8658   9.9149305230e+01   3.4847599996e+01    0.1914879    0.1418361  51.55 0.0002603951    1.169    0.144
        91  -7.1632    111.2773    168.6651   8.0536583680e+01   2.5980127038e+01    0.1347313   0.09999927  60.71 0.0003786475    1.608    0.378
        92 -10.0282     50.1336    178.0822   9.7963526032e+01   3.2119597585e+01    0.4962111     0.370268  58.46  0.001702134    1.228    0.186
        93  -7.8720     39.2163    166.9954   1.0009981283e+02   3.5653193877e+01    0.1973189    0.1320494 -39.29  0.001062006    1.970    0.493
        94  -8.5006      3.0752    167.1644   1.1002068365e+02   3.8561936112e+01    0.1648245    0.1558321 -60.35  0.001055577    1.308    0.236
        95  -9.9819     26.2007    162.9854   1.0349693557e+02   3.7747586057e+01    0.4351002    0.2846175 -69.64  0.001521946    1.627    0.385
        96  -7.9561     24.5213    156.8634   1.0361537807e+02   3.9276647025e+01    0.3398765    0.2212328 -11.59  0.001788656    2.147    0.534
        97  -8.2873      8.8127    165.1889   1.0841969475e+02   3.8606517318e+01     0.183757    0.1579086  58.51 0.0005570678    1.055    0.052
        98  -8.5600     11.8632    161.9007   1.0746146286e+02   3.9118429814e+01    0.2608312    0.1808487 -21.06   0.00150974    1.984    0.496
        99  -8.3369     16.4643    160.0923   1.0609528066e+02   3.9184140515e+01    0.3665849     0.112253  48.10  0.001546397    2.602    0.616
       100  -8.8146     67.9955    162.4455   9.1504388453e+01   3.3430182967e+01    0.2255164    0.1985345 -67.53 0.0005028627    1.268    0.211
       101  -8.2304     32.9950    162.2348   1.0152010186e+02   3.7311818925e+01    0.1948416    0.1653716 -67.09 0.0005091011    1.318    0.242
       102  -9.6935     53.6296    159.2386   9.5304357910e+01   3.5871211280e+01    0.4001305    0.3163864 -47.06 0.0009606126    1.490    0.329
       103  -7.5629      5.6405    161.6944   1.0917233578e+02   3.9592537517e+01    0.1152972   0.08645401 -38.95 0.0003537512    1.728    0.421
       104  -9.7128     75.7942    156.2982   8.8503199754e+01   3.3775942802e+01    0.4696135     0.332769 -28.50  0.001201457    1.864    0.463
       105  -7.1971    121.9843    157.2618   7.5915120196e+01   2.6518107373e+01    0.1703425      0.10979  34.61 0.0001859295    1.363    0.267
       106  -7.4874      3.5534    154.5197   1.0953531730e+02   4.1330548287e+01    0.1215343    0.1010024  60.12 6.399222e-05    1.006    0.006
       107  -9.1455     14.4035    150.8052   1.0625253052e+02   4.1455577114e+01    0.2319306    0.1137321 -75.92  0.001159196    2.004    0.501
       108  -9.2996     22.1631    149.5291   1.0387082496e+02   4.1164806057e+01    0.4965824    0.2448283 -28.64  0.002034617    3.510    0.715
       109 -10.9757     68.6144    145.2122   8.9164731051e+01   3.7266568879e+01    0.7950137    0.4631015  63.49  0.003563157    2.069    0.517
       110  -9.0992    248.1566    148.8828   4.9272030891e+01   7.3283484192e+00    0.1899716    0.1364456   7.62  0.001293662    1.226    0.184
       111  -7.7039     54.6091    148.8310   9.3914343449e+01   3.8157551199e+01    0.1861181    0.1248256  87.71 0.0009488181    1.649    0.394
       112  -7.5837      8.3136    147.7312   1.0791973089e+02   4.2582585953e+01    0.1316052   0.07279008  51.73 0.0002278951    1.549    0.355
       113  -7.7764    243.6872    144.6408   4.9102908344e+01   8.4509895737e+00    0.1248564   0.07534398   1.53 0.0003172486    1.746    0.427
       114  -8.9099    241.3448    141.9975   4.8930316232e+01   9.1039651632e+00    0.3119702    0.1298946 -13.14  0.001141523    4.296    0.767
       115  -8.6263     93.0625    142.7677   8.1406510470e+01   3.4279306024e+01    0.2386582    0.1661204  -0.42  0.001087425    1.984    0.496
       116  -9.2074     80.1158    140.8826   8.4995242424e+01   3.6672559804e+01    0.2790361    0.2492854  71.61 0.0006670487    1.164    0.141
       117  -7.7801     50.6152    150.7423   9.5338248029e+01   3.8164309668e+01       0.1829    0.1224964  86.91  0.000782209    1.619    0.383
       118 -10.0135     10.1772    133.0939   1.0669136075e+02   4.5927485690e+01    0.4811657     0.184558  64.17  0.002022289    2.593    0.614
       119  -8.7141     29.8029    132.7365   1.0022780570e+02   4.4556494250e+01    0.2297932    0.1919021  78.78 0.0003852002    1.129    0.114
       120  -7.9206     72.5912    131.8078   8.5924925717e+01   3.9888785030e+01    0.1887399    0.1375949 -85.74  0.000428947    1.588    0.370
       121  -8.5047    250.4859    130.5439   4.5420990828e+01   9.1425489242e+00    0.2478995   0.09554699 -29.10  0.001214668    2.179    0.541
       122  -9.7515    246.4470    125.9568   4.5049907346e+01   1.0282883183e+01    0.5381858    0.2542155  -1.09  0.001888184    5.096    0.804
       123  -6.9758     95.3205    127.2688   7.7896580886e+01   3.7419221424e+01    0.1452655    0.1145445  -3.72  0.000620539    1.563    0.360
       124  -8.6617     65.7099    124.4097   8.7012367224e+01   4.2633999305e+01    0.2315407     0.211024  71.79 0.0003421024    1.095    0.087
       125  -8.1951     56.0550    122.3859   9.0023425845e+01   4.4384465913e+01    0.2116404     0.188483 -55.85 0.0003911274    1.186    0.157
       126  -8.1714     21.7552    122.0223   1.0207422403e+02   4.7860663603e+01    0.1781342    0.1581973  77.12 0.0001872823    1.036    0.034
       127  -7.9251    170.0609    118.9924   5.6472817351e+01   2.4761521198e+01    0.2269036    0.1629023   5.90 0.0007002212    1.655    0.396
       128  -7.7486      5.6315    118.2206   1.0747779252e+02   4.9824376227e+01    0.1782885    0.1063985 -73.87 0.0009408337    1.575    0.365
       129  -7.6919     36.9780    117.3129   9.6151730436e+01   4.7754170513e+01    0.1860414    0.1682656  31.45 0.0004426518    1.123    0.110
       130  -8.5123     13.9031    115.1868   1.0435549685e+02   5.0110746843e+01    0.2204195    0.1600017  77.60 0.0002928944    1.284    0.221
       131  -7.9558     10.6799    113.7102   1.0542532576e+02   5.0673629052e+01    0.1759062    0.1113829  31.20 0.0002489879    1.545    0.353
       132  -7.2368     53.3536    113.9655   8.9692422977e+01   4.6824417721e+01    0.2532973    0.1395332 -20.86 0.0009162151    3.216    0.689
       133  -7.7233     45.8401    110.1888   9.1904172627e+01   4.8653437306e+01    0.1863308    0.1591761 -39.81 0.0004164474    1.276    0.217
       134  -9.9304    248.5386    107.0054   4.0900512290e+01   1.2233614840e+01     0.378973    0.1754154 -23.68  0.001931304    1.934    0.483
       135 -10.3168     75.2579    105.6779   8.0147720225e+01   4.5834171061e+01    0.3331309    0.2597167  61.20 0.0008437536    1.395    0.283
       136  -8.5994     12.0288    106.7818   1.0444987730e+02   5.2346368915e+01    0.4312725   0.08033904  33.80  0.001456785    3.825    0.739
       137  -6.8589    147.4636    105.4537   5.8269616003e+01   3.1852428295e+01    0.1514876    0.1384227  14.18 0.0002773222    1.069    0.064
       138  -7.2401    100.7460    102.7175   7.0720584202e+01   4.2058926618e+01    0.1452834    0.1187772  -9.35 0.0006850976    1.470    0.320
       139  -7.8888     62.9800     98.6509   8.3242830648e+01   4.9421688010e+01    0.2038767    0.1788052  32.52 0.0003705212    1.124    0.110
       140  -7.2570     16.5833     98.5062   1.0196672563e+02   5.4193089515e+01    0.1330649     0.119713  81.42 9.013771e-05    1.032    0.031
       141  -7.3407     48.9885     95.4748   8.8191890473e+01   5.2059925622e+01    0.2088904   0.09995122  49.16  0.000397554    2.324    0.570
       142  -7.5961      9.0000     95.0046   1.0476569943e+02   5.5513514656e+01     0.215781   0.06868778 -80.72 0.0006217559    2.876    0.652
       143  -8.0135      3.5257     94.5142   1.0697196591e+02   5.5882250944e+01    0.1294488     0.114822  80.83  4.27537e-05    1.028    0.027
       144  -7.5848     56.1549     92.1536   8.4589551804e+01   5.2002374063e+01    0.1964005    0.1642907  71.09  0.001022648    1.288    0.223
       145  -8.3015     18.6118     74.8085   9.8307876215e+01   6.0209361339e+01    0.2471271    0.1714111  63.42 0.0008675802    1.548    0.354
       146  -8.1048      1.3530     73.2264   1.0648626969e+02   6.1400862302e+01    0.1812616    0.1086893  85.19 0.0002617481    1.577    0.366
       147  -7.1733     88.2942     65.7490   6.4272899277e+01   5.2808199047e+01    0.1469072    0.1206617  73.94 0.0001806061    1.486    0.327
       148  -7.8422     52.8087     63.5847   7.8862370218e+01   5.9595907139e+01    0.1969446    0.1316163  42.49  0.000266857    1.550    0.355
       149  -8.3770     11.9435     61.6368   9.9833199196e+01   6.3980474949e+01    0.1732498    0.1672972  11.88 0.0004063027    1.128    0.114
       150  -7.7102    216.5351     56.4968   3.3209610893e+01   2.4299963286e+01    0.1288361     0.116283 -29.55 0.0002683872    1.030    0.029
       151  -7.9476      5.9518     54.5106   1.0218653041e+02   6.6047136175e+01    0.1761225     0.129553   4.86  0.000419895    1.490    0.329
       152  -7.9894    112.0693     52.0240   5.1322724531e+01   5.0083897128e+01    0.2209033    0.2114914  36.63            0    1.023    0.022
       153 -10.1624    214.3539     43.7172   3.0218569466e+01   2.6281011104e+01       0.3702    0.2306062 -15.87   0.00191003    1.742    0.426
       154 -10.2688    221.4142     39.7785   2.8524019501e+01   2.5231610539e+01    0.3278469    0.2857262 -11.02  0.001968768    1.222    0.182
       155  -9.6959    192.0260    247.7528   7.4279518976e+01   3.1940484240e+00    0.1896929     0.137752   6.29 0.0004206114    1.151    0.131
       156  -7.9434    158.6694     24.1043   3.1274611411e+01   4.1949597515e+01     0.191083    0.1782398 -28.67  0.000424494    1.130    0.115
       157  -9.9519    248.7374     20.2830   2.1840303525e+01   2.1809777339e+01    0.3689271     0.250718  40.87  0.002043396    1.968    0.492
       158 -10.4329     56.8184    239.9260   1.0043942986e+02   1.9924824011e+01    0.5249388    0.2812762 -60.70 0.0004806854    2.457    0.593
       159  -7.5326     43.5547     22.4947   6.7580093263e+01   7.0159889227e+01    0.1396426    0.1272305  -4.80 8.628891e-05    1.007    0.007
       160  -8.4082      2.1375     22.1494   9.9190025250e+01   7.4175662670e+01    0.1633585     0.144425  63.92 0.0003749548    1.319    0.242
