#   1 NUMBER                 Running object number                                     
#   2 MAG_AUTO               Kron-like elliptical aperture magnitude                    [mag]
#   3 X_IMAGE                Object position along x                                    [pixel]
#   4 Y_IMAGE                Object position along y                                    [pixel]
#   5 X_WORLD                Barycenter position along world x axis                     [deg]
#   6 Y_WORLD                Barycenter position along world y axis                     [deg]
#   7 A_WORLD                Profile RMS along major axis (world units)                 [deg]
#   8 B_WORLD                Profile RMS along minor axis (world units)                 [deg]
#   9 THETA_WORLD            Position angle (CCW/world-x)                               [deg]
#  10 FWHM_WORLD             FWHM assuming a gaussian core                              [deg]
#  11 ELONGATION             A_IMAGE/B_IMAGE                                           
#  12 ELLIPTICITY            1 - B_IMAGE/A_IMAGE                                       
         1 -10.9295    216.3294     12.1794   2.8937425038e+02   6.3489450193e+00   0.03675282   0.02631962 -26.41  0.002730767    1.536    0.349
         2  -9.3413    235.9434      2.6861   2.8909261056e+02   6.3490862502e+00   0.01491219   0.01446633 -72.03  0.001142354    1.084    0.077
         3  -7.3773     84.4621    245.4791   2.9225393645e+02   4.4352642885e+00  0.006562585  0.006080716 -24.23 0.0008084111    1.058    0.055
         4  -9.3545    249.6217    246.5836   2.9035957703e+02   3.5329193013e+00   0.02050495   0.01156455  -8.94  0.001765245    2.624    0.619
         5 -10.2802    243.0921    247.0878   2.9043756803e+02   3.5625025010e+00    0.0280783   0.01184748 -70.15   0.00220634    2.962    0.662
         6  -8.7652    228.9816    243.7459   2.9058035635e+02   3.6762776040e+00  0.008555274  0.005518843  23.00 0.0008825182    1.551    0.355
         7  -9.0811    246.9826    241.5138   2.9036040546e+02   3.6042037561e+00   0.01446782  0.006203822 -33.48  0.001040472    3.486    0.713
         8  -9.1664     59.3176    249.0654   2.9256435666e+02   4.5298924940e+00   0.01110562  0.009885926  11.02 0.0003136194    1.118    0.106
         9  -7.6860    126.5062    236.4588   2.9171736214e+02   4.3107567775e+00  0.006437595  0.006211168 -14.63 8.585252e-05    1.004    0.004
        10  -9.5602    249.5368    232.6776   2.9027960496e+02   3.6898153726e+00   0.01455927   0.01065749 -16.03  0.001586851    1.541    0.351
        11 -10.6033     28.5286    230.2573   2.9281028796e+02   4.9069704536e+00   0.01803663   0.01458479 -31.96 0.0007523946    1.258    0.205
        12 -11.8151     34.3282    223.7399   2.9270572757e+02   4.9493220017e+00   0.04056728   0.03907799  40.23  0.005235856    1.083    0.076
        13  -7.4130    131.7903    230.9584   2.9162457754e+02   4.3442604149e+00  0.008492117  0.005118424 -60.40 0.0003432911    1.643    0.391
        14  -7.1307    115.6550    231.3322   2.9181259373e+02   4.4268996384e+00  0.006925086  0.004826453  59.59 0.0004508813    1.760    0.432
        15  -9.6711     41.1394    214.5729   2.9257413744e+02   5.0160921336e+00   0.01886676   0.01688535  75.62  0.002323768    1.253    0.202
        16  -9.6873     45.4910    212.5062   2.9251199957e+02   5.0160339024e+00   0.02555288   0.01532029 -75.34  0.002480616    2.000    0.500
        17  -9.7122     10.1883    207.4935   2.9289000108e+02   5.2617726819e+00   0.03351359   0.01764638  15.27  0.003076932    2.136    0.532
        18  -8.2272     56.1655    204.1918   2.9234075199e+02   5.0524294340e+00   0.01004306  0.008539236 -15.86 0.0008175137    1.212    0.175
        19  -7.4511     48.4327    199.1796   2.9240085633e+02   5.1504150284e+00   0.01252629  0.005081729  20.86  0.001000151    2.663    0.625
        20  -9.8905    181.1012    197.5638   2.9086257974e+02   4.4545005243e+00   0.01096407  0.009864657 -56.92 0.0003012114    1.116    0.104
        21  -9.3701     56.4986    197.2521   2.9229667508e+02   5.1288361272e+00   0.01310065   0.01075935 -34.83 0.0005085488    1.221    0.181
        22  -9.6051     63.2443    189.0873   2.9217152971e+02   5.1846044672e+00   0.01302753   0.01128877 -28.16 0.0004638974    1.156    0.135
        23  -7.5984    181.6174    182.8501   2.9077098017e+02   4.6173579054e+00  0.008299707  0.006237903 -80.21  0.000130248    1.536    0.349
        24  -8.5523     74.0397    176.3639   2.9197318085e+02   5.2699464321e+00   0.01171965  0.008836893 -48.05 0.0004036601    1.295    0.228
        25 -10.8976     60.6241    173.9879   2.9211412503e+02   5.3687995398e+00   0.02762295   0.01250325 -41.56  0.001708509    2.416    0.586
        26  -9.3910     80.8563    168.2004   2.9184714577e+02   5.3252660420e+00   0.02132589   0.01255366 -47.03  0.001273023    1.668    0.400
        27  -7.9155     88.0283    168.2326   2.9176461301e+02   5.2863320279e+00  0.008612055  0.005363165  22.85 0.0004988842    1.610    0.379
        28  -7.6726     56.4344    163.4319   2.9210117612e+02   5.5102300334e+00  0.006491739  0.006062276 -22.70 0.0002224455    1.047    0.045
        29  -9.0058      8.7653    154.0623   2.9259691265e+02   5.8714964027e+00   0.01295081   0.00957768   7.20  0.000969872    1.442    0.307
        30  -8.2444     95.3051    152.0140   2.9158639670e+02   5.4298619023e+00  0.009457124   0.00841174 -50.84 0.0009113858    1.109    0.099
        31  -9.6833     83.7780    150.7564   2.9171206270e+02   5.5060476099e+00   0.01352467   0.01050551 -41.80 0.0004959551    1.275    0.216
        32  -8.7313     11.3085    147.9250   2.9253196235e+02   5.9270201827e+00  0.009024181  0.008430848 -42.04 0.0005909818    1.050    0.048
        33  -7.0917    195.7104    146.6982   2.9039800098e+02   4.9481539332e+00  0.006720642  0.004716089 -28.26 0.0002127794    1.565    0.361
        34  -9.4456     68.6843    144.4411   2.9184950667e+02   5.6583429504e+00   0.02611177    0.0154593  55.69   0.00222975    2.180    0.541
        35  -8.3494     64.6619    142.6745   2.9188565731e+02   5.6998621024e+00   0.01226264  0.008705041 -30.69  0.001034332    1.512    0.339
        36  -9.0658    126.5016    143.7534   2.9117851518e+02   5.3548632587e+00   0.01100027   0.01019522   7.64 0.0002935155    1.066    0.062
        37  -8.1748    191.2462    133.9751   2.9037522257e+02   5.1154583098e+00  0.008964523  0.008419785  69.41  0.000362705    1.160    0.138
        38  -8.2135     94.9210    134.0887   2.9148655014e+02   5.6338087437e+00  0.009658244  0.008981037 -25.30 0.0004305513    1.051    0.049
        39  -8.8340    123.9610    128.7806   2.9112062042e+02   5.5371422989e+00  0.009996281   0.00890669 -52.24 0.0003734339    1.111    0.100
        40 -10.2419    237.4142    126.1381   2.8979782054e+02   4.9538784612e+00   0.01249219   0.01134151  22.32 0.0001558873    1.097    0.088
        41  -7.1471    166.4750    118.3944   2.9056982006e+02   5.4246396626e+00  0.006368522  0.006150628  10.26 0.0001183317    1.035    0.033
        42  -7.5781    166.9749    113.1447   2.9053343321e+02   5.4810175159e+00  0.009373005  0.007264427  83.43 0.0006662035    1.583    0.368
        43  -7.8009    183.6766    111.9278   2.9033380965e+02   5.4044555736e+00  0.008874655  0.007881819 -53.18 0.0003589988    1.117    0.105
        44  -7.5476     26.5318    110.4928   2.9213884420e+02   6.2670666576e+00  0.006359687  0.006286175  13.26 -4.107277e-05    1.047    0.045
        45  -8.5404    240.6547    107.2364   2.8965011012e+02   5.1488864375e+00   0.01379133  0.009963598  58.27 0.0006315103    1.649    0.394
        46  -7.9247    187.8673    106.6894   2.9025493503e+02   5.4407346451e+00  0.008852599  0.008076936  14.33 0.0004598667    1.086    0.079
        47  -7.2207    217.6866     87.3074   2.8979813773e+02   5.4973679988e+00  0.006650274  0.004892529  59.81 0.0002136198    1.624    0.384
        48  -7.7265     10.3310     86.9620   2.9218923449e+02   6.6189073142e+00   0.01075677  0.005445618  88.69 0.0004535776    4.589    0.782
        49  -7.5419    208.1892     85.6912   2.8989811130e+02   5.5669643149e+00   0.00884625  0.005889311  11.50  0.000305271    1.627    0.385
        50  -8.1052    154.0904     67.8355   2.9041755204e+02   6.0603794869e+00  0.009446145  0.008543749  60.05 0.0003041762    1.210    0.173
        51  -8.7863    191.5181     63.9439   2.8996315180e+02   5.9017326756e+00   0.01105943   0.00908343  19.86  0.001304845    1.213    0.175
        52  -8.2904    132.0035     52.8926   2.9058517598e+02   6.3477373816e+00  0.009165221  0.008838236 -27.83 0.0003008269    1.014    0.014
        53  -9.6386    246.6995     50.6359   2.8924952348e+02   5.7522667291e+00   0.01329063   0.01061733  -7.16 0.0006853673    1.341    0.255
        54  -8.0029    250.5409     46.5261   2.8918123951e+02   5.7775900665e+00    0.0134575  0.008012669 -42.48 0.0007492511    1.714    0.416
        55  -8.2067    188.0120     37.5034   2.8984896500e+02   6.2179205249e+00  0.009415056  0.008532288 -48.27 0.0003941572    1.088    0.081
        56  -9.2231    198.3286     32.5865   2.8970123450e+02   6.2172977893e+00   0.01279103  0.005764527  30.51 0.0009114419    2.119    0.528
        57  -7.5289    160.2239     29.7940   2.9012444975e+02   6.4549388367e+00   0.01680244  0.005225968 -41.83  0.001075613    4.193    0.761
        58 -10.3589    141.9531     29.0549   2.9033102086e+02   6.5620180309e+00   0.01144023   0.01066617 -50.44 0.0002910965    1.069    0.065
        59  -7.6689    152.7261     24.5610   2.9018038195e+02   6.5542975922e+00  0.008807368   0.00589501  35.97 0.0003960995    1.495    0.331
        60  -8.3864      7.4653    249.5055   2.9316427499e+02   4.8028982492e+00  0.006408589  0.006233954 -17.27 0.0001165558    1.012    0.012
