#   1 NUMBER                 Running object number                                     
#   2 MAG_AUTO               Kron-like elliptical aperture magnitude                    [mag]
#   3 X_IMAGE                Object position along x                                    [pixel]
#   4 Y_IMAGE                Object position along y                                    [pixel]
#   5 X_WORLD                Barycenter position along world x axis                     [deg]
#   6 Y_WORLD                Barycenter position along world y axis                     [deg]
#   7 A_WORLD                Profile RMS along major axis (world units)                 [deg]
#   8 B_WORLD                Profile RMS along minor axis (world units)                 [deg]
#   9 THETA_WORLD            Position angle (CCW/world-x)                               [deg]
#  10 FWHM_WORLD             FWHM assuming a gaussian core                              [deg]
#  11 ELONGATION             A_IMAGE/B_IMAGE                                           
#  12 ELLIPTICITY            1 - B_IMAGE/A_IMAGE                                       
         1 -14.2212    199.1039     38.0682   4.6166182041e+01   3.0782887885e+01     1.474567     1.284014  -8.50  0.005267201    1.386    0.278
         2 -14.5209    210.1547     26.7580   4.1905966377e+01   2.9560206753e+01     1.388747     1.032882  -1.82  0.002895302    1.904    0.475
         3 -11.6713      2.3866     22.5141   9.9290592317e+01   7.0803419645e+01    0.5054161    0.1751816 -50.80  0.002565615    2.200    0.546
         4 -13.9930      2.2762      7.2127   9.2778906379e+01   7.3354392936e+01     1.965238     1.044686 -41.31   0.01259353    1.515    0.340
         5 -10.1463     60.4968      7.5384   6.5168366677e+01   6.5969630635e+01    0.1234843    0.1018676  11.75 4.947224e-05    1.030    0.029
         6 -12.5232    236.5420      3.0248   3.3995021198e+01   2.6225589057e+01    0.6317315    0.3328813  61.46  0.002975823    2.006    0.501
         7 -12.2131    231.7860      2.5869   3.4237621029e+01   2.7311676417e+01    0.4120226    0.2239885  77.64  0.001643022    1.719    0.418
         8 -10.7303     62.3412      1.8788   6.1718199597e+01   6.6206263979e+01    0.2061791    0.1557278  48.74   0.00114058    1.425    0.298
         9 -10.6613    113.4910    207.8336   1.0423072884e+02   1.5802341687e+01    0.2665988    0.1897498  66.03  0.001039514    1.486    0.327
        10 -11.9628    139.6384    249.2106   1.0436972802e+02   4.2251223621e+00    0.3592019    0.2799952 -64.62   0.00229587    1.605    0.377
        11 -13.1722     14.4121    192.0903   1.2349279619e+02   3.2138784495e+01    0.7592949     0.238362 -60.03  0.002519979    3.111    0.679
        12 -13.5935     48.8165    220.9998   1.1891754261e+02   2.2331670903e+01     2.031812     1.193467  53.18   0.01232619    1.433    0.302
        13 -14.2619     86.5242    225.0516   1.1190694024e+02   1.6508400434e+01     1.836073     1.402715  58.09 0.0009701157    1.103    0.093
        14 -13.4391     24.7274    225.3628   1.2371664354e+02   2.4205599031e+01    0.4750179     0.419414  84.49   0.00251587    1.315    0.240
        15 -16.6517      6.8934    203.7035   1.2569764747e+02   3.0364270098e+01     8.854178     1.098585 -73.22   0.01932551    5.262    0.810
        16  -8.8935     97.3234    190.3114   1.0531307486e+02   2.2091127479e+01    0.1291475    0.1085926 -18.80 0.0007038928    1.655    0.396
        17  -9.5273     44.1857    186.8697   1.1679281404e+02   3.0181361832e+01    0.1947576    0.1391564  75.75 0.0006655271    1.234    0.189
        18  -9.5000     71.0512    185.5042   1.1063494504e+02   2.7070394660e+01    0.1874987    0.1583172  88.66 0.0003644165    1.053    0.051
        19 -10.9868    108.1862    203.6603   1.0479198622e+02   1.7510506445e+01    0.2207775    0.1959393 -70.89 0.0009747708    1.183    0.155
        20 -10.2203    115.6115    181.7646   9.9797499270e+01   2.0953837919e+01    0.1998825    0.1329588 -70.01 0.0009531157    1.694    0.410
        21 -10.5183     98.8576    181.0396   1.0358178429e+02   2.3911462675e+01    0.3659308    0.2614954  17.21  0.001797305    1.955    0.488
        22 -11.0198    145.6575    180.8255   9.2767775540e+01   1.5753716090e+01    0.2754241    0.2583201   5.39 0.0009984346    1.132    0.116
        23 -12.1534     69.2248    175.7072   1.0978889429e+02   2.9576824390e+01    0.4024159    0.2691482 -42.50  0.002062636    1.900    0.474
        24 -12.1947     73.3380    171.1597   1.0817967614e+02   3.0068724556e+01    0.3903312     0.257185 -48.13  0.001069337    1.697    0.411
        25 -10.1974     39.6100    177.2939   1.1683842532e+02   3.2884574283e+01    0.2507836    0.1635946  64.79 0.0006657655    1.445    0.308
        26 -10.0310    204.3665    176.3291   7.9485074165e+01   5.5885044242e+00     0.301473    0.2078933 -40.65  0.001545486    1.467    0.318
        27  -9.6965    197.1061    176.8459   8.1023908636e+01   6.8367359823e+00    0.2080754    0.2009671  65.92  0.001233417    1.259    0.206
        28  -9.4998     82.9705    175.1633   1.0644830087e+02   2.7730170347e+01    0.3319243    0.1647152 -47.27  0.001416803    2.335    0.572
        29  -9.6435    188.5247    175.0102   8.2384598924e+01   8.7830817025e+00    0.2144958    0.1378727 -41.34 0.0006472618    1.570    0.363
        30 -12.7015     55.3347    146.6449   1.0911720968e+02   3.8363311587e+01      2.71189    0.8234195 -48.50  0.008987576    3.809    0.737
        31 -11.5627    139.7401    171.9483   9.2441044838e+01   1.8738381678e+01     0.407582    0.3296928  67.09  0.001410139    1.385    0.278
        32  -9.4029     47.0344    171.7887   1.1452787663e+02   3.3318431580e+01    0.1801321    0.1532944  75.54 0.0006532941    1.081    0.075
        33 -11.1892     34.1890    165.9964   1.1690172548e+02   3.6099697799e+01     0.530434    0.2074729  52.77  0.002298225    2.736    0.634
        34 -10.1500    152.0556    196.8035   9.4217408259e+01   1.1382352692e+01    0.2155478    0.1855316  63.03  0.001228025    1.261    0.207
        35  -9.5221    186.6203    165.1616   8.0720678325e+01   1.1012836103e+01    0.2076573    0.1324632 -29.92 0.0009396785    1.667    0.400
        36 -10.7017    158.4760    161.4418   8.6029568796e+01   1.7342788509e+01    0.3860723    0.2714972 -67.15  0.001184023    1.852    0.460
        37 -13.6149     50.4076    107.1479   1.0349061493e+02   4.8631755582e+01     2.102575     1.181562 -69.75  0.009788351    1.802    0.445
        38 -12.2357     89.0005    154.7991   1.0166414924e+02   3.1625057552e+01    0.6118224    0.4529076 -25.67  0.002972879    1.883    0.469
        39 -11.3466    133.7056    144.5691   8.8226352716e+01   2.5995747370e+01     1.185898    0.3133702 -54.30   0.00290011    5.228    0.809
        40  -9.0693    112.5755    150.7768   9.4857583638e+01   2.8577003331e+01     0.200928    0.1409875 -66.98 0.0003757371    1.521    0.343
        41 -10.7884    174.0910    148.8962   7.9802614070e+01   1.6770303973e+01    0.3422036    0.2880685  51.97  0.001164716    1.261    0.207
        42 -10.2364    144.3567    146.3795   8.6037055200e+01   2.3446678272e+01    0.3295253    0.2019252  72.07  0.001162746    2.973    0.664
        43  -9.6703     83.8954    143.3511   1.0091712022e+02   3.5200171553e+01    0.2302588     0.185167 -75.66 0.0003123948    1.209    0.173
        44 -10.8592    102.8585    139.7716   9.5121106513e+01   3.2928959683e+01    0.5781236    0.3719644 -23.81  0.002320645    2.484    0.597
        45 -12.3491     90.1093    139.8837   9.8569702762e+01   3.5058730525e+01    0.2925866    0.2605143 -44.23 0.0004309122    1.174    0.148
        46 -11.4937    135.6183    127.7658   8.3821009076e+01   2.9421810679e+01    0.6264168    0.1744266 -48.73  0.001759254    3.633    0.725
        47 -10.4454    111.7594    130.3726   9.0665379282e+01   3.3552743160e+01    0.3395768    0.2716154   6.20   0.00115682    1.630    0.387
        48 -10.3371    160.6333    127.6232   7.7753920768e+01   2.4094869490e+01    0.3122716    0.2862182 -78.61  0.001603133    1.203    0.168
        49 -11.0595     99.0101    126.4256   9.3248011228e+01   3.6811076050e+01    0.3117677    0.2659049 -10.93 0.0009353922    1.425    0.298
        50 -11.4860    120.5058    122.0078   8.6318918615e+01   3.3818077678e+01    0.4397183    0.2628426 -29.63  0.001703214    2.217    0.549
        51 -12.9214     43.5659    129.0901   1.0959003748e+02   4.4034929409e+01    0.7147906    0.4048251  81.79  0.003106678    2.397    0.583
        52  -9.9825    107.9905    119.1152   8.9011817148e+01   3.6915251960e+01    0.2165025    0.2108286 -52.70 0.0002869985    1.027    0.027
        53 -10.5290    105.9558    130.7344   9.2315649999e+01   3.4538653028e+01    0.3395149    0.2960601 -65.31   0.00111541    1.121    0.108
        54 -13.0527     82.1112    161.7139   1.0458519671e+02   3.1030459004e+01     1.267444    0.5318105  57.53 0.0004226814    3.631    0.725
        55 -12.6038    196.0815    197.3196   8.5228479858e+01   3.4447073476e+00     1.248897    0.9226953  78.35  0.005936651    2.615    0.618
        56  -9.6601    168.3598    113.3203   7.2352504294e+01   2.5354673077e+01    0.3141024    0.2257741 -80.08  0.001057876    2.071    0.517
        57 -10.5360    134.6399    105.8207   7.8363636703e+01   3.4500268011e+01    0.6128344    0.1413028 -45.32  0.001572152    4.249    0.765
        58 -11.6166    112.1486    197.8221   1.0309181898e+02   1.8081973604e+01    0.4107237    0.2832493  49.76     0.001893    1.346    0.257
        59 -11.5165    117.8327    109.9656   8.3948609674e+01   3.7110667815e+01    0.5499322    0.3915231  65.74  0.002420759    1.803    0.445
        60  -8.5619    142.6822    109.2991   7.7284381812e+01   3.1984363121e+01     0.157924    0.1259848 -85.01 0.0003839791    1.616    0.381
        61 -11.4823     32.0060    108.3753   1.0952266157e+02   5.0239506320e+01    0.3196337    0.1705546 -64.66  0.001408499    1.546    0.353
        62 -13.7599     70.4254    156.8935   1.0677686507e+02   3.3885039220e+01    0.6095869    0.5161133 -36.44  0.002899815    1.429    0.300
        63 -10.1008    205.4301    110.1703   6.4114211647e+01   1.7588635686e+01    0.3079322    0.2143417  41.39 0.0007711392    1.577    0.366
        64 -14.9536     68.6231    144.1016   1.0516024471e+02   3.7253546878e+01     5.594781     2.292766  60.13  0.003985813    5.435    0.816
        65 -10.5779     31.9646     96.0493   1.0720106505e+02   5.3189627682e+01    0.2599188    0.1659251 -61.96 0.0003115926    1.299    0.230
        66  -9.8669    241.3205     98.7004   5.5547609429e+01   1.1945847792e+01    0.1408779    0.1000454 -62.68 0.0002027874    1.623    0.384
        67 -10.6229     53.0603     90.8142   9.8891182631e+01   5.2190606419e+01    0.3275389    0.1689077 -51.18  0.001456595    1.642    0.391
        68 -10.1061     41.8858     91.9512   1.0297114032e+02   5.3187147525e+01    0.2023823    0.1739057 -53.62 0.0005906973    1.022    0.021
        69  -9.8344     74.9717     84.8515   8.9891487918e+01   5.0509488045e+01    0.2081125    0.1931962 -37.79 0.0003843557    1.038    0.037
        70  -9.6219    158.2211     81.4338   6.5711628893e+01   3.3990977830e+01    0.2061604    0.1513996  67.79 0.0003382514    1.548    0.354
        71  -8.9275    184.3870     77.2838   5.9267077795e+01   2.8402547030e+01    0.1561923    0.1163463  24.12 0.0007006751    1.743    0.426
        72  -9.6202     81.6432    194.5208   1.0939473316e+02   2.3547832208e+01    0.2746389    0.1954355  77.48  0.001518561    1.422    0.297
        73 -14.0226     68.4687    243.1331   1.1705185540e+02   1.5583100683e+01    0.7634014    0.4767767  66.95  0.001938135    1.420    0.296
        74 -10.7110     13.3902     59.7288   1.0581397734e+02   6.2827258002e+01    0.2192666    0.1837088 -55.75 0.0004167942    1.145    0.127
        75 -13.6967    189.6046     45.3400   4.9468602651e+01   3.2120985194e+01      1.23373    0.8561285  37.75 0.0009910874    1.754    0.430
        76 -13.9473     58.3668    242.3894   1.1882625023e+02   1.7021888364e+01    0.4880272    0.2932795  62.37  0.002034917    1.380    0.276
        77 -15.7520     45.3454    249.7177   1.2163663545e+02   1.7288542482e+01     9.697711     2.658617  29.91   0.02092302   16.422    0.939
        78 -11.5834    144.8241     49.4703   5.8685070468e+01   4.2628357401e+01    0.5295282    0.3503717 -78.77  0.001483561    2.320    0.569
        79  -9.3180     68.9497     52.5187   8.1406613607e+01   5.8023354996e+01    0.1931176    0.1318988  36.29 0.0008032897    1.549    0.354
        80 -11.1264      1.9048     50.1043   1.0818763303e+02   6.5514109442e+01    0.2584255    0.1277676 -62.79  0.001430015    1.700    0.412
        81 -10.3535    147.0365     43.3331   5.6222429158e+01   4.2975165713e+01    0.2529153    0.2072521 -41.84 0.0003849322    1.260    0.206
        82 -12.5747      3.3739     30.0854   1.0153589342e+02   6.9370771276e+01    0.6605511    0.2791875 -28.27  0.003396091    2.339    0.572
        83 -14.0463     54.6387    190.9036   1.1492334567e+02   2.8014898931e+01     1.430543    0.9710528  65.94  0.008345398    1.356    0.263
        84 -14.5201     45.7093    203.0065   1.1799804726e+02   2.6449700986e+01     2.698501     1.010229  56.65  0.009662225    2.740    0.635
        85 -16.8482      8.5753    242.7610   1.2741277501e+02   2.2563201617e+01     6.538976     2.238993  28.52    0.0216007    4.735    0.789
        86  -9.6904    189.8197     15.1114   4.1128031665e+01   3.5787403339e+01    0.2070213    0.1651291 -68.79 0.0005987855    1.196    0.164
        87  -9.0585    103.3019    213.2886   1.0711058883e+02   1.6322838635e+01    0.1169835    0.1028442  -4.52 0.0002411107    1.563    0.360
        88 -10.4098    106.6416    210.7016   1.0607367863e+02   1.6319576175e+01    0.2344482    0.1582085  29.86 0.0006564893    1.650    0.394
        89 -10.7885     11.5585     52.4605   1.0464925506e+02   6.4471259746e+01    0.2100507    0.1655891  44.70  0.001071786    1.741    0.426
