#   1 NUMBER                 Running object number                                     
#   2 MAG_AUTO               Kron-like elliptical aperture magnitude                    [mag]
#   3 X_IMAGE                Object position along x                                    [pixel]
#   4 Y_IMAGE                Object position along y                                    [pixel]
#   5 X_WORLD                Barycenter position along world x axis                     [deg]
#   6 Y_WORLD                Barycenter position along world y axis                     [deg]
#   7 A_WORLD                Profile RMS along major axis (world units)                 [deg]
#   8 B_WORLD                Profile RMS along minor axis (world units)                 [deg]
#   9 THETA_WORLD            Position angle (CCW/world-x)                               [deg]
#  10 FWHM_WORLD             FWHM assuming a gaussian core                              [deg]
#  11 ELONGATION             A_IMAGE/B_IMAGE                                           
#  12 ELLIPTICITY            1 - B_IMAGE/A_IMAGE                                       
         1 -13.6690    196.3339     27.8018   6.9003222650e+01   3.3017323796e+01     1.528099     1.424231  30.65   0.00739589    1.294    0.227
         2 -13.5052    211.9494      8.7131   6.2457281646e+01   3.1401798350e+01      1.01464    0.8419319  53.83  0.005173042    1.361    0.265
         3 -11.8558      2.0000     11.0357   1.1763597324e+02   7.0839596717e+01    0.5881757    0.1426823 -45.21  0.002832965    3.063    0.673
         4 -10.4056    162.0294    249.0113   1.2514523442e+02   3.0137966705e-01    0.1994583    0.1401015  67.28  0.001144279    1.694    0.410
         5 -12.1524    244.1145    244.4936   1.0948108396e+02  -1.2539975176e+01    0.3837142    0.2937899 -35.76  0.002585874    1.601    0.375
         6 -10.9528    122.2846    250.1418   1.3261552111e+02   6.8264213575e+00    0.3445485    0.1151849  47.65  0.001485242    2.427    0.588
         7 -11.1245     97.9218    249.1148   1.3688951092e+02   1.0897763327e+01    0.3037497    0.2564987  48.85   0.00153162    1.302    0.232
         8 -12.8532     33.4604    246.8564   1.4760713895e+02   2.0172866716e+01     1.030816     0.819508 -43.26  0.007231144    2.431    0.589
         9 -14.4376    102.9041    229.2515   1.3378763129e+02   1.3786406429e+01     9.086124          nan  46.59   0.01504361   16.247    0.938
        10 -11.3513     20.1892    243.7721   1.4950527383e+02   2.2261667012e+01    0.4277506     0.139879  61.65  0.002150852    2.711    0.631
        11 -12.8482     33.5755    233.3670   1.4666771581e+02   2.2696241985e+01    0.2827892    0.2355203  87.24 0.0007994479    1.296    0.228
        12 -14.0315     38.6874    226.3676   1.4527630344e+02   2.3453463386e+01    0.8102326    0.5905391  67.77  0.002371863    1.117    0.105
        13 -10.7136     46.5109    248.7739   1.4563839986e+02   1.8220241090e+01    0.3079009    0.1402898  78.61  0.001311193    2.287    0.563
        14 -10.7838     22.3753    236.8983   1.4873957334e+02   2.3302268386e+01     0.225964    0.1823707 -50.22  0.001640133    2.098    0.523
        15 -11.2097    139.0235    248.8689   1.2939179927e+02   4.2490265036e+00     0.331462    0.2400399 -53.82  0.002060857    1.668    0.401
        16 -10.5726     54.3741    229.3747   1.4277069903e+02   2.0888374152e+01    0.2655744    0.1633701  80.21   0.00091842    1.414    0.293
        17 -10.2998     56.3256    223.2961   1.4188070178e+02   2.1839794083e+01    0.3144408    0.2102811 -45.41  0.001390534    2.430    0.588
        18 -11.3390      5.5046    227.8674   1.5089467111e+02   2.6790740241e+01    0.3274608    0.2660829 -52.64  0.002537207    2.006    0.501
        19 -15.1686      9.1649    146.7269   1.4389588138e+02   4.3500846248e+01     8.513631     3.036508 -87.83   0.03211496    3.948    0.747
        20  -8.7464     60.3471    227.6913   1.4155244384e+02   2.0425529325e+01    0.1298591   0.07067495  69.13  0.000704423    1.705    0.413
        21 -11.4270      2.6609    248.0019   1.5238452569e+02   2.3344541484e+01    0.3656593    0.2082444  88.13  0.002711674    1.301    0.232
        22 -10.1521    173.4020    222.4172   1.1898247650e+02   2.6432559588e+00    0.3258584    0.2177625  51.23  0.001735031    1.417    0.294
        23  -9.0090     91.7400    214.0713   1.3414116504e+02   1.8595401987e+01    0.2875523    0.1291743  62.75  0.001177208    2.742    0.635
        24  -8.8692    152.5256    212.9796   1.2164484508e+02   8.2178618039e+00    0.1788879    0.1368563 -54.79 0.0003327208    1.453    0.312
        25 -12.5834      9.5864    207.0908   1.4892924016e+02   3.0491256293e+01    0.6583397    0.4324712  36.71  0.003179642    1.905    0.475
        26 -11.6732     60.3831    199.3888   1.3870875106e+02   2.6293565383e+01    0.2657711    0.2215079 -71.33 0.0005696389    1.275    0.215
        27  -9.9426    193.0787    195.4163   1.1026040727e+02   3.6893279497e+00    0.8177741    0.3803564 -62.50  0.001988458    7.993    0.875
        28 -11.6456     15.3138    197.2569   1.4719704476e+02   3.1963437742e+01      0.29079    0.1697418  65.95  0.001150139    1.490    0.329
        29 -11.9502     66.7564    190.9244   1.3641985705e+02   2.7279691306e+01    0.2796565    0.2268651 -69.27 0.0004611005    1.240    0.194
        30 -10.2750      1.8582    191.6598   1.4924137898e+02   3.4376136163e+01    0.1968968    0.1154726 -74.99 0.0009858722    1.365    0.267
        31 -10.8058      6.0642    188.7625   1.4826253061e+02   3.4612912198e+01    0.2981179     0.119577 -68.35  0.001159848    1.989    0.497
        32 -11.0959      3.0267    182.7155   1.4837888201e+02   3.6153791033e+01    0.2717205    0.1810307 -82.57   0.00190295    1.127    0.113
        33 -10.8696     76.9873    177.9621   1.3249581583e+02   2.8736100446e+01    0.2435851    0.2143001 -80.32 0.0003545931    1.102    0.093
        34 -13.2370     63.6823    176.0511   1.3519265445e+02   3.1050530748e+01    0.4994893    0.2776517 -47.75  0.001651673    2.175    0.540
        35 -10.1876     97.9908    174.9593   1.2728216306e+02   2.6121430251e+01     0.221569    0.1864292 -82.35 0.0003286125    1.100    0.091
        36 -11.7456     84.4585    169.0600   1.2945909813e+02   2.9658170772e+01    0.5970006    0.5566295 -14.07  0.003599865    1.438    0.305
        37  -9.3884     93.1083    167.4693   1.2718120385e+02   2.8653328918e+01    0.2397008    0.2262099  17.86  0.001131502    1.341    0.254
        38 -12.4720     12.5867    241.9914   1.5058022390e+02   2.3411820078e+01    0.5739756    0.2569982 -81.29  0.003330785    1.841    0.457
        39 -10.1146     97.3105    152.7849   1.2357108578e+02   3.1389398679e+01    0.3178838    0.2620364 -62.17  0.000794826    1.145    0.126
        40  -9.1140    100.2501    148.7051   1.2206146402e+02   3.1847396916e+01    0.1931027    0.1842327  58.89 0.0005163492    1.125    0.111
        41 -12.0915     85.9495    151.8137   1.2619990843e+02   3.3465474245e+01    0.2971587    0.2464055 -47.85 0.0005321277    1.289    0.224
        42  -9.0269    134.0000    146.5563   1.1329338536e+02   2.5974100186e+01    0.5141166   0.08595774 -49.30  0.001155868    5.930    0.831
        43 -12.2576     67.3000    143.6425   1.2943297068e+02   3.8119651680e+01    0.6671281    0.4414216  69.28  0.002997868    1.786    0.440
        44  -9.8794    109.1470    137.6683   1.1754303396e+02   3.2852783012e+01    0.4082603    0.2686661 -20.56  0.001329478    2.640    0.621
        45 -10.5046     96.4023    134.7495   1.2021426546e+02   3.5784252320e+01    0.2573688    0.2281138 -27.60 0.0004011727    1.309    0.236
        46 -10.9434     31.8849    132.0829   1.3659588087e+02   4.4878713372e+01    0.2919865    0.1999073  58.32  0.001059045    1.655    0.396
        47 -12.0088     10.2542    235.0744   1.5055371842e+02   2.4943646978e+01    0.7618041    0.3594243 -50.46  0.003708049    4.606    0.783
        48  -8.9068     89.1404    130.1086   1.2114901830e+02   3.8072753593e+01    0.2195734    0.1637628  79.06 0.0006600421    1.631    0.387
        49 -10.2843     55.6858    128.8249   1.2984549665e+02   4.3084204851e+01    0.2190163    0.1451749 -51.48 0.0007603952    1.379    0.275
        50 -11.6914     22.2580    126.7922   1.3829060726e+02   4.6938052283e+01    0.3945273    0.2161964  53.81  0.001625961    2.215    0.549
        51  -9.0246    106.4970    124.0457   1.1517579552e+02   3.6494782940e+01    0.2076108    0.1403855 -51.49 0.0001034593    1.401    0.286
        52  -9.7810    167.9247    113.0761   9.7203751151e+01   2.5806385390e+01    0.3512414    0.2663976  88.55  0.001548603    1.715    0.417
        53  -9.0383    203.3816    111.7726   8.9537683594e+01   1.7667769488e+01    0.2138973    0.1450538 -29.61 0.0004800336    1.609    0.378
        54 -10.3583     81.6635    249.0114   1.3973764892e+02   1.3367869706e+01    0.2359999    0.1269048  63.08   0.00133992    1.636    0.389
        55  -9.7981    157.9737     76.5344   8.9410626584e+01   3.5275516097e+01     0.242859    0.2058661 -38.46  0.000639119    1.202    0.168
        56 -10.1429     41.0078     66.5911   1.2034495394e+02   5.8237600623e+01    0.4703832    0.2211153  49.37  0.001946887    4.088    0.755
        57 -11.4825      1.7502     61.0219   1.3277235669e+02   6.2288533851e+01    0.5054395    0.0815892 -60.42  0.001868606    4.099    0.756
        58  -8.9538     31.4301     62.1970   1.2249223063e+02   5.9998688297e+01    0.1562208    0.1021783 -59.17 0.0003048466    1.553    0.356
        59 -10.8381     13.1245     54.7694   1.2713850304e+02   6.2821490288e+01    0.1840951     0.146979  30.72 0.0007766634    1.631    0.387
        60 -10.8481    152.4982    248.3430   1.2682617111e+02   2.0408343393e+00    0.2349162   0.09869593  43.05  0.001090493    1.959    0.490
        61 -11.4382    198.0582    245.3574   1.1791926221e+02  -5.3034088596e+00    0.3098156    0.2450936 -67.65  0.001898138    1.913    0.477
        62 -11.2522      2.8183     38.4000   1.2659800914e+02   6.6411417069e+01    0.2916274    0.1246693 -50.41  0.001718545    1.715    0.417
