#   1 NUMBER                 Running object number                                     
#   2 MAG_AUTO               Kron-like elliptical aperture magnitude                    [mag]
#   3 X_IMAGE                Object position along x                                    [pixel]
#   4 Y_IMAGE                Object position along y                                    [pixel]
#   5 X_WORLD                Barycenter position along world x axis                     [deg]
#   6 Y_WORLD                Barycenter position along world y axis                     [deg]
#   7 A_WORLD                Profile RMS along major axis (world units)                 [deg]
#   8 B_WORLD                Profile RMS along minor axis (world units)                 [deg]
#   9 THETA_WORLD            Position angle (CCW/world-x)                               [deg]
#  10 FWHM_WORLD             FWHM assuming a gaussian core                              [deg]
#  11 ELONGATION             A_IMAGE/B_IMAGE                                           
#  12 ELLIPTICITY            1 - B_IMAGE/A_IMAGE                                       
         1 -11.7739     83.8850     49.4477   5.9967650591e+01   5.6136757820e+01     1.788644    0.6702684 -31.26  0.006160574    3.248    0.692
         2 -10.0936    152.7746     32.0856   3.5658524951e+01   4.2772876074e+01    0.6413476    0.4597456  -6.57  0.003177289    1.756    0.430
         3 -12.5008    137.6804     47.1416   4.3664796175e+01   4.4521118059e+01    0.6244217    0.5089968 -61.87 0.0009701298    1.430    0.301
         4 -10.8693    170.0234     32.9427   3.2985602036e+01   3.8285417204e+01    0.6890649    0.3767326  -9.61  0.002527388    2.902    0.655
         5 -10.1100      1.8465     20.8768   8.6850875724e+01   7.1392815497e+01    0.3588519    0.1216797 -52.36  0.001786109    2.232    0.552
         6 -10.8066     16.2091     28.1139   8.1558989890e+01   6.9119954983e+01    0.5175259    0.4349061 -11.99  0.003687055    1.154    0.134
         7 -10.7229      6.9651     22.2433   8.4427801247e+01   7.0844260346e+01    0.5203795    0.2981698  30.61  0.003127368    2.165    0.538
         8 -11.6020     28.1852     18.5890   7.1129417101e+01   6.9635405897e+01    0.8967171    0.3787966 -20.94  0.003459306    3.768    0.735
         9 -11.2096     40.0830     33.1858   7.1504082268e+01   6.5821802111e+01    0.6317642    0.3146296 -26.41            0    2.170    0.539
        10 -11.8556     35.5480     19.0441   6.7530516117e+01   6.8700755353e+01     1.109259    0.5654054   2.04  0.003627232    3.085    0.676
        11 -12.6079     14.9635     13.8037   7.6279464757e+01   7.1707247815e+01    0.5870559    0.2489071  10.78  0.001825819    2.903    0.656
        12 -11.8926     23.3501     11.9276   7.0592980914e+01   7.1195536918e+01    0.3649396    0.2723584   8.44  0.000531623    1.217    0.178
        13 -10.7493    227.1662     17.9043   2.2265647999e+01   2.6253347541e+01    0.8044712    0.3660681  40.67  0.003018051    4.405    0.773
        14 -11.0904    236.6062     16.8109   2.1227266657e+01   2.4295382931e+01    0.6074193    0.2249196 -48.89  0.002744917    2.356    0.576
        15 -11.2735    236.2102     28.9540   2.3944035061e+01   2.2952171574e+01    0.5112014    0.3888091 -18.18  0.001734279    1.658    0.397
        16 -11.4942    238.5528     21.1203   2.2008694435e+01   2.3379023752e+01    0.6039202    0.3657399 -35.69  0.001594337    1.583    0.368
        17 -10.4771    222.3531     19.5376   2.3073879611e+01   2.7154623970e+01    0.6058518    0.2666269 -20.61  0.002491694    3.258    0.693
        18 -11.2478     59.1336     13.0799   5.3850881794e+01   6.5997279940e+01    0.5106607    0.3870538   9.28  0.002565955    1.157    0.135
        19 -11.9175    111.7654     18.9337   3.9698401156e+01   5.4412905830e+01    0.5332392    0.3557192   7.17  0.002660239    1.813    0.449
        20 -10.3213    153.5251      3.0822   2.6412130776e+01   4.5619405470e+01    0.4182782    0.2862614  44.48  0.001449368    1.484    0.326
        21 -10.8018    150.7242     18.2376   3.1605324185e+01   4.4880202155e+01    0.3500274    0.3180174 -26.15  0.001973054    1.230    0.187
        22 -10.6319    154.8011     15.9956   3.0241713410e+01   4.4080027540e+01    0.5276197    0.3139058 -11.76  0.001798777    2.175    0.540
        23 -10.1893    156.6007      9.8111   2.8054015158e+01   4.4235081255e+01    0.3303446    0.2105873 -51.66 0.0008236488    1.734    0.423
        24 -10.5187    153.2424      9.6101   2.8483164325e+01   4.5102744783e+01    0.4256457    0.2169044  51.82  0.001977256    1.790    0.441
        25  -9.6262     98.3165      7.3169   3.8401385848e+01   5.8681048034e+01    0.3975696    0.3512045  70.61  0.002473175    1.278    0.217
        26 -11.3194    100.5698     16.2100   4.1477036410e+01   5.7289670330e+01    0.6289728    0.4584935  18.66   0.00345347    1.417    0.294
        27 -11.1435     93.2652     10.0809   4.0910840922e+01   5.9547642875e+01    0.6096446    0.3793612  64.79  0.003101328    1.767    0.434
        28 -11.7336     89.7973      2.9977   3.8800081078e+01   6.0962916949e+01     0.469792    0.3218752  56.60 0.0009882252    1.355    0.262
        29  -9.7554     86.4581     15.1387   4.5082615638e+01   6.0491275447e+01    0.4581234    0.2883971 -58.90  0.002040652    2.969    0.663
        30  -9.2681    176.2409     12.2084   2.6132674125e+01   3.9050742720e+01    0.2825688    0.1937304  85.56 0.0003233348    1.391    0.281
        31  -9.3849    200.9295      4.7314   2.1507364083e+01   3.3741155906e+01    0.6291338    0.2325893  60.06  0.002432324    2.460    0.593
        32 -10.5082    192.8325      2.7373   2.1772341709e+01   3.5881906760e+01     1.205244    0.5359248  43.07  0.004978253    3.153    0.683
        33 -12.5108    187.1568     13.6520   2.5226918956e+01   3.6186532332e+01    0.3249385    0.2760155 -88.64 0.0003612633    1.047    0.045
        34 -11.6942    182.6724     12.9267   2.5552993019e+01   3.7372788462e+01    0.3670497    0.3206024  43.57  0.001057494    1.297    0.229
        35  -9.7417    138.5475      2.4612   2.8426451442e+01   4.9428290029e+01     0.710621    0.2765735  78.64  0.002551978    3.222    0.690
        36 -11.9803    122.4471     11.3583   3.4457878473e+01   5.2620512641e+01    0.6188283    0.3045569  42.91 0.0006445255    1.928    0.481
        37 -12.0218    128.0361      4.8179   3.1020361178e+01   5.1838647854e+01    0.4584078     0.361022 -86.91  0.001227909    1.414    0.293
        38 -10.1041     75.9271     12.9744   4.7530999325e+01   6.2885897928e+01    0.3573422    0.2383274 -24.90  0.001705324    1.560    0.359
        39  -9.4544     72.1498      7.3795   4.6215371659e+01   6.4228218244e+01    0.2169464    0.1744301 -21.00 0.0006145957    1.343    0.255
        40  -9.1135    144.7729     13.0242   3.0908934401e+01   4.6913388576e+01    0.2530992    0.1903912 -33.70 0.0008191037    1.466    0.318
        41  -9.3298    142.4222     10.4687   3.0459509800e+01   4.7750102922e+01    0.2140817    0.1945263 -31.90 0.0004917635    1.239    0.193
        42 -10.1838    131.4992     13.1961   3.3330340343e+01   5.0218079389e+01    0.3493361    0.1920499  58.53  0.001387839    1.558    0.358
        43 -12.2736     46.0051      9.2161   5.7613100538e+01   6.8619012148e+01    0.3052071     0.218291 -10.31   0.00033674    1.246    0.197
        44  -9.3936     48.0765      2.4414   5.3128308614e+01   6.9087197864e+01    0.2085913    0.1430273  -9.17 0.0001744015    1.344    0.256
        45 -10.8232    209.7278      8.8989   2.1716752590e+01   3.1236789260e+01    0.6026411     0.376079  34.05  0.003021811    2.444    0.591
        46 -11.4032    216.6944      6.3633   2.0512115042e+01   2.9880488598e+01    0.4471106    0.3050535 -14.23  0.001248754    1.978    0.494
        47 -10.6125     35.2992      9.5054   6.2964438503e+01   7.0115195946e+01    0.5873322    0.3695407 -47.53  0.001959793    2.331    0.571
        48  -9.6043     37.2990      2.6863   5.8328185220e+01   7.0712447335e+01     0.240934     0.146359  27.19  0.001446869    1.465    0.317
        49  -9.2820     34.4588      2.4178   5.9617828960e+01   7.1145194680e+01    0.1938383    0.1619921   3.90 0.0005599745    1.185    0.156
        50 -11.1462      3.1410      3.9347   7.8888408822e+01   7.4220940407e+01    0.3435561    0.3132581  44.24  0.002623838    1.871    0.465
        51  -9.8431     18.1451      4.7537   6.9940773862e+01   7.2801832780e+01    0.3461256    0.2491384 -11.68   0.00239711    1.071    0.067
        52  -9.8985     14.2155      3.2078   7.1494945695e+01   7.3414832287e+01    0.3454689     0.170782 -22.52  0.001916848    1.918    0.479
        53 -10.0595    238.6475      7.3887   1.9040460846e+01   2.4891403162e+01    0.3091215    0.1478475 -52.76  0.001621312    1.814    0.449
        54 -10.6859    168.0326      5.9123   2.5358823315e+01   4.1718126448e+01    0.3626533    0.2908464 -31.27  0.001459479    1.395    0.283
        55  -9.1929    179.0084      6.7369   2.4284243618e+01   3.8897667876e+01     0.179601    0.1477927  83.56 0.0002045089    1.064    0.060
        56  -9.7787    116.8541      8.7184   3.4640827964e+01   5.4219764732e+01    0.2608963    0.1962311  80.03 0.0007151763    1.474    0.322
        57  -9.5787     77.7809      6.0439   4.3719988308e+01   6.3232664423e+01    0.2981275    0.2316069 -44.04  0.001768055    1.702    0.412
        58  -8.5546     52.8026      6.8737   5.3394606367e+01   6.7809621891e+01    0.1470122    0.1342353  10.94 0.0003678735    1.285    0.222
        59 -10.5247    105.8388      3.3256   3.4957102218e+01   5.7300652177e+01    0.5303135    0.3325125 -79.31  0.002028987    2.657    0.624
        60 -10.2338    245.9900      1.9196   1.7403039885e+01   2.3914605166e+01    0.3944521    0.2177987 -61.72  0.001792781    1.561    0.360
        61  -9.7989    241.6826      1.3108   1.7556054541e+01   2.4881694000e+01    0.3611679    0.1079786  81.91  0.001405379    3.723    0.731
        62  -9.5284     40.9378      5.0953   5.7846348162e+01   6.9891154403e+01    0.1756951    0.1427627   4.46  0.000296069    1.082    0.076
        63  -8.2497    185.6241      3.7359   2.2754811729e+01   3.7546851716e+01    0.1341831   0.08616957  49.60  0.000698501    1.670    0.401
        64  -8.3959    145.9101      3.0432   2.7488494097e+01   4.7536654909e+01    0.1575356    0.1310575  69.23 0.0002954666    1.044    0.042
        65  -8.7990    230.2228      2.2027   1.8530155672e+01   2.7262756776e+01    0.1746726    0.1132491 -64.70 0.0004757666    1.340    0.254
        66 -10.8356    118.0126      1.4953   3.1691280102e+01   5.4557600617e+01    0.3169231    0.1461027  68.58 0.0007215154    2.065    0.516
        67 -11.6708      8.7284      7.9401   7.7274786133e+01   7.3168397649e+01    0.6154344    0.1799412 -37.86  0.001268511    2.779    0.640
        68  -8.7366      1.4273    104.9952   1.0462106230e+02   5.3131614141e+01    0.2346878   0.09012089 -69.47 0.0008661013    1.974    0.493
        69 -11.6723      9.1070    120.3620   1.0402073956e+02   4.9038558012e+01    0.6218574    0.4723444 -72.95  0.003529142    1.072    0.067
        70 -10.1106      1.8525    111.5470   1.0522617143e+02   5.1558854241e+01    0.3778349    0.1661323 -79.82  0.001837094    1.975    0.494
        71 -10.6643     11.2154    128.6098   1.0430449043e+02   4.6922796615e+01     0.415058     0.227259  39.83  0.001306708    1.978    0.495
        72  -9.8625     15.5311    128.5556   1.0306562611e+02   4.6632708126e+01    0.1989813    0.1624645 -75.11  0.000569696    1.025    0.025
        73  -9.4547     41.3112    128.3041   9.5431795868e+01   4.4442165875e+01    0.2123627    0.1701525 -59.23 0.0004705548    1.144    0.126
        74  -9.9079     41.3027    125.2992   9.4970748567e+01   4.5184221218e+01    0.2039953    0.1545468 -68.86 0.0002607907    1.168    0.144
        75 -10.7738     47.8825    126.5831   9.3168293403e+01   4.4163868962e+01    0.4292728    0.2189382  38.99 0.0007930772    2.059    0.514
        76 -10.0277     52.5352    125.5717   9.1573161361e+01   4.3882533554e+01    0.3210352    0.2109362  51.57 0.0009627571    1.685    0.406
        77  -9.7331     97.7635    125.9655   7.7922182828e+01   3.7129403877e+01    0.2391809    0.2141807  34.74 0.0004710217    1.145    0.127
        78 -10.3269    229.7028    123.0425   4.6549581871e+01   1.0184788517e+01    0.5739574    0.3662091 -56.30  0.002678954    1.988    0.497
        79 -10.0081     83.4957    119.3179   8.0737278568e+01   4.1133658678e+01    0.3304907    0.2897269 -33.08  0.001601903    1.186    0.157
        80  -8.8445    136.1199    120.0986   6.5744169454e+01   3.0944153121e+01    0.2371044    0.2116729  -4.82 0.0004585719    1.220    0.180
        81 -10.4322      2.6225    116.4646   1.0552019673e+02   5.0350594998e+01    0.3432333    0.2423984  73.15  0.000428903    1.442    0.306
        82  -9.5256     67.0823    117.8894   8.5571436414e+01   4.3926516721e+01    0.2144282    0.1884514  77.44 0.0004215182    1.233    0.189
        83  -9.6192     57.9760    117.9644   8.8479816822e+01   4.5103203780e+01    0.2199679    0.2058773  38.16 0.0005899964    1.160    0.138
        84  -8.6950     98.7383    117.4329   7.5651473398e+01   3.8993001055e+01    0.1920254    0.1489182  23.57 0.0003136434    1.426    0.299
        85  -8.7075     52.3038    116.3337   8.9981900121e+01   4.6190641356e+01    0.1453217   0.09711049 -36.05 0.0007037476    1.661    0.398
        86 -10.3883     25.6488    114.7394   9.8232432812e+01   4.9212389878e+01    0.5581114    0.1519331 -58.16  0.001456556    2.703    0.630
        87 -10.6765     22.1973    110.6212   9.8727969884e+01   5.0484052881e+01    0.2974904    0.2592887   9.39  0.001931746    1.376    0.273
        88  -9.3428     84.5191    113.0706   7.8988943188e+01   4.2476882507e+01    0.2387672    0.2002199  49.82  0.001238913    1.271    0.213
        89 -10.0908     62.4292    111.9062   8.5821365286e+01   4.6018751780e+01    0.2465055     0.224401  77.18  0.000484871    1.186    0.157
        90 -11.0872     35.0252    109.7636   9.4417461791e+01   4.9613661197e+01    0.4670658    0.3047512 -67.30  0.002426574    1.350    0.260
        91 -10.4636      9.8497    102.4257   1.0158147612e+02   5.3285373600e+01    0.5229927    0.2884905 -24.06  0.002699144    2.325    0.570
        92  -9.2272     11.5113     98.0192   1.0040566020e+02   5.4235735930e+01    0.1834082    0.1042113 -70.34 -3.686147e-05    1.459    0.314
        93  -9.8199      6.4344    109.0733   1.0352769212e+02   5.1897471566e+01    0.3420079    0.1249934 -65.71  0.001577495    2.043    0.511
        94  -9.6497     10.4798    107.7606   1.0208562802e+02   5.1973500454e+01    0.3398789     0.232209 -25.06   0.00181627    1.756    0.430
        95 -10.3369     46.3338    109.6024   9.0654334648e+01   4.8516139814e+01    0.2666952    0.2567768  49.09 0.0009187428    1.152    0.132
        96  -9.0256    139.0947    107.4276   6.1652187519e+01   3.3049719510e+01    0.2749665    0.2094612 -30.74 0.0005539459    1.392    0.282
        97  -9.9996     17.2890    107.3298   9.9836354779e+01   5.1635071708e+01    0.2598795      0.10381 -55.43 0.0008379493    2.008    0.502
        98 -10.2545     16.5408    103.8236   9.9573433807e+01   5.2529362054e+01    0.3469815    0.2118574 -38.27  0.001123439    1.713    0.416
        99  -8.9332     72.2205    107.6715   8.1679273978e+01   4.5683021875e+01    0.1976252    0.1371583  19.86 0.0009370529    1.677    0.404
       100  -9.1061     58.8358    106.8669   8.5934473010e+01   4.7711392329e+01    0.1887154    0.1608719  89.99 0.0004432243    1.299    0.230
       101  -9.7657    127.0044    106.0216   6.4518531538e+01   3.5999749224e+01     0.229324    0.2270818 -20.78            0    1.021    0.020
       102 -11.2949    107.9388    103.3200   6.9281529653e+01   4.0534021315e+01      0.46686    0.3045061  47.76  0.002050061    1.611    0.379
       103 -10.9259     67.0283    104.5092   8.2666299245e+01   4.7188342279e+01    0.4308086    0.2758587  20.76  0.002017742    1.835    0.455
       104  -9.3004    120.2235    107.6845   6.6866181464e+01   3.7065447085e+01    0.3257025    0.1364151  49.43  0.001003074    2.663    0.624
       105  -9.4698    131.2215    104.6023   6.2978403209e+01   3.5393886299e+01    0.2242969    0.1479158  33.70 0.0005408861    1.631    0.387
       106  -9.0460     94.0830    103.8784   7.3693504666e+01   4.3013640418e+01    0.2306052    0.2108027  89.65   0.00104503    1.236    0.191
       107 -11.3339     80.7457    103.1342   7.7788833351e+01   4.5455360133e+01    0.3169166    0.2670534   5.42  0.001659401    1.330    0.248
       108 -10.0662     45.7149    102.2825   8.9420384212e+01   5.0364632627e+01    0.4495289    0.2425646 -76.08  0.001367405    2.238    0.553
       109 -10.1914     37.9066     98.0365   9.1275237850e+01   5.2185795159e+01     0.482239    0.3139642  59.86  0.002176933    2.011    0.503
       110 -10.4862     25.9419    107.5186   9.7035897481e+01   5.0944602421e+01    0.4064617    0.2407186  61.94   0.00140797    2.157    0.536
       111  -9.0705     53.0495    100.6106   8.6540171896e+01   4.9936498539e+01    0.2249925    0.1741198 -37.28 0.0006629525    1.276    0.216
       112  -9.7698     68.0053     99.3246   8.1104207985e+01   4.8289125031e+01    0.2634242    0.2121895 -36.02 0.0006480598    1.220    0.180
       113  -9.2794     69.6997     96.3082   7.9775876629e+01   4.8757126243e+01    0.2528048    0.1971967 -63.55 0.0006834961    1.324    0.245
       114 -11.7166    101.6264     97.8534   6.9712862971e+01   4.2991672184e+01    0.2913342    0.2684337  20.67 0.0002045229    1.102    0.093
       115 -10.3794     96.9261     95.4801   7.0527854427e+01   4.4412868305e+01    0.3608035     0.256284  38.13  0.001161181    1.437    0.304
       116 -11.2497     61.1855     97.2698   8.2954873005e+01   4.9713713555e+01     0.322457      0.27774  66.53 0.0002511118    1.369    0.269
       117 -10.5089    115.7854     97.7323   6.5413107734e+01   4.0185423691e+01    0.4510955    0.1981933  51.81  0.001519203    2.736    0.635
       118 -10.1074     25.9802     96.5894   9.5183976397e+01   5.3576722445e+01    0.4067542    0.2025634  34.10   0.00135414    2.251    0.556
       119 -10.0823     15.8062     94.9003   9.8452224146e+01   5.4709710014e+01    0.4328212    0.2417499  65.17  0.001820789    2.502    0.600
       120  -8.8761    147.3396     96.2542   5.6469317449e+01   3.3490321948e+01    0.1582042    0.1219796  17.59 0.0002270776    1.575    0.365
       121  -9.7457    107.5658     95.8916   6.7340550783e+01   4.2265977484e+01    0.3204831      0.20285  57.01  0.001324577    1.958    0.489
       122 -10.0947    137.6957     93.4866   5.8134815380e+01   3.6277001619e+01    0.2921438    0.2558013 -46.21 0.0008801946    1.166    0.143
       123 -10.0219    117.1075     93.9196   6.3940451439e+01   4.0732014532e+01    0.2773027     0.224784  47.42  0.001346554    1.259    0.206
       124  -9.0617      4.9384     93.8052   1.0204152949e+02   5.5594981427e+01    0.1873796    0.1515558 -26.44 0.0005774615    1.379    0.275
       125  -9.3131      1.3303     93.8680   1.0327815098e+02   5.5755421490e+01    0.1887237   0.09665974 -70.79 0.0005174286    1.549    0.354
       126  -8.5325     87.5100     93.5067   7.3025318963e+01   4.6555197380e+01    0.1524182    0.1383308 -19.85 0.0008087514    1.097    0.088
       127 -12.1530     34.8291     89.7909   9.0691974245e+01   5.4441853697e+01    0.3679815    0.3020498 -45.79 0.0003018886    1.082    0.076
       128 -10.2145     30.2501     85.6739   9.1519629524e+01   5.5815741549e+01    0.2514595     0.227213  17.45  0.001089725    1.268    0.211
       129 -10.6251    126.5758     91.5097   6.0551901250e+01   3.9189445190e+01    0.3863737    0.2846637  53.24  0.001773852    1.426    0.299
       130  -8.4923      8.7537     92.3717   1.0051685105e+02   5.5730472248e+01      0.15051    0.1119016 -16.83 0.0007425785    1.569    0.363
       131  -8.8080     53.3208     91.6931   8.4399247337e+01   5.2028243220e+01    0.1824444      0.12056  26.17 0.0009140954    1.661    0.398
       132 -10.8291    102.6125     85.1822   6.5743461363e+01   4.5570599927e+01    0.9485279    0.3443795 -34.58   0.00271654    3.984    0.749
       133 -10.0345     99.9244     62.6158   5.9322348569e+01   5.0610926405e+01    0.5061746    0.2484759 -28.36  0.001900275    2.510    0.602
       134 -10.2074    104.6172     57.8431   5.6195515447e+01   5.0486394194e+01    0.4650412    0.3496173  30.87   0.00232527    1.327    0.246
       135 -12.1144    112.9037     81.3722   6.1432880458e+01   4.4245047103e+01     1.528742    0.7299898  27.83  0.004819271    3.450    0.710
       136 -11.4578    104.7276     78.2728   6.2956095175e+01   4.6581298694e+01    0.7891083    0.5844427   1.41  0.003616032    1.722    0.419
       137 -11.0927    102.4789     69.4640   6.0821077259e+01   4.8790530931e+01    0.5509765    0.4825192  11.52 0.0009766887    1.149    0.130
       138 -10.7388    108.3606     62.7836   5.6762940820e+01   4.8800465667e+01    0.3366341    0.2495869 -19.14 0.0006674549    1.483    0.326
       139  -9.1355     63.5238     89.8744   8.0290169313e+01   5.1134592408e+01    0.2238933    0.1303165 -52.74  0.001027929    1.580    0.367
       140  -8.9583     42.3439     90.5771   8.8116649615e+01   5.3522397937e+01    0.2404693    0.1267403  30.47  0.001134994    2.075    0.518
       141  -9.8789     56.0223     88.7005   8.2688912086e+01   5.2395962622e+01    0.3650429    0.2147438  49.42  0.001387154    2.176    0.541
       142  -9.7005     13.0748     88.2365   9.8329195031e+01   5.6454216827e+01    0.2544851    0.1726751 -74.27 0.0002520225    1.335    0.251
       143  -7.1061      9.7173     88.2808   9.9544008383e+01   5.6638136287e+01    0.1720365    0.1082906  28.56 0.0002945293    1.882    0.469
       144 -12.1514    131.4125     85.8633   5.7564169917e+01   3.9250544552e+01    0.3992969    0.3089814  30.65 0.0002483576    1.369    0.269
       145  -9.5896    139.2731     86.8336   5.5789663062e+01   3.7245282489e+01    0.3726045     0.232845 -59.12 0.0007344625    2.103    0.524
       146 -10.4452    120.8930     87.5376   6.0976689655e+01   4.1260429142e+01    0.3944212    0.3315791  81.79 0.0009130661    1.498    0.332
       147 -10.3359    124.3623     86.2164   5.9601600763e+01   4.0767033857e+01    0.4435701    0.2230835 -47.76  0.001678399    2.116    0.527
       148  -9.7813    110.5709     88.1747   6.4192823131e+01   4.3322709980e+01    0.2818925     0.214043  43.44 0.0007741376    1.327    0.247
       149 -10.1223     87.5544     86.4652   7.1010321642e+01   4.8121944773e+01    0.3058423    0.2174367  11.50 0.0009740471    1.750    0.429
       150  -9.2000     71.1008     82.6504   7.5609130904e+01   5.1679997391e+01    0.6040099    0.3840152 -89.77  0.002129683    3.860    0.741
       151 -11.5005     81.9561     74.4650   6.9289409709e+01   5.1683316568e+01    0.9519115    0.3922435  32.23   0.00222829    2.774    0.640
       152 -10.7519     80.2141     80.9595   7.1892020525e+01   5.0592919483e+01    0.5503014    0.3156567  33.71  0.001906466    1.819    0.450
       153  -9.2508     95.5016     84.3013   6.7748206186e+01   4.7137527160e+01    0.2742557     0.215616 -71.52 0.0007456387    1.651    0.394
       154  -9.0875     59.4780     82.4950   7.9800142531e+01   5.3375400488e+01    0.4123011    0.1867282 -63.50  0.001344457    2.843    0.648
       155 -10.6780     53.9991     81.0571   8.1456644712e+01   5.4407510039e+01    0.3729497    0.2556969 -14.03 0.0003477729    1.755    0.430
       156  -9.6332     60.7597     76.2735   7.7574105823e+01   5.4593791001e+01    0.3389846    0.2346927 -46.75  0.001039324    1.321    0.243
       157  -9.0334     20.0795     82.1863   9.4640540015e+01   5.7415304881e+01    0.2936656    0.1601241 -68.77  0.001502846    1.669    0.401
       158  -9.4746      1.8508     82.9628   1.0156014419e+02   5.8269167450e+01    0.1788936    0.1414234 -63.53 0.0004365727    1.020    0.020
       159 -10.3816    154.7270     79.5041   4.9877187729e+01   3.4951889224e+01    0.3142022    0.2138764  47.05 0.0008372366    1.448    0.309
       160  -9.1940     91.9390     80.0091   6.7612317602e+01   4.8720558248e+01      0.22593    0.2133789 -20.62 0.0004836374    1.022    0.021
       161 -10.2063     44.1304     79.1539   8.4718891660e+01   5.5988537752e+01     0.450523    0.2494542  43.73  0.002116965    2.234    0.552
       162 -10.0557     56.7837     72.5494   7.8004313730e+01   5.5945818689e+01    0.3998958    0.2384707 -27.45  0.001193095    1.904    0.475
       163 -11.8565     46.0140     72.6305   8.2248229362e+01   5.7247790506e+01    0.6155185    0.4114735  62.90 0.0005499362    2.438    0.590
       164 -10.7084     42.5723     62.3675   8.0682662640e+01   5.9861320272e+01    0.5479796    0.3376907 -55.30  0.002415405    1.568    0.362
       165  -8.6128      7.0527     80.7820   9.9293480075e+01   5.8524423579e+01    0.1345932    0.1006486  10.77 0.0005402432    1.606    0.378
       166 -10.7223    158.0932     84.0579   5.0435198371e+01   3.3298286109e+01    0.4772095    0.3105448  24.19  0.001912957    2.142    0.533
       167  -8.1466     30.7142     77.7620   8.9595861488e+01   5.7610808487e+01    0.1263949   0.08513328 -32.37 0.0001895163    1.454    0.312
       168  -9.4342      4.3331     73.9025   9.9151165012e+01   6.0233012965e+01    0.3903948     0.172852 -75.91  0.001853085    2.224    0.550
       169 -11.1083    152.4703     73.0597   4.8477758279e+01   3.6659256239e+01    0.6704654    0.2834741 -40.85  0.001156459    2.384    0.580
       170 -12.3101    156.3128     66.3167   4.5593874401e+01   3.6872744166e+01    0.7799122    0.6019835 -62.81  0.002856811    1.503    0.334
       171 -11.1657    154.1517     50.1687   4.1088835182e+01   3.9963534627e+01    0.7795068    0.5721474  82.60  0.002872572    1.595    0.373
       172 -10.9164    147.0564     61.6941   4.6222512460e+01   3.9931285700e+01    0.2814381    0.2412777 -45.83 0.0004290074    1.219    0.180
       173 -13.1342    150.7647     57.7374   4.4162322066e+01   3.9651447880e+01    0.4881618    0.4193565 -63.86 0.0005301562    1.282    0.220
       174 -10.2483    132.1079     60.9374   4.9565633625e+01   4.3694497793e+01     0.416992    0.3053192 -54.07 0.0005268182    1.590    0.371
       175  -9.5321    136.4559     74.0752   5.2648686873e+01   4.0339311772e+01    0.2814218    0.2228531 -24.65 0.0007250714    1.350    0.259
       176 -11.3227    140.0208     72.6413   5.1308245728e+01   3.9751559857e+01     0.561317    0.3520635  36.84  0.001716159    1.725    0.420
       177 -11.4832    136.6303     68.3374   5.0806360529e+01   4.1333337377e+01    0.6798548    0.4100088 -45.85  0.001802846    1.777    0.437
       178  -9.7692      8.0430     73.9913   9.7717696551e+01   6.0030587570e+01    0.1619918    0.1335323 -88.97 0.0004073252    1.345    0.257
       179  -9.9292     75.9831     83.4993   7.4120122996e+01   5.0728130067e+01    0.3157949    0.2597521 -10.67 0.0009519213    1.300    0.231
       180 -10.3829     17.8941     70.6302   9.3101858551e+01   6.0211788336e+01    0.4195338    0.2035919 -34.49  0.002057818    2.064    0.515
       181  -8.6883     23.9438     70.7623   9.0669331145e+01   5.9750668711e+01    0.2541093    0.1561249  54.15  0.001281169    2.388    0.581
       182 -11.0424    164.0005     70.9232   4.5331910331e+01   3.4190795478e+01     0.456315    0.3115937  28.24  0.001484567    1.856    0.461
       183  -9.7471    129.1031     70.9167   5.3569110627e+01   4.2647371616e+01     0.224261    0.2150756   6.72 0.0003399926    1.034    0.033
       184 -12.1574    111.0230     65.7767   5.6975895621e+01   4.7676106767e+01    0.4624743    0.3486916  -1.02  0.000288064    1.613    0.380
       185 -10.7306     60.4232     57.8223   7.1875630423e+01   5.8515051157e+01    0.4426847    0.3483743  12.71  0.002502363    1.282    0.220
       186  -9.9037     63.6689     70.6826   7.4796412158e+01   5.5396026144e+01    0.3221058    0.2409931  30.51  0.001124956    1.404    0.288
       187 -10.2289     60.5232     65.6262   7.4421601097e+01   5.6912203599e+01    0.4541932    0.3349763 -21.98  0.002004709    1.367    0.269
       188  -9.2022     55.1980     67.1880   7.7009864143e+01   5.7309311714e+01    0.1943652    0.1651277  -8.75 0.0004404173    1.150    0.130
       189 -10.6751     35.4238     67.8515   8.5223027562e+01   5.9412173825e+01    0.3727663    0.2506155 -69.17 0.0007602369    1.695    0.410
       190 -10.1945     35.2005     62.7545   8.3901406798e+01   6.0544298768e+01    0.4103161    0.2199469  19.27  0.002043957    2.085    0.520
       191  -9.4101     10.3609     66.5679   9.5319542908e+01   6.1580945989e+01    0.3599391    0.2183441  35.12  0.001857874    2.034    0.508
       192 -10.7342    179.3570     64.9334   4.0623206273e+01   3.1372153430e+01    0.6510792     0.423306 -54.12  0.002946733    1.686    0.407
       193 -11.7413     83.3274     63.6494   6.5254561983e+01   5.3627984029e+01    0.8397138    0.4970571  26.82  0.000248512    1.895    0.472
       194  -9.7098     71.4568     65.7836   7.0288384027e+01   5.5229557868e+01    0.3926704    0.3300329  -8.61  0.001267959    1.168    0.144
       195  -9.4148     67.0268     63.0485   7.1057620437e+01   5.6480677262e+01    0.2372766    0.1991091  30.87 0.0004117114    1.254    0.203
       196  -9.2519     48.7260     66.8493   7.9498429169e+01   5.8194612250e+01    0.2652969    0.1761303  37.55  0.001391987    1.712    0.416
       197  -9.0658     26.3125     65.8802   8.8496610297e+01   6.0653044006e+01    0.2190226    0.1753926  87.06  0.001305759    1.651    0.394
       198 -10.0961    162.5291     65.6030   4.4069478214e+01   3.5446927806e+01     0.432572    0.2384716  69.55  0.001663614    2.277    0.561
       199  -9.3443    120.9489     66.1965   5.4258872872e+01   4.5385669279e+01    0.3780224    0.1917235  38.05  0.001262576    2.123    0.529
       200 -10.0440     19.7233     64.4327   9.0914448779e+01   6.1470135475e+01    0.2716394    0.1794874 -63.71 0.0004656905    1.407    0.289
       201  -9.2549     22.1858     60.8402   8.8958924774e+01   6.2078314520e+01    0.2042884    0.1424817 -46.83 0.0002487566    1.166    0.143
       202  -9.1693      1.6620     64.5137   9.8507760908e+01   6.2460644422e+01    0.2097214    0.1302477 -61.27  0.001053741    1.266    0.210
       203  -8.3454    212.0207     63.9885   3.5107984276e+01   2.3650862672e+01    0.1651555    0.1538002 -69.34 0.0009638152    1.019    0.019
       204  -9.5271    142.5752     63.7573   4.7909949339e+01   4.0687316351e+01     0.215951    0.1408796 -46.77 0.0009471947    1.653    0.395
       205  -9.8129    126.0658     64.0414   5.2155093966e+01   4.4588434841e+01    0.2213941    0.2076734  25.16            0    1.032    0.031
       206  -9.1445    203.8801     63.1128   3.6077325012e+01   2.5694168852e+01    0.2141176    0.1752365 -62.68 0.0004265131    1.217    0.178
       207 -10.0834    193.8794     61.5105   3.7206863261e+01   2.8341054660e+01    0.6360443    0.3238187  53.73  0.002703936    1.951    0.487
       208 -10.8180    200.5823     54.9635   3.4445183518e+01   2.7695688713e+01    0.4311626    0.3295866  21.96  0.001677078    1.768    0.434
       209  -9.7649    201.5254     50.0223   3.3018724300e+01   2.8176702770e+01    0.2807552    0.2076084  67.45  0.001125123    1.335    0.251
       210  -9.5001    171.9815     62.9475   4.1424596142e+01   3.3521072688e+01    0.2699293    0.2234498  79.09  0.001378278    1.273    0.214
       211  -9.5775    168.1136     60.5882   4.1477144791e+01   3.4861098923e+01    0.2915124    0.2417981   0.36  0.001471307    1.455    0.313
       212 -10.1299    218.9926     58.9644   3.2904549406e+01   2.2791102600e+01    0.3313741    0.2402149 -31.46 0.0005938289    1.396    0.284
       213 -10.5794    222.2473     55.3052   3.1595297381e+01   2.2578400794e+01    0.2627487    0.2364845 -78.78 0.0002236161    1.064    0.060
       214  -9.3580     11.7390     59.9634   9.3273893941e+01   6.2961921206e+01    0.3210482    0.1459494 -16.84   0.00147121    2.843    0.648
       215  -9.4549      4.7723     59.6067   9.6206954591e+01   6.3403944866e+01    0.2279204    0.1067455  15.78  0.001196371    2.477    0.596
       216 -10.1408      9.1075     56.6174   9.3643112048e+01   6.3835860709e+01    0.3897968      0.20702 -27.92  0.001513525    1.877    0.467
       217 -10.4813    184.9772     54.9396   3.6858573414e+01   3.1516091063e+01    0.5731391    0.2639522 -33.53  0.001763336    2.186    0.543
       218  -9.0054    121.6973     58.9160   5.1625249316e+01   4.6488686098e+01    0.2048915    0.1883132 -26.05 0.0003514609    1.116    0.104
       219 -10.5714     95.4386     57.0660   5.8830551382e+01   5.2534852615e+01    0.4382212    0.4285718 -40.44  0.002546391    1.172    0.146
       220  -9.1824    213.8323     57.4008   3.3205887095e+01   2.4206284457e+01    0.2430889    0.1706917 -46.76 0.0007584078    1.333    0.250
       221 -11.0010    161.2489     55.2667   4.1232094576e+01   3.7410312395e+01    0.5113583    0.4482683  -5.72  0.001675679    1.293    0.227
       222 -10.5412     75.8473     31.9908   5.5927607362e+01   6.0443344138e+01     0.599789    0.3578384   3.17  0.002357606    2.366    0.577
       223 -10.5015     77.9809     55.3782   6.4272489157e+01   5.6155639897e+01    0.2772201    0.1970958 -38.20 0.0001339103    1.376    0.273
       224  -8.7744     83.5451    249.5068   9.9135609860e+01   1.2510645897e+01    0.1184386   0.09261441  52.56 0.0002327697    1.011    0.011
       225 -10.8737     84.7974     38.7878   5.5527559895e+01   5.7703393704e+01    0.3576156    0.2597072 -48.42 0.0002431598    1.703    0.413
       226 -10.8325     83.1483     31.4042   5.3095787180e+01   5.9121400124e+01    0.4908246    0.3468088   4.80  0.001188957    1.552    0.356
       227 -11.4429     90.9343     43.9301   5.5462312533e+01   5.5671610447e+01    0.2960288    0.2642362  -7.99 0.0002985954    1.079    0.074
       228 -10.2741     91.2869     40.2967   5.3941165505e+01   5.6168406980e+01     0.238256    0.1917495  15.28 0.0001670804    1.215    0.177
       229  -8.8879     69.3231     57.1107   6.8137862031e+01   5.7291158399e+01    0.1956565     0.160036 -37.64 0.0006892321    1.193    0.162
       230 -10.7206    246.0213     55.7036   2.8933360668e+01   1.7365304413e+01    0.2203251    0.1914584 -57.41 0.0002185885    1.018    0.018
       231  -9.2472    239.1446     55.9788   2.9748427716e+01   1.8770639989e+01    0.2031452    0.1694094 -53.00 0.0006917368    1.048    0.046
       232 -11.5312    175.2661     54.0500   3.8258582242e+01   3.4070283237e+01    0.5270182    0.4648847  67.47 0.0009252146    1.095    0.087
       233  -9.6688     26.8168     56.1835   8.5652604062e+01   6.2708259049e+01    0.2082408    0.1648432  -6.57 0.0005861431    1.282    0.220
       234  -9.9770     35.0903     51.4039   8.0489514008e+01   6.2931030316e+01     0.205696    0.1849499 -29.24 0.0004207426    1.124    0.111
       235 -10.7859     30.5673     53.3199   8.3125764516e+01   6.2976461572e+01    0.4400194    0.2944207 -55.79  0.001632399    1.441    0.306
       236 -10.7605     25.1865     49.7183   8.4467479330e+01   6.4192710320e+01    0.7199007    0.3450363 -21.16   0.00308664    2.660    0.624
       237  -9.1360     68.4475    248.9810   1.0197462783e+02   1.4601299896e+01    0.1518409    0.1061936 -79.67 0.0005283283    1.558    0.358
       238 -10.2309    149.2605     38.3066   3.8311975400e+01   4.2863738278e+01    0.3944791     0.255228 -36.58  0.000590539    1.624    0.384
       239  -9.2232    181.3035    247.3786   7.9673514242e+01  -1.6100285906e+00    0.1921843    0.1237518  10.48  0.001095783    1.701    0.412
       240 -10.9175    143.4475     41.9842   4.0692518981e+01   4.3825869854e+01    0.7228724    0.4729596  40.92  0.003391841    1.559    0.358
       241 -12.0418    140.2419     37.9106   4.0025537937e+01   4.5181789009e+01    0.3317744    0.2761131  48.68 0.0002381837    1.121    0.108
       242 -12.0669    117.9193     51.3078   5.0039899319e+01   4.8617096716e+01    0.3388902    0.2563416  44.43  0.000273379    1.250    0.200
       243 -11.1792    122.0017     48.8505   4.8089046888e+01   4.8050585968e+01    0.4129312    0.2941307 -43.03  0.001184172    1.526    0.345
       244  -9.2196     44.9385     52.7602   7.6596866828e+01   6.1570758167e+01    0.2976913    0.1723686 -59.19  0.001426549    2.085    0.520
       245  -9.5798    206.7014     52.0668   3.2828549874e+01   2.6648648294e+01     0.270647    0.2277622  42.73  0.001516861    1.359    0.264
       246 -10.7080    211.6276     49.4059   3.1497241451e+01   2.5859584043e+01    0.3149217    0.2544457  83.41 0.0007156409    1.229    0.186
       247 -10.4822    209.2850     43.4428   3.0297292784e+01   2.7228341344e+01    0.4431173    0.2230138 -48.46  0.001986286    1.937    0.484
       248  -9.6906     64.9373     52.0424   6.8030497617e+01   5.8950852833e+01    0.2052063    0.1804874 -17.83 0.0003383928    1.040    0.039
       249 -11.2022     17.5664     48.9429   8.7779309697e+01   6.4939561676e+01    0.4669449    0.2368681 -40.69 0.0009506056    1.615    0.381
       250 -10.2758      6.1596     49.8756   9.3347473297e+01   6.5429969531e+01    0.4532385     0.233997 -60.18  0.002406616    1.594    0.373
       251  -9.3087      9.7945     50.1273   9.1726423771e+01   6.5183250940e+01    0.1894961    0.1283038 -32.21 0.0003800923    1.285    0.222
       252  -8.4370      1.5600     51.4976   9.5845142316e+01   6.5298940324e+01    0.1213368   0.09122568 -47.64 4.308785e-05    1.022    0.021
       253  -9.0081    191.7964     50.3882   3.4534944634e+01   3.0493556444e+01    0.2076557    0.1229525  52.74 0.0009467309    1.699    0.411
       254 -11.2718    108.8359     43.3458   4.9721011867e+01   5.1925472128e+01    0.3930162    0.2459107  50.92 0.0002377178    1.536    0.349
       255 -10.4339    106.4140     48.6099   5.2354265556e+01   5.1646719675e+01    0.5531656    0.3256393  44.96  0.001388877    1.608    0.378
       256  -9.3009     55.2982     49.6730   7.1092761911e+01   6.0827602872e+01    0.2487804    0.1580206 -14.40 0.0006259848    1.833    0.454
       257 -10.2636    246.3306     47.9792   2.7192211211e+01   1.8353981717e+01    0.2532808    0.2184265 -32.41  0.001624199    1.248    0.198
       258 -10.4640    232.7225     48.2752   2.8695257907e+01   2.1221689735e+01    0.2857917    0.2031966  56.19 0.0002276737    1.550    0.355
       259  -9.4427    157.7165     39.1629   3.6972428681e+01   4.0608974570e+01    0.2668716    0.1897352  54.04 0.0003995179    1.316    0.240
       260  -9.7708    171.4226     48.9078   3.7442592778e+01   3.5788787871e+01    0.4367228     0.251969  61.84  0.001418668    1.665    0.399
       261 -12.4288    163.2768     42.5150   3.6987724016e+01   3.8746105024e+01    0.5144989    0.3753169 -57.96  0.002555422    1.516    0.340
       262  -8.6434     62.3485     48.5388   6.7772813182e+01   6.0002691547e+01    0.2310323    0.1191329 -41.33  0.001059958    1.842    0.457
       263  -8.6205    111.2986     48.7138   5.0969816394e+01   5.0541522480e+01    0.2159771    0.1446856 -36.68 0.0004072197    1.555    0.357
       264  -9.1008     37.9957     46.6272   7.7565470870e+01   6.3575834674e+01     0.337875     0.145222 -43.23  0.001228772    1.996    0.499
       265  -9.0936    228.1494     45.2574   2.8499691598e+01   2.2641240491e+01    0.2515096    0.1704499 -78.36   0.00133563    1.580    0.367
       266  -9.4174     73.3447     43.6518   6.1592492581e+01   5.9052054376e+01    0.3898518    0.2172217 -49.78  0.001734923    2.275    0.560
       267  -9.1525     67.1676     44.9762   6.4493048242e+01   5.9875182992e+01    0.1894848    0.1761426 -38.74 0.0003146194    1.276    0.216
       268  -9.5233     33.4954     43.3933   7.8505720744e+01   6.4681538103e+01    0.2587308    0.2050547 -54.65  0.001598108    1.420    0.296
       269 -10.3921     65.9361     25.3741   5.6832961109e+01   6.3192455006e+01    0.5595845     0.439956 -82.94  0.002829385    2.684    0.627
       270  -8.9709     66.4955     31.2042   5.9152096454e+01   6.2241266005e+01    0.3272924    0.2651149  77.07  0.001599559    2.201    0.546
       271 -10.4949     54.5032     36.8285   6.6473569899e+01   6.3253336033e+01    0.2656986     0.249212   2.74 0.0003259901    1.236    0.191
       272 -10.9240     56.7247     41.7548   6.7497601973e+01   6.2072637695e+01    0.2580913    0.2212916  -6.12 0.0002044643    1.018    0.018
       273  -9.7419     61.1815     41.3705   6.5489915970e+01   6.1462379743e+01    0.2774191    0.2039111  48.74 0.0006295062    1.736    0.424
       274 -11.8341     62.9877     37.3684   6.3139685405e+01   6.1851356887e+01    0.7137868    0.3793577  43.13  0.001564588    2.033    0.508
       275  -8.9827    218.3263     41.9441   2.8828837333e+01   2.5313901876e+01    0.1924792    0.1637701 -48.54  0.001056718    1.118    0.105
       276  -9.2860     98.6686     41.7389   5.2145171831e+01   5.4401581658e+01    0.3439361    0.2200385  64.88 0.0009337278    2.132    0.531
       277  -9.5978     28.1455     41.3458   8.0324538753e+01   6.5602445482e+01    0.2128671    0.1560362 -47.70 0.0003256869    1.292    0.226
       278  -9.9226    230.7314     39.6479   2.6912638995e+01   2.2808297347e+01    0.2641131    0.1838489 -49.05 0.0006476679    1.282    0.220
       279  -9.2073    113.6457     39.9870   4.7146905539e+01   5.1321586459e+01    0.2671026    0.1849412  40.29  0.001316512    1.361    0.265
       280  -8.8144     76.3875     40.1316   5.9063756600e+01   5.9087922836e+01    0.1930138     0.123849 -45.90 0.0009406575    1.818    0.450
       281 -10.8584    127.9241     37.4961   4.2640508943e+01   4.8276091387e+01    0.4400274     0.270071  61.48 0.0009463062    1.622    0.384
       282  -8.8705     44.3270     38.8617   7.1802465856e+01   6.4289099630e+01    0.1906213   0.09855793 -34.78 0.0003669118    1.780    0.438
       283  -9.8271      3.1405     37.8593   9.1617690668e+01   6.8056742602e+01    0.3283636    0.1634194 -18.88  0.001295481    2.090    0.521
       284 -10.6250    201.9290     37.3845   2.9682546200e+01   2.9787572304e+01    0.2459361    0.2189416 -72.23 0.0003285821    1.033    0.032
       285 -10.5353    194.7368     37.1249   3.0553541115e+01   3.1572514893e+01    0.2834944    0.2199702 -53.28 0.0005096531    1.256    0.204
       286  -9.8720    106.4399    244.8496   9.4200763485e+01   1.0088954787e+01    0.2660614    0.2101058  84.33  0.001247864    1.453    0.312
       287  -8.2402     21.5825    246.4468   1.1036614613e+02   2.0521815444e+01    0.1075348   0.07776143  64.99 0.0001227996    1.011    0.011
       288 -10.2583    166.1183    243.6208   8.2113866456e+01   1.2289125751e+00    0.1800964    0.1730911  43.56 0.0006797175    1.303    0.233
       289  -8.8046     92.7511    242.7933   9.6718881899e+01   1.2412926707e+01    0.1672439    0.1119068  55.53 0.0004611187    1.293    0.227
       290 -10.0319    159.1998    241.8555   8.3246321433e+01   2.5612453585e+00    0.2245114     0.157861 -82.19  0.001169721    2.794    0.642
       291  -8.8938     41.4886    242.0768   1.0654303666e+02   1.9141100912e+01    0.1512807   0.09746374 -85.80 0.0004794279    1.517    0.341
       292 -10.0357     47.3025     28.5966   6.6200667254e+01   6.5646661855e+01    0.3343948    0.2036353  29.40  0.000928626    1.613    0.380
       293  -9.6103    247.0000    241.0180   6.6625672933e+01  -9.9609012622e+00    0.1675375   0.05760507 -33.24 0.0006589299    2.935    0.659
       294  -9.3696     14.4739    238.2518   1.1123003696e+02   2.2739727281e+01    0.1654357    0.1265071  79.92 0.0006746548    1.159    0.137
       295  -9.1046    116.8565    236.8712   9.1213081065e+01   9.9214155539e+00    0.1722185    0.1261055  55.60 0.0003062953    1.289    0.224
       296 -11.4962     30.6012     31.0081   7.5236672585e+01   6.7281267804e+01    0.3915398    0.2770626 -55.48 0.0003135371    1.756    0.431
       297 -12.2671     34.7975     27.4583   7.1672798142e+01   6.7433077884e+01    0.3944372    0.2431724  15.18 0.0002648233    1.635    0.388
       298 -11.2794    246.8926     33.0700   2.3886917049e+01   2.0165419320e+01    0.5303798    0.2523486 -56.03  0.002075684    2.010    0.503
       299 -10.7774     82.4218     26.8863   5.1450665408e+01   5.9888639322e+01    0.3613732    0.3382212 -82.34  0.001197204    1.474    0.322
       300 -10.4646     18.2379     42.7046   8.5574477455e+01   6.6162974095e+01    0.2825952    0.2048039   6.37  0.001007174    1.449    0.310
       301  -9.1719     27.9661     36.7088   7.8745149148e+01   6.6503868420e+01    0.1739597    0.1387505  -7.36 0.0009541865    1.152    0.132
       302  -9.5542    115.1339     35.1919   4.4986137182e+01   5.1642287547e+01    0.2892872    0.1948249 -32.45  0.001096986    1.575    0.365
       303  -9.5980     12.1216     34.0554   8.5832847913e+01   6.8294492074e+01    0.3287582    0.2310999 -84.54  0.001854969    2.442    0.591
       304  -8.7639    185.5108     35.0293   3.1258248369e+01   3.4124135883e+01    0.2040423    0.1359598 -33.81  0.001018992    1.551    0.355
       305  -9.3555    106.7060     34.9652   4.7185842160e+01   5.3612411572e+01    0.2334149    0.1726014  27.52 0.0003948191    1.357    0.263
       306 -10.2386     97.0870     33.1530   4.9298115965e+01   5.5987769199e+01    0.2150382    0.1902804  20.80 0.0002577064    1.022    0.021
       307 -10.0378    119.4246    231.1693   9.0001277183e+01   1.0535703093e+01    0.2433456     0.174269  51.11 0.0005638873    1.257    0.204
       308  -9.9009    244.6079     18.8819   2.1037421158e+01   2.2347180300e+01    0.3241955    0.1996589 -82.17  0.001057713    1.586    0.369
       309 -10.0757    140.2765    227.5312   8.5156943766e+01   7.8858296036e+00    0.2618797    0.1886474  37.75 0.0009696772    1.160    0.138
       310  -8.5856    107.7288    225.3436   9.1762652023e+01   1.3398264088e+01    0.1290217    0.0878517  65.86 0.0003577048    1.614    0.380
       311  -9.6302     98.0648    225.0634   9.3779940513e+01   1.4903630422e+01    0.1977153    0.1637259  53.75 0.0004989406    1.027    0.026
       312 -11.6673    132.0845     29.5190   3.8914974519e+01   4.8281681324e+01    0.3535519    0.2888333 -35.76   0.00193851    1.331    0.249
       313  -9.0586     59.6568     32.0516   6.2291612069e+01   6.3245786025e+01    0.1875792    0.1497356 -17.09 0.0004720743    1.135    0.119
       314  -8.6852    201.0520     29.9607   2.7875610762e+01   3.0933026410e+01    0.2277701    0.1636421 -35.44 0.0009734981    1.423    0.297
       315 -11.6878    127.6266     51.8899   4.7684892406e+01   4.6241632136e+01    0.6666134     0.558829 -35.01   0.00215379    1.249    0.199
       316 -10.0698    124.0386     30.5436   4.1086974567e+01   5.0124219141e+01    0.2729328    0.2328596  55.65 0.0003874499    1.103    0.093
       317  -9.9700    179.8584     28.7341   3.0302768416e+01   3.6316833047e+01    0.3188619    0.2548238  63.68  0.001009783    1.178    0.151
       318  -9.5281    183.7269     25.5800   2.8894436708e+01   3.5721093445e+01    0.2667957    0.2132102  84.16 0.0009910673    1.170    0.145
       319 -10.5401    179.6220     21.6892   2.8357208461e+01   3.7193373514e+01    0.4134879    0.2581977 -70.12  0.001590685    1.822    0.451
       320  -9.4449    110.6982     29.3382   4.3955283398e+01   5.3440241091e+01    0.2796888    0.2254064  26.70 0.0009798339    1.208    0.172
       321  -9.7209    216.1968     29.0280   2.5933608989e+01   2.7451321701e+01    0.2781174    0.1791879  73.54  0.000729549    1.497    0.332
       322  -9.6976    206.9347     25.9222   2.6172852108e+01   3.0006235908e+01    0.2618805    0.1940395 -19.74 0.0007905843    1.628    0.386
       323  -9.2924    189.0228     25.9446   2.8305210606e+01   3.4361255423e+01    0.2016272    0.1831291  77.52 0.0003443225    1.066    0.062
       324  -9.4453    119.4996     26.2854   4.0607890978e+01   5.1738071325e+01    0.3020802    0.1618521  48.18   0.00100443    1.662    0.398
       325 -10.0730     73.5507     25.5566   5.4015573462e+01   6.1785836938e+01    0.4047177    0.2298751  30.47  0.001978036    1.741    0.426
       326  -9.2638     75.0983     21.1113   5.1495589910e+01   6.2078253497e+01    0.2840894     0.210369  -0.47  0.001442637    1.339    0.253
       327  -8.8641    221.3658     15.6837   2.2269399805e+01   2.7813962899e+01    0.1996854    0.1270625 -56.25 0.0003637773    1.430    0.301
       328  -9.6178    224.9848     23.0126   2.3634340932e+01   2.6155080490e+01    0.2337016    0.2115678  72.07 0.0003677619    1.219    0.180
       329 -11.0848     76.7404    219.9073   9.7754013843e+01   1.8961905672e+01    0.6734834    0.4228288  28.76  0.003230627    1.747    0.428
       330  -9.8004    212.0111     22.2294   2.4720977101e+01   2.9237669512e+01    0.2970232    0.1911945 -23.18  0.000999636    1.830    0.454
       331 -10.5073    164.4325     22.1492   3.0643752917e+01   4.0977889506e+01    0.4435602    0.2640119  36.51  0.001928338    2.049    0.512
       332  -9.5983    158.8189     22.9280   3.1756447145e+01   4.2316710714e+01    0.2545452    0.1791647  64.05 0.0006894917    1.279    0.218
       333  -9.8125     98.5561     23.3734   4.4946692671e+01   5.6928435803e+01    0.2445445    0.2371157 -61.60 0.0007338417    1.264    0.209
       334  -9.7015     63.7992     19.7574   5.5135165192e+01   6.4334930829e+01    0.2571433    0.2250811  74.47 0.0004158219    1.816    0.449
       335  -9.3461     51.2253     22.9661   6.1911779554e+01   6.5945409246e+01    0.2699761    0.1673973 -34.83 0.0007780478    1.585    0.369
       336 -10.2147     55.1006     19.2349   5.8483072150e+01   6.5871697523e+01    0.3066864    0.2090487  13.38 0.0007032627    1.409    0.290
       337 -11.0380     73.4761    214.1664   9.7874420681e+01   2.0568102154e+01    0.7187306    0.4137357  32.56  0.003817846    1.748    0.428
       338  -9.3391    109.5250    220.5346   9.0795076561e+01   1.4032644279e+01    0.1311135    0.1109829  48.22  0.000140622    1.002    0.002
       339  -9.5946    118.2498     19.3130   3.8312390868e+01   5.2829852243e+01    0.3809575    0.1921828  51.57  0.001725274    1.705    0.414
       340  -9.1798    249.0205     22.2160   2.1396974306e+01   2.1036548815e+01    0.1714678    0.1523407 -89.55  0.001192118    1.192    0.161
       341  -8.7075    187.9826     21.9241   2.7351235903e+01   3.5082575164e+01     0.198861    0.1555403  32.49 0.0006965623    1.589    0.371
       342  -8.6291    142.9659     21.7746   3.4110412089e+01   4.6460536071e+01    0.1939351    0.1053968  62.33 0.0008717325    1.645    0.392
       343 -10.3188     81.0056     19.8511   4.8896352879e+01   6.1071017407e+01    0.2536083    0.2195565 -31.45 0.0002859745    1.336    0.251
       344  -9.0555     80.5236     15.5283   4.7145621418e+01   6.1676440209e+01    0.2294688     0.178222  34.02 0.0009351571    1.118    0.106
       345  -9.4017     12.0271    216.8586   1.1063730701e+02   2.7093891100e+01    0.1819401    0.1256429  83.36 0.0003219609    1.183    0.155
       346  -8.6791    142.2403    215.0032   8.2942961280e+01   9.7899517549e+00    0.1540954    0.1156391 -49.86 0.0002984426    1.544    0.353
       347  -9.0268     91.3005    214.5865   9.4045123336e+01   1.7954980892e+01    0.2472099     0.103252  41.09 0.0006380125    2.015    0.504
       348 -10.4040    149.0013    210.6876   8.0815603223e+01   9.4395765596e+00     0.212961    0.1995682 -43.30 0.0003439128    1.229    0.186
       349 -10.2827     90.1820    204.6473   9.3115693735e+01   2.0160064194e+01     0.447965    0.2588486 -81.42  0.001708337    2.201    0.546
       350  -8.8439    131.5132     19.7104   3.5609315294e+01   4.9547917705e+01    0.2675495    0.1140938  61.88  0.001080299    2.106    0.525
       351  -9.6900    123.9877    206.0080   8.5646662502e+01   1.4538849934e+01    0.1910714    0.1684834  43.96  0.001145589    1.004    0.004
       352  -8.2822     74.6214    204.7048   9.6627063076e+01   2.2381053440e+01    0.1215349    0.1014774 -13.58 0.0007022363    1.751    0.429
       353 -10.7234      4.9698    202.4914   1.1126760219e+02   3.0656862487e+01    0.1849727    0.1245655  88.08  0.001265102    1.210    0.174
       354  -9.4272     41.9239    201.7578   1.0355349161e+02   2.7130964152e+01      0.19159     0.150622 -89.41 0.0003470766    1.155    0.134
       355  -9.9461    193.3848     16.9600   2.5393912113e+01   3.4302493891e+01    0.2385392    0.1751879  76.77 0.0003529472    1.237    0.192
       356 -10.0202    167.0360    198.1754   7.4809544061e+01   8.5927248898e+00    0.2070351    0.1906976  -3.32 0.0003035057    1.107    0.096
       357  -8.2638    152.4061    199.2236   7.8203705418e+01   1.0979593582e+01     0.142268   0.09919202  15.94 0.0006871158    1.659    0.397
       358  -8.9021    109.3621    185.9567   8.6037858388e+01   2.1141792234e+01    0.1873478    0.1757256  86.39 0.0004120454    1.093    0.085
       359  -9.4799      1.2989    184.4930   1.1105567496e+02   3.4778595549e+01    0.2967742   0.08431172 -78.76  0.001168395    2.928    0.658
       360  -8.2986    120.3456    185.7478   8.3364437678e+01   1.9324886794e+01    0.1452443    0.1021357  60.88 0.0003007734    1.584    0.369
       361  -8.2034     77.5038    185.5838   9.3692888774e+01   2.6162232449e+01    0.1353811    0.1186078  65.31 8.632726e-05    1.023    0.023
       362  -8.9270     34.7564    177.8045   1.0307656023e+02   3.3233120851e+01    0.1747222    0.1535547 -76.21 0.0005253951    1.182    0.154
       363  -9.3557     25.0157    173.9859   1.0503266491e+02   3.5077313869e+01    0.1808307    0.1495052  82.25   0.00120247    1.011    0.010
       364  -9.6724    102.2728    173.0077   8.5726188986e+01   2.5208449490e+01    0.2293745    0.1922238  44.34 0.0004277288    1.134    0.118
       365  -9.3732     68.0006    171.2076   9.4166946981e+01   3.0799365847e+01    0.2980122    0.1842216  26.00   0.00063597    1.873    0.466
       366  -8.8541     20.4554    170.4322   1.0581049129e+02   3.6313437850e+01    0.1215056     0.100983  87.49 0.0008047395    1.038    0.037
       367  -8.3281    141.6536     14.3023   3.1861836344e+01   4.7572615523e+01    0.2362627    0.1321122  69.12 0.0005634556    1.671    0.402
       368  -9.5068     29.4241    166.2807   1.0327947998e+02   3.6439127231e+01    0.2899333    0.1722617 -59.58  0.001591871    1.638    0.389
       369 -10.3086     10.7815    163.6234   1.0756479295e+02   3.8696924685e+01     0.268211    0.1497768  22.40  0.001498769    2.199    0.545
       370 -11.3164     20.7392    158.8595   1.0473821990e+02   3.8978590588e+01    0.6251824   0.09060748  39.86  0.002150632    4.591    0.782
       371  -8.8667    247.3055     13.3283   1.9666332364e+01   2.2411456793e+01    0.1073121   0.09218974  37.29 0.0004145015    1.653    0.395
       372 -10.3515      2.2508    153.5665   1.0886829906e+02   4.1645028938e+01    0.2200577    0.1655905  79.15 0.0003750297    1.131    0.116
       373  -9.2723     72.2765    149.4845   8.9823671299e+01   3.5426181276e+01    0.2419863    0.1827184 -65.08 0.0005204986    1.264    0.209
       374  -9.7455     23.8379    149.1601   1.0300137444e+02   4.1010119345e+01    0.1920703    0.1506798  84.76 0.0006753757    1.127    0.113
       375 -10.8346      6.0803    147.9017   1.0747856317e+02   4.2698047509e+01    0.3305129    0.1763148  48.42  0.001504126    1.892    0.471
       376 -10.8413      2.3983    143.5515   1.0806523108e+02   4.3963267919e+01    0.4961323    0.2099659 -81.05  0.002442376    1.979    0.495
       377  -9.2273    125.1447    147.3508   7.4985267994e+01   2.7010856306e+01    0.2339009     0.204626 -36.91 0.0003437589    1.196    0.164
       378 -10.9226     30.7519    147.0186   1.0092403524e+02   4.0899284561e+01    0.2482245    0.2050899  64.64            0    1.191    0.160
       379 -10.0784     11.9327    145.3811   1.0575577967e+02   4.2870808044e+01    0.2398115    0.1509062 -77.33 0.0006109092    1.312    0.238
       380 -10.4065     36.7900    141.4444   9.8585561637e+01   4.1670550136e+01    0.5293554    0.1725998 -55.05  0.001231397    2.713    0.631
       381 -10.8829     21.6297    141.9745   1.0283555328e+02   4.2923026910e+01    0.3657279    0.2482808  69.28 0.0003041205    1.476    0.322
       382 -10.1162     17.6942    140.6795   1.0376726894e+02   4.3551881398e+01     0.260909    0.1887778 -35.04  0.001552434    1.709    0.415
       383  -8.8177     56.5307    142.5183   9.3150866856e+01   3.9214665568e+01    0.1378244    0.1247429 -82.04 6.823857e-05    1.003    0.003
       384  -8.6014     19.0777     19.0559   7.6293973341e+01   7.0472664806e+01    0.1387629    0.1030086 -25.16 0.0003016481    1.065    0.061
       385  -9.7192     44.6810    141.5490   9.6375983567e+01   4.0824007320e+01    0.2352996    0.2105324 -40.73 0.0005755344    1.259    0.206
       386 -11.0756     28.7528    137.8728   1.0039630539e+02   4.3301667614e+01    0.4902636    0.2675658 -71.25  0.001306281    1.575    0.365
       387 -10.3895     33.2037    132.9738   9.8497733006e+01   4.4090319118e+01    0.3267097    0.2750345  43.06  0.001131357    1.298    0.230
       388 -10.8481     23.7675    125.2915   1.0026277263e+02   4.6792471113e+01    0.5507951    0.1852124 -60.47 0.0007114055    2.321    0.569
       389  -9.7577     34.5841    126.1579   9.7139502294e+01   4.5633631597e+01    0.2818147     0.167988 -37.54 0.0008047856    1.978    0.494
       390 -10.3796     26.8194    130.9321   1.0008732296e+02   4.5162766849e+01    0.3604923    0.2580058 -19.11  0.001453326    1.864    0.463
       391 -11.4043     29.1265    125.2009   9.8647693899e+01   4.6363701395e+01     0.463174    0.3510528 -57.08  0.001080564    1.208    0.172
       392  -8.4553     46.5397    136.9508   9.5183783224e+01   4.1751734500e+01    0.1919632   0.09026936 -46.34 0.0006800665    2.305    0.566
       393 -10.3834     12.9467    134.9955   1.0448263151e+02   4.5271213407e+01    0.2673786    0.2176426  68.54 0.0003823782    1.221    0.181
       394 -10.7802     17.0977    133.8240   1.0320449187e+02   4.5246339942e+01    0.4054073    0.2340707  89.08  0.001740104    1.680    0.405
       395  -8.8765      4.5270    131.4987   1.0645988978e+02   4.6668515334e+01    0.1554166    0.1070122  43.75 3.130775e-05    1.587    0.370
       396  -8.9564      1.3539    131.3202   1.0731154396e+02   4.6902978696e+01    0.2481146   0.05467669 -62.24 0.0009658312    3.091    0.676
