#   1 NUMBER                 Running object number                                     
#   2 MAG_AUTO               Kron-like elliptical aperture magnitude                    [mag]
#   3 X_IMAGE                Object position along x                                    [pixel]
#   4 Y_IMAGE                Object position along y                                    [pixel]
#   5 X_WORLD                Barycenter position along world x axis                     [deg]
#   6 Y_WORLD                Barycenter position along world y axis                     [deg]
#   7 A_WORLD                Profile RMS along major axis (world units)                 [deg]
#   8 B_WORLD                Profile RMS along minor axis (world units)                 [deg]
#   9 THETA_WORLD            Position angle (CCW/world-x)                               [deg]
#  10 FWHM_WORLD             FWHM assuming a gaussian core                              [deg]
#  11 ELONGATION             A_IMAGE/B_IMAGE                                           
#  12 ELLIPTICITY            1 - B_IMAGE/A_IMAGE                                       
         1 -15.1003     45.9120    207.3318   1.3558186152e+02   2.5553241836e+01     16.47962     6.821523  86.65   0.01116682    4.166    0.760
         2 -12.7306    199.7612     33.9338   6.2271699196e+01   3.1823756211e+01     1.090504    0.9751865  63.32  0.006640028    1.274    0.215
         3 -13.4027    215.9885     16.1946   5.6690867482e+01   3.0328012479e+01     1.120996    0.8439302  46.74  0.007053007    1.811    0.448
         4 -12.2478      2.6318     16.1581   1.1088495446e+02   7.0671824636e+01     0.927572    0.1918485 -46.82  0.003805789    4.508    0.778
         5 -10.8192    106.9800    243.6487   1.2668426207e+02   8.6199902457e+00    0.2478827    0.1921049 -86.42 0.0008193534    1.388    0.280
         6 -11.2024    139.0568    248.9592   1.2069238373e+02   2.3376693855e+00    0.3610969    0.3070022  55.78  0.002230741    1.133    0.118
         7  -9.5480     63.3994    250.4841   1.3621244631e+02   1.3774817453e+01    0.2539429    0.1062825  39.59  0.001133392    2.160    0.537
         8 -12.5409     34.1761    247.1272   1.4145276380e+02   1.8254084971e+01    0.9821469    0.5705817  33.70  0.005699872    2.000    0.500
         9 -11.6534     18.7843    233.3780   1.4331360630e+02   2.2895596423e+01    0.4667959    0.3144958 -74.54  0.002536208    1.387    0.279
        10 -12.4820      4.9842    226.6997   1.4542058264e+02   2.5744247280e+01     1.043272    0.5639173  76.23  0.006233542    1.546    0.353
        11 -11.1902     21.5519    245.1121   1.4360652180e+02   2.0140358010e+01    0.5282107    0.2541402  54.51  0.001892483    1.712    0.416
        12 -12.2494     11.4007    239.3914   1.4505529467e+02   2.2424044203e+01    0.7676633    0.4349165 -89.93   0.00391215    1.443    0.307
        13 -10.5651     16.5354    249.5562   1.4477927789e+02   1.9796658004e+01    0.3577504    0.2282891  56.08  0.001969948    1.298    0.230
        14 -10.3664      9.0320    250.1616   1.4611004123e+02   2.0484736675e+01    0.3647881     0.248072  38.77   0.00178526    1.690    0.408
        15 -11.2362      2.3957    247.7291   1.4710214037e+02   2.1656649348e+01    0.9894834    0.2651314 -76.60  0.004510587    3.144    0.682
        16 -10.3496     95.1356    242.1120   1.2896553748e+02   1.0808055191e+01    0.1866373    0.1801668  51.06 0.0007387664    1.240    0.193
        17  -9.5660    243.4953    249.4576   1.0011604518e+02  -1.3739413894e+01    0.1201553   0.09413569  -0.07 0.0001931228    1.019    0.019
        18 -13.6251     34.5063    218.1840   1.3904460196e+02   2.4444326882e+01    0.8899392    0.6978029  65.86  0.002691495    1.127    0.113
        19  -9.3136    228.0166    204.4656   9.4896091522e+01  -4.4341625963e+00    0.2856125    0.1803844 -54.07  0.001247224    2.024    0.506
        20 -11.2797     56.9543    193.3445   1.3147141616e+02   2.7461192037e+01    0.3722406    0.2638292 -44.62  0.001222342    1.727    0.421
        21  -9.1639    192.5052    193.9796   9.9924134717e+01   3.6504514200e+00     0.206172     0.128058 -67.51 0.0008097992    2.711    0.631
        22  -8.0555    181.7074    192.6651   1.0196533905e+02   5.9302990940e+00    0.1494848    0.1132853  -8.24 0.0006742921    1.639    0.390
        23 -11.4284     63.3716    185.7769   1.2894073692e+02   2.8440125709e+01    0.3070404    0.2567481 -47.15 0.0004590595    1.374    0.272
        24 -10.4950     74.1036    173.8341   1.2448081970e+02   2.9870073213e+01    0.2762082    0.2251246 -58.57 0.0003962942    1.198    0.165
        25 -12.9004     60.6380    171.2959   1.2754410847e+02   3.2402345177e+01    0.5727746    0.2881206 -45.49  0.001903757    2.300    0.565
        26 -11.4921     82.3302    165.1631   1.2087967995e+02   3.0790321751e+01    0.6568913    0.6087711  70.15  0.003705883    1.080    0.074
        27 -11.0179    246.1751    165.1360   8.3905719112e+01  -3.3533294802e-01    0.3749608    0.2190486 -17.37  0.001607262    2.587    0.613
        28 -12.3482     28.2561    225.5816   1.4092121028e+02   2.3523691890e+01    0.3237531    0.2896663 -73.38 0.0007727511    1.365    0.267
        29  -9.6640     95.6871    150.1514   1.1441076421e+02   3.2352958458e+01    0.3026591    0.2741025  37.80 0.0007140986    1.174    0.148
        30 -12.0816     67.5404    144.0628   1.2108803707e+02   3.8281339916e+01    0.8015446    0.5650254  73.37  0.003580596    1.760    0.432
        31 -11.1639     57.7880    133.2655   1.2185268026e+02   4.2259126914e+01     1.158981    0.4204577 -72.28  0.002881947    6.276    0.841
        32 -10.6894     98.9062    224.5439   1.2596316723e+02   1.3941937026e+01    0.4965897     0.103451  40.64  0.001518905    3.978    0.749
        33  -8.6656     98.8469    146.1602   1.1270940316e+02   3.2791936800e+01    0.2047012    0.1755978 -30.48  0.000249098    1.298    0.230
        34  -9.2231    108.4697    135.5420   1.0769508745e+02   3.3631708244e+01    0.3364491    0.2313169 -13.60  0.001342802    2.332    0.571
        35 -10.1947     95.2245    132.7170   1.1077940503e+02   3.6720599874e+01    0.2775741    0.2343205 -27.39 0.0003215536    1.310    0.237
        36  -8.6946    105.7898    122.9256   1.0544791993e+02   3.7134298135e+01    0.1990163    0.1853796 -56.47 0.0002299506    1.048    0.046
        37 -12.9586     10.1591    207.2313   1.4307948722e+02   2.9513574993e+01    0.8383152    0.6721845  52.25  0.002927125    1.334    0.250
        38 -11.6737     83.9917    148.8138   1.1737504605e+02   3.4627393493e+01    0.3234296    0.2560718 -45.84 0.0004412984    1.269    0.212
        39  -9.0688    204.1796    111.0718   7.9515325342e+01   1.8224465900e+01    0.2959774     0.184514  28.58  0.001177664    2.659    0.624
        40  -9.7373    167.6776    112.7027   8.7151824867e+01   2.6145288512e+01    0.3590033    0.2699809 -80.38 0.0007971351    1.655    0.396
        41  -9.5310    238.6588    108.6688   7.3401942112e+01   1.1440326321e+01    0.1318431    0.1093833  -2.30 0.0007051406    1.747    0.428
        42 -12.0908    242.6655     93.5101   6.9670731606e+01   1.3315711077e+01     0.385787    0.3636622 -41.55  0.002463215    1.260    0.206
        43  -9.0023    159.5093     78.4992   8.0036520492e+01   3.4627246276e+01    0.1473145    0.1391547  80.26 -0.000114661    1.002    0.002
        44  -8.2536    184.6509     77.6778   7.4986103854e+01   2.8832516377e+01    0.1442083    0.1147644  24.10 0.0007048937    1.744    0.427
        45 -10.7023     12.9479     61.1771   1.2092260945e+02   6.2498408975e+01    0.2748438    0.1325523 -48.86   0.00125527    1.633    0.388
        46 -11.5783      9.1013     60.2533   1.2222528448e+02   6.2929857473e+01    0.4299539    0.1061023 -51.75  0.001860754    2.770    0.639
        47 -11.0432      2.2882     51.5073   1.2270225065e+02   6.4965424661e+01    0.3713076     0.113825 -58.30  0.001664947    2.991    0.666
        48 -11.2555     93.3573    249.5189   1.3017785242e+02   9.5839586638e+00    0.4137023    0.3158704  60.33  0.002526682    1.122    0.109
        49  -9.8184    207.9776    246.5292   1.0629874374e+02  -8.3349477714e+00    0.1907803    0.1109891  33.92 0.0005219342    1.559    0.358
        50 -10.6026     20.6492     27.2857   1.0665211244e+02   6.7573541596e+01     0.223538    0.1890715  17.52 0.0008188824    1.425    0.298
        51 -10.4946     17.0266     25.5273   1.0763053127e+02   6.8164693335e+01    0.2013832    0.1669213  26.67  0.001091438    1.593    0.372
