#   1 NUMBER                 Running object number                                     
#   2 MAG_AUTO               Kron-like elliptical aperture magnitude                    [mag]
#   3 X_IMAGE                Object position along x                                    [pixel]
#   4 Y_IMAGE                Object position along y                                    [pixel]
#   5 X_WORLD                Barycenter position along world x axis                     [deg]
#   6 Y_WORLD                Barycenter position along world y axis                     [deg]
#   7 A_WORLD                Profile RMS along major axis (world units)                 [deg]
#   8 B_WORLD                Profile RMS along minor axis (world units)                 [deg]
#   9 THETA_WORLD            Position angle (CCW/world-x)                               [deg]
#  10 FWHM_WORLD             FWHM assuming a gaussian core                              [deg]
#  11 ELONGATION             A_IMAGE/B_IMAGE                                           
#  12 ELLIPTICITY            1 - B_IMAGE/A_IMAGE                                       
         1 -14.0238    205.8401     31.2775   4.6889054761e+01   2.9593941104e+01    0.9525881    0.7760491 -51.66  0.003879482    1.175    0.149
         2 -12.9019    213.8113     24.1200   4.4065565003e+01   2.8487227869e+01    0.5809993    0.4294821  27.35  0.001188657    1.866    0.464
         3 -14.0680    223.1901     13.6362   4.0476227038e+01   2.7415918614e+01    0.7886825    0.7059237 -56.50  0.002772137    1.117    0.105
         4 -13.6631     97.0944    245.3330   1.1538655689e+02   1.2062729998e+01    0.8178968    0.2987809  35.96   0.00365011    2.828    0.646
         5 -14.6779    111.8531    247.6679   1.1292782373e+02   9.4796989935e+00      2.38044     0.532212  35.60  0.006201578    7.933    0.874
         6 -14.1062     78.2624    249.2057   1.1908643435e+02   1.4077768033e+01     1.451157    0.3724404  37.30  0.005687336    3.927    0.745
         7 -12.4616     70.7081    243.2922   1.1994631545e+02   1.6119005378e+01    0.3887013    0.1826395  60.13  0.002162388    1.877    0.467
         8 -10.8561     52.9580    250.5568   1.2352550012e+02   1.7152000438e+01    0.1561152   0.08339379  46.00 0.0002813282    1.511    0.338
         9 -13.0874     91.2591    232.7959   1.1526137642e+02   1.5098749089e+01     0.675239    0.2960012 -79.30  0.002124429    3.531    0.717
        10 -14.2697      4.7837    187.8953   1.2828886741e+02   3.4392932911e+01      2.16409    0.4762106 -78.86  0.008627878    3.809    0.737
        11 -14.8894     24.1662    224.7954   1.2687210005e+02   2.5145771433e+01     1.629104    0.6084316  62.45  0.001185683    2.324    0.570
        12 -13.7023     28.0592    215.4449   1.2561738773e+02   2.6529279430e+01     0.777409    0.3084365  84.69  0.002496973    2.697    0.629
        13 -14.8426      9.3639    207.3717   1.2852411881e+02   3.0015176366e+01     1.075423    0.8485834 -87.10  0.004009362    1.263    0.208
        14 -13.4077     37.0510    209.6432   1.2355222886e+02   2.6685062945e+01    0.4752303    0.4187176  16.53  0.001763372    1.781    0.439
        15 -16.4157     45.3567    199.4207   1.2112309550e+02   2.7816823093e+01     8.931331      3.25444  70.59   0.03100968    4.722    0.788
        16 -12.5885     48.3042    224.2325   1.2252575564e+02   2.2492978986e+01    0.3242673    0.2191711  88.89 0.0002883186    1.303    0.232
        17 -12.4020     45.1518    219.8386   1.2278241343e+02   2.3721338905e+01    0.2889223    0.2173935 -53.82  0.001590756    1.860    0.462
        18 -14.8773     11.2506    232.6025   1.2945330657e+02   2.5027780179e+01     3.076108    0.4308367  55.22   0.01180191    4.840    0.793
        19 -11.8854    248.9318    240.1923   8.7072680948e+01  -1.0716759751e+01       0.3469    0.2098968  22.96  0.002237517    1.325    0.245
        20 -12.0838    229.2860    231.5110   8.9027319241e+01  -6.8813442800e+00    0.4513961    0.2942852  12.87  0.001962756    1.432    0.301
        21 -13.8091    248.0769    225.7734   8.4803503338e+01  -8.9710812985e+00     1.071189    0.6928689   1.86  0.005538641    1.449    0.310
        22 -14.1028    125.7454    229.2857   1.0824692956e+02   1.0377648157e+01     1.180833     0.538474  63.15  0.004460851    3.850    0.740
        23 -12.1660     16.4615    191.4656   1.2624775345e+02   3.2584895663e+01    0.2065648    0.1543222  77.21 0.0006988037    1.029    0.028
        24 -12.6787    233.3275    202.7999   8.3270570459e+01  -3.7854249960e+00    0.8978721    0.5015702  17.01  0.004400057    2.075    0.518
        25 -14.8621    244.3516    188.0216   7.8499963869e+01  -3.5272541034e+00     2.951739     1.022906 -35.49   0.01224319    2.797    0.642
        26 -12.2697     63.3172    181.3882   1.1552605128e+02   2.9453967054e+01    0.3948282    0.2608557 -41.67  0.001697649    2.185    0.542
        27 -11.9244     68.3642    175.7305   1.1370875292e+02   3.0040052191e+01    0.2912967    0.2492598 -54.00 0.0008287152    1.380    0.275
        28 -14.0295    240.8441    219.5409   8.4965447288e+01  -7.1536563676e+00     1.207614    0.7270449  -8.30   0.00684835    1.776    0.437
        29 -10.0230    194.2680    167.4292   8.3742377516e+01   8.9430729168e+00    0.1999631     0.135292  51.68 0.0009470465    1.599    0.375
        30 -13.8339     82.0981    158.4694   1.0800363322e+02   3.2036338591e+01     1.521483     0.758984  56.07  0.003164779    2.268    0.559
        31 -13.7973     68.2153    144.2518   1.0928011626e+02   3.7416956195e+01    0.8178431    0.5312995  83.31  0.002972111    1.783    0.439
        32 -13.3903    206.1306    155.6850   7.8831062637e+01   8.6578052115e+00     1.223016    0.8389824 -27.77  0.005965614    1.483    0.326
        33 -13.4509     65.2450    161.8015   1.1262781815e+02   3.3662145384e+01     0.486838    0.2886651 -48.41   0.00166176    1.945    0.486
        34 -11.8599     53.8397    231.2825   1.2204092517e+02   2.0479096846e+01    0.1938522    0.1272192  81.52 0.0005616422    1.328    0.247
        35 -14.9687      6.2011    245.6143   1.3081239851e+02   2.3215606400e+01     1.512146    0.7493591  46.97  0.001789476    1.634    0.388
        36 -10.7083     99.7133    143.1257   1.0081214019e+02   3.2806825625e+01    0.4924344    0.2956237 -28.53  0.001892978    2.875    0.652
        37 -12.3760     86.9157    142.8053   1.0411083026e+02   3.5000382945e+01    0.2871906    0.2632544 -40.47 0.0004385663    1.239    0.193
        38 -11.6744     77.8268    165.6956   1.1013662560e+02   3.0991215341e+01    0.2546113    0.2231361 -74.19  0.000374146    1.123    0.109
        39 -10.1671    105.9964    131.0192   9.6644159585e+01   3.4554826795e+01      0.24723    0.1829391  81.03  0.001140464    1.694    0.410
        40 -10.8954     96.9410    128.4775   9.8558204668e+01   3.6766102783e+01    0.2659101    0.2122845 -32.91 0.0008005867    1.447    0.309
        41 -10.0708    109.9270    132.0485   9.5816538596e+01   3.3588185644e+01    0.2722814    0.2044524  23.36  0.000969518    1.634    0.388
        42  -9.9186    106.8241    120.2107   9.3957266523e+01   3.6945554541e+01    0.1969364    0.1732325 -24.84 0.0003085225    1.277    0.217
        43  -9.5264    168.3612    113.6559   7.6658397144e+01   2.5131864374e+01    0.1679357    0.1267476 -81.92 -6.36205e-05    1.842    0.457
        44  -9.4956    205.4987    110.4470   6.8167639494e+01   1.7053085746e+01    0.1512833    0.1453412 -27.21 0.0006098486    1.006    0.006
        45 -13.7409     37.6209    225.0192   1.2451338586e+02   2.3610612716e+01     1.431758    0.9054385 -28.05  0.005781905    6.820    0.853
        46 -10.2472     13.5008     59.9928   1.1046108744e+02   6.2613654838e+01    0.1818167   0.09633314 -61.06 0.0004207494    1.512    0.339
        47 -11.2041    140.0129     45.6148   6.2547229975e+01   4.4551560417e+01    0.3494224    0.2507455 -81.53  0.001209761    1.974    0.493
        48 -13.5932    197.9723     37.6982   4.9685100087e+01   3.0757146738e+01    0.7071429    0.5481182  59.33  0.002233069    1.281    0.219
        49 -12.8162     64.8807    240.7266   1.2077915475e+02   1.7344431082e+01    0.4261538    0.2560727 -57.21  0.001874915    2.154    0.536
        50 -12.2900    239.5742    240.5077   8.8709003637e+01  -9.4404665874e+00    0.5132538    0.2542008  20.37  0.002745876    2.045    0.511
