#   1 NUMBER                 Running object number                                     
#   2 MAG_AUTO               Kron-like elliptical aperture magnitude                    [mag]
#   3 X_IMAGE                Object position along x                                    [pixel]
#   4 Y_IMAGE                Object position along y                                    [pixel]
#   5 X_WORLD                Barycenter position along world x axis                     [deg]
#   6 Y_WORLD                Barycenter position along world y axis                     [deg]
#   7 A_WORLD                Profile RMS along major axis (world units)                 [deg]
#   8 B_WORLD                Profile RMS along minor axis (world units)                 [deg]
#   9 THETA_WORLD            Position angle (CCW/world-x)                               [deg]
#  10 FWHM_WORLD             FWHM assuming a gaussian core                              [deg]
#  11 ELONGATION             A_IMAGE/B_IMAGE                                           
#  12 ELLIPTICITY            1 - B_IMAGE/A_IMAGE                                       
         1 -10.4153     10.5072     18.6763   1.1170486120e+02   6.9571393697e+01     1.165159     0.439632 -14.78  0.003599619    7.803    0.872
         2 -11.0798     36.6384     39.3499   1.0790312546e+02   6.4016872537e+01    0.7810189    0.5339977  -9.69  0.001042417    1.329    0.247
         3 -10.8760     23.2717     34.2857   1.1174439977e+02   6.6156765229e+01    0.7404583    0.3956936  13.93  0.004014502    1.917    0.478
         4  -9.9796     27.7712     22.9949   1.0548165131e+02   6.7374779753e+01    0.8165214    0.3823296  -6.49  0.003560232    3.590    0.721
         5 -10.2248     64.4893     12.9916   8.6867139704e+01   6.3532228685e+01    0.3515267    0.2900767 -13.64  0.001514534    1.291    0.226
         6  -9.7933     63.3288     21.7488   9.0802858435e+01   6.2775238946e+01    0.4628037    0.2525261 -45.56  0.002017001    2.837    0.648
         7  -9.4424     47.1904     19.4295   9.5884310464e+01   6.5466419458e+01    0.5144089    0.2298689 -13.92  0.002192688    3.478    0.712
         8 -10.0040     52.0520     13.4699   9.1520370958e+01   6.5446935829e+01    0.5604521    0.2806075  29.20  0.003121267    1.805    0.446
         9  -9.2850     73.5814     19.7319   8.6545104068e+01   6.1271536001e+01    0.2561988    0.2047267 -41.64 0.0007779392    1.680    0.405
        10  -9.2364     73.6568     13.1973   8.3952989287e+01   6.1929373302e+01    0.4238395    0.1936669  -7.31  0.001822378    3.375    0.704
        11 -10.9962    248.6855     11.4397   5.5046437289e+01   2.2988219543e+01    0.6393529    0.3626527 -32.01  0.003643378    2.208    0.547
        12  -8.7858     96.8243     12.3104   7.7049099546e+01   5.7565454055e+01    0.3057341    0.1544973  18.99  0.001372667    2.775    0.640
        13  -9.7324      2.2868     14.3386   1.1400379350e+02   7.0795033661e+01    0.3969453    0.2043513 -53.60  0.002198815    2.740    0.635
        14 -10.6476      5.6052      4.5661   1.0823017613e+02   7.1852406604e+01    0.5387796    0.3327948  22.93  0.001710386    1.675    0.403
        15  -9.7320     19.7299      8.9584   1.0325150482e+02   7.0021645034e+01    0.3660015    0.2880202   3.33  0.001970018    1.213    0.175
        16 -10.3708     18.2379      3.9863   1.0172558019e+02   7.0761487445e+01    0.6919807     0.586316 -89.39  0.003799676    5.026    0.801
        17  -9.5507    125.0671     13.5678   7.1095998457e+01   5.1341566478e+01    0.3270133    0.1980251 -40.00  0.001153572    1.971    0.493
        18 -10.7508     37.2048      9.6883   9.5796065788e+01   6.7923242568e+01    0.6777476    0.2223111 -36.60  0.002805621    3.272    0.694
        19  -9.4587     85.2813     13.0672   8.0430912707e+01   5.9786161929e+01    0.3174392    0.2232185 -57.15  0.001629351    2.427    0.588
        20  -9.9631     31.4032     12.9529   9.9703352210e+01   6.8262445241e+01     0.309595    0.1975737 -38.56  0.001422347    1.884    0.469
        21  -8.3700    141.7214     12.4264   6.7662495049e+01   4.7598776511e+01    0.2092881    0.1502257 -45.16  0.000633857    1.629    0.386
        22  -8.0716    133.8975     12.5034   6.9074259588e+01   4.9415493282e+01    0.1991265    0.1691107 -75.44 0.0009249352    1.364    0.267
        23  -8.1517     80.6711     12.6694   8.1611488580e+01   6.0697871433e+01    0.2157019    0.1314978 -45.63  0.001151359    2.463    0.594
        24  -9.0751    114.0119     10.1273   7.2268703158e+01   5.4112731180e+01    0.2637069    0.1570891  36.73 0.0003170652    1.596    0.373
        25  -8.8725    126.9864      9.0681   6.9306237051e+01   5.1305067571e+01    0.2078317    0.1230392  39.25 0.0004167231    1.645    0.392
        26  -9.1417    101.9978      8.4132   7.4390702260e+01   5.6835154416e+01    0.2032554     0.166454 -45.26 0.0006050428    1.575    0.365
        27  -8.4862     72.3771      8.6976   8.2561355342e+01   6.2581793691e+01    0.1543676     0.101014  -2.40 0.0004795431    1.581    0.367
        28  -8.5612     68.2045      9.2126   8.4093739056e+01   6.3267816883e+01    0.1426385    0.1323678  27.74 0.0004101142    1.325    0.245
        29  -7.5785    131.0000      6.9663   6.7914744642e+01   5.0567232375e+01    0.1837214   0.07382557 -22.96 0.0008113704    3.005    0.667
        30  -7.7232    110.2863      7.6443   7.2242220103e+01   5.5134226324e+01    0.1162867   0.09377299 -71.50 0.0002965715    1.672    0.402
        31  -9.0733    114.9967      4.1969   7.0099501888e+01   5.4386145286e+01    0.2411235    0.1774661  74.45  0.000784323    1.433    0.302
        32  -8.5018    111.3353      4.3365   7.0903591583e+01   5.5174412060e+01    0.2189545    0.1169347  29.28 0.0008944524    2.094    0.522
        33  -8.8254     97.5499      5.9580   7.4583023939e+01   5.7962148981e+01    0.2529827    0.1511863  34.14 0.0008685626    1.522    0.343
        34  -8.2301     95.9828      3.2403   7.3982831400e+01   5.8499692021e+01    0.1766321    0.1303783  47.75 0.0004171623    1.109    0.098
        35  -9.3635     78.0234      4.1691   7.9071462913e+01   6.1943155987e+01    0.3848104    0.2187472  -0.68  0.001538117    2.040    0.510
        36  -8.6248    125.5305      5.4229   6.8440392731e+01   5.1939822419e+01     0.290659    0.1384157  35.92  0.001360289    2.334    0.571
        37  -9.0185     89.8834      4.1196   7.5824402368e+01   5.9661153941e+01    0.4310526    0.3116499 -76.28  0.002410473    2.490    0.598
        38  -9.6073     63.8357      2.9436   8.2928745613e+01   6.4576890598e+01    0.2738407    0.2142149 -42.68  0.001637578    1.902    0.474
        39  -9.3090    210.4920      3.9864   5.6797164444e+01   3.2180426670e+01    0.2723843    0.1098814 -72.86  0.001044028    3.551    0.718
        40  -8.7305    104.3795      2.3810   7.1738577964e+01   5.6816998378e+01    0.2413979    0.1488587  28.48  0.001231516    1.640    0.390
        41  -8.2936    136.2508      1.5913   6.5397366480e+01   4.9795876255e+01    0.1856265   0.09199733  56.86 0.0004968155    1.582    0.368
        42 -11.4347    121.0421    110.3519   1.0151124930e+02   3.6881810733e+01       1.4141     0.562015 -46.31   0.00466844    2.509    0.601
        43 -10.6249      8.0481    239.9505   1.4816875838e+02   2.3361062734e+01     0.935906    0.3619154 -55.42  0.004418877    3.862    0.741
        44 -12.6908     38.1714    246.8396   1.4338259854e+02   1.8568338961e+01     2.203344    0.5872805  40.29  0.009663921    3.129    0.680
        45 -10.0600    127.8999    102.9527   9.7656488842e+01   3.7007505809e+01    0.4522532     0.396666 -62.99  0.001100633    1.225    0.183
        46  -9.8494    139.4739     93.2803   9.1972236540e+01   3.6387232943e+01    0.6003663     0.399848 -86.01  0.001526815    2.684    0.627
        47 -11.0283    133.8058    109.3261   9.7810844428e+01   3.4356499802e+01    0.9128765    0.4145498 -47.07  0.002783466    2.240    0.554
        48 -10.8163    139.4466    103.1759   9.4701825844e+01   3.4390825887e+01     0.773752    0.4142509 -41.49  0.002028762    1.906    0.475
        49 -10.1975     78.0438    113.0630   1.1480402485e+02   4.4147800342e+01    0.4924302    0.3297239 -78.57  0.001639705    2.129    0.530
        50  -7.5598    167.3066    113.6980   9.0792636721e+01   2.5724569704e+01    0.1597422    0.1242642 -84.26 0.0002513451    1.598    0.374
        51 -10.6470     63.0275     95.8847   1.1531561660e+02   5.0171550108e+01    0.8785105    0.5429358 -88.38  0.001703353    4.088    0.755
        52 -10.5046     65.3873    111.1362   1.1826961932e+02   4.6434407601e+01    0.7567391    0.5031224 -70.64  0.002436957    1.757    0.431
        53  -9.6443     59.0900    109.5813   1.1989178402e+02   4.7624165698e+01    0.2574322    0.1840778 -71.82 0.0007118765    1.571    0.364
        54  -8.4831    158.5294    111.9378   9.2360503806e+01   2.8152617841e+01    0.2341977    0.1557941 -43.46 0.0004203958    1.514    0.340
        55  -9.0352     14.2601    111.5114   1.3422399036e+02   5.1548543071e+01    0.2874166     0.178557  83.56  0.001540096    2.070    0.517
        56  -8.1971    202.6999    111.0342   8.2839268159e+01   1.7958703115e+01    0.2240623     0.192502 -48.67   0.00116037    1.120    0.107
        57 -10.0747     91.9438    113.2540   1.1064136000e+02   4.1822523107e+01    0.5443214    0.3789185 -80.46  0.001798175    2.108    0.526
        58 -11.0918     44.4823    102.3159   1.2294543997e+02   5.0988235518e+01    0.7983075    0.4686852  68.35   0.00279149    3.474    0.712
        59  -8.2411     40.0110    107.2568   1.2544338254e+02   5.0336369327e+01    0.1758275    0.1592671 -47.90 0.0003805642    1.060    0.056
        60 -10.8321     20.7688     99.9982   1.3017445094e+02   5.3661777073e+01     1.181679    0.5614229 -79.63  0.004070473    3.134    0.681
        61 -10.4541    246.6680    102.3371   7.3673921086e+01   9.9747137803e+00    0.5156541    0.3038262 -75.85    0.0021833    2.621    0.618
        62  -8.1675     78.4544    105.0381   1.1269573602e+02   4.5906395738e+01    0.2970313    0.1744909  -8.51  0.001037984    3.556    0.719
        63  -8.7275    166.0583    104.1558   8.8610062898e+01   2.7967926980e+01     0.282396    0.2174799  79.98 0.0004727746    1.544    0.352
        64  -8.7218     92.0013    103.8180   1.0819581875e+02   4.3929436560e+01    0.3271883    0.2633436  -2.41  0.001658644    1.458    0.314
        65  -9.1998      6.3059    103.6077   1.3537031953e+02   5.3828478101e+01    0.2389195    0.1687005  77.93 0.0008842913    1.752    0.429
        66  -9.4828     81.5189    100.3376   1.1051815113e+02   4.6459710014e+01    0.3851846    0.2743074 -74.28  0.001055813    1.945    0.486
        67  -8.3221    159.0296    101.0536   8.9385944247e+01   3.0262096583e+01     0.242251    0.1869027 -76.83 0.0005014168    1.593    0.372
        68  -9.6894    130.5016     96.8364   9.5276825511e+01   3.7701114194e+01    0.5324541    0.2929356  27.60  0.001887905    2.730    0.634
        69  -9.3488     94.2977     97.3352   1.0574537517e+02   4.4925039258e+01     0.304074    0.2372789 -65.93 0.0006498852    1.531    0.347
        70 -10.4481     34.4049     90.4109   1.2362051053e+02   5.4615347850e+01    0.6982926    0.2612706 -61.65  0.002415716    2.682    0.627
        71 -10.4010     37.3470     80.7281   1.2024578424e+02   5.6376467326e+01    0.5409361    0.2772037 -14.73  0.002302919    3.081    0.675
        72  -8.5591    164.2124     94.1573   8.6380410422e+01   3.0373990889e+01    0.2221916    0.2178185   4.20 0.0007840607    1.106    0.096
        73 -10.2145    123.3921     91.7048   9.5734123474e+01   4.0292228195e+01    0.5015997     0.464536  13.80   0.00125653    1.112    0.100
        74  -9.5887    149.5062    103.4316   9.2271720230e+01   3.2022832432e+01    0.3795058    0.2922808 -61.72 0.0009710554    1.448    0.309
        75 -10.1516      4.4661     89.8815   1.3362418091e+02   5.6920295654e+01    0.4868535    0.2585679 -83.15  0.001931374    2.440    0.590
        76  -9.1593    157.3114     91.2675   8.7146660875e+01   3.2584374680e+01    0.3297772    0.2162867 -35.80  0.001322722    1.625    0.385
        77  -8.7738     95.9741     91.0293   1.0346477748e+02   4.5939401326e+01    0.4202269    0.2587795  -5.70  0.001548716    3.067    0.674
        78  -9.3798    111.3624     89.8704   9.8569315801e+01   4.3188114488e+01    0.6957027     0.296389  31.83  0.002231064    3.392    0.705
        79 -10.8690     48.4157     82.7033   1.1684347253e+02   5.4789738903e+01     1.122389     0.450567 -48.36  0.002916554    2.126    0.530
        80  -9.4618     58.6592     77.6417   1.1184806212e+02   5.4554785064e+01    0.3113992    0.2410075  69.65   0.00165799    2.081    0.520
        81 -10.4382    149.9117     80.9326   8.5982637497e+01   3.6274383572e+01    0.5768608    0.2696805 -41.87   0.00139626    2.204    0.546
        82  -8.9870    163.4863     87.4531   8.4739361626e+01   3.1814727492e+01     0.267093    0.1369782 -50.75 0.0009138699    2.174    0.540
        83 -10.1701     85.2646     86.4830   1.0550103833e+02   4.8762506575e+01    0.4151139    0.3350775 -81.28 0.0009257997    1.762    0.432
        84  -9.5807     88.1856     78.3613   1.0216708124e+02   4.9858914837e+01    0.6610213    0.3507723  20.94  0.001895049    2.840    0.648
        85 -10.5405    140.5353     83.9314   8.9068749905e+01   3.7933988847e+01    0.9015836    0.3656609 -35.75  0.002423458    2.754    0.637
        86  -9.2758    139.9850     75.9332   8.6899596726e+01   3.9511733895e+01    0.3209184    0.2706074 -67.05 0.0007662891    1.355    0.262
        87  -9.0819     65.6707     85.4159   1.1163740581e+02   5.2026337045e+01     0.574652    0.3030184   4.66  0.001954359    4.234    0.764
        88  -9.0008    177.9872     85.4405   8.1195329747e+01   2.8657158142e+01    0.2678903     0.217782 -43.72 0.0002451915    1.254    0.202
        89 -10.1163    242.7645     84.2870   7.0348401953e+01   1.3864294431e+01     0.248451     0.188206 -47.17  0.001395827    1.204    0.170
        90  -8.5725    126.4032     83.6022   9.2585506579e+01   4.1206035417e+01    0.5225026    0.2825052  19.11  0.001461802    4.944    0.798
        91 -10.2593    103.9486     82.7971   9.8658671063e+01   4.6063983109e+01    0.4598447     0.293582 -51.69 0.0008049461    1.753    0.429
        92  -9.5242    105.0411     71.6361   9.4936353745e+01   4.7919025085e+01    0.7036098    0.3150049 -25.88  0.002330503    3.628    0.724
        93  -8.2177    170.6034     83.8066   8.2255093746e+01   3.0751900443e+01    0.2142674    0.1380872 -51.18 0.0008813991    1.635    0.389
        94  -9.1711    157.7406     83.8520   8.5020593551e+01   3.3865821003e+01    0.3020838    0.2032349 -51.21 0.0006669712    1.589    0.371
        95 -10.4611    157.0399     75.3956   8.2831735745e+01   3.5539093945e+01    0.7297251    0.2634995 -43.21  0.002495139    2.876    0.652
        96 -10.0241    156.7625     69.2105   8.1160661967e+01   3.6653298561e+01    0.4783376    0.3081864 -15.28  0.002014264    2.295    0.564
        97  -9.7961    157.5383     63.4768   7.9386242677e+01   3.7393111309e+01    0.3759701    0.2114035 -47.34 0.0009278435    1.938    0.484
        98 -10.0059     20.8986     83.7168   1.2678609039e+02   5.7173195620e+01    0.4456548    0.1447312 -57.36  0.001439246    2.408    0.585
        99 -10.6331     25.8043     78.1917   1.2375970075e+02   5.7938004163e+01    0.6369492     0.422024  81.04   0.00209914    2.950    0.661
       100  -9.5275    165.9555     80.2723   8.2270231302e+01   3.2517004833e+01    0.5123114    0.2512826 -22.68  0.001627614    3.746    0.733
       101 -10.5041    150.2335     88.1472   8.7925001666e+01   3.4864236884e+01    0.5066594    0.4270255 -46.55  0.001741181    1.221    0.181
       102  -9.7927      7.0213     77.9787   1.3044740621e+02   5.9278089544e+01    0.4019782    0.1358643 -36.05   0.00176668    2.982    0.665
       103  -8.7776    119.0866     80.5513   9.3662498866e+01   4.3373789480e+01      0.30855    0.1999269 -50.21 0.0006398676    1.713    0.416
       104  -8.2474    120.0238     75.9773   9.2036872928e+01   4.4010612432e+01    0.2750307    0.1822547  33.77 0.0009170478    1.589    0.371
       105  -9.3148     73.9747     80.0165   1.0729841861e+02   5.1890223067e+01    0.4936194    0.2135327 -50.51  0.001937028    2.408    0.585
       106 -10.1271     81.3355     72.7518   1.0265938667e+02   5.2097392853e+01    0.4578424     0.400236  28.14  0.001177427    1.156    0.135
       107  -9.3318     84.4296     64.1757   9.8924330646e+01   5.3107544746e+01     0.609858    0.3422187  16.02  0.002482764    2.721    0.632
       108  -8.8566    184.3733     77.8530   7.8006773684e+01   2.8436970110e+01     0.274599    0.2580803 -23.49 0.0005856182    1.222    0.182
       109 -10.1272    233.6567     75.9897   6.9768907045e+01   1.7199429663e+01    0.2837463    0.2463872  63.31 0.0004512286    1.263    0.208
       110 -10.6629    238.1211     72.1445   6.8348477392e+01   1.6845949989e+01    0.3385472    0.3083247  11.22  0.001033407    1.561    0.359
       111  -9.3424    127.4067     75.2373   8.9851519922e+01   4.2515808136e+01    0.3224206    0.2523709 -64.31 0.0009178418    1.575    0.365
       112 -10.5405    162.6363     71.5747   8.0585297096e+01   3.4828151084e+01    0.6403071    0.2851049 -42.12  0.002466446    2.315    0.568
       113  -9.3204    115.3560     72.2477   9.2183795637e+01   4.5677515299e+01    0.5795579    0.3039286 -30.23  0.001871558    2.206    0.547
       114  -8.9799    129.9408     57.8605   8.3940054074e+01   4.4819261640e+01    0.3377592    0.2613814  24.82  0.001326562    1.424    0.298
       115  -9.2646    121.1287     66.0465   8.8708230679e+01   4.5490785142e+01     0.347906    0.2555025 -38.68  0.001057976    1.434    0.303
       116  -9.4732    169.2687     71.7834   7.9298600482e+01   3.3169121205e+01    0.3345855    0.2390642 -32.14 0.0009929967    1.552    0.356
       117  -9.9844     73.0490     59.2579   1.0110739722e+02   5.5856624498e+01     0.474622    0.2584561 -46.73 0.0009666833    2.022    0.506
       118 -10.3656     63.0479     60.8550   1.0513944461e+02   5.7099123991e+01    0.9572602    0.2270508  34.91  0.002272456    4.449    0.775
       119 -10.7034     55.2623     71.0268   1.1111416255e+02   5.6287127687e+01     0.580208    0.3741356  53.43  0.001403345    2.417    0.586
       120 -10.0341     55.3130     63.2401   1.0870462226e+02   5.7734136452e+01      0.51692    0.2825537  19.16  0.002524565    2.106    0.525
       121 -10.1353     15.9388     70.8219   1.2559695027e+02   6.0172967862e+01    0.3801572    0.1862545 -53.47  0.001194281    1.624    0.384
       122  -9.7633    147.0522     69.4109   8.3352799487e+01   3.8960219217e+01    0.3889664     0.272164 -62.53  0.001031953    1.781    0.439
       123  -9.5814    130.2314     66.8658   8.6613871166e+01   4.3315658372e+01    0.6492229    0.4025026 -14.13  0.002692377    2.393    0.582
       124  -9.8880     94.7417     68.2981   9.6984616616e+01   5.0513933020e+01    0.4043169    0.2448318 -45.51 0.0008951335    1.773    0.436
       125  -9.5010     97.0087     58.8590   9.3238449661e+01   5.1673182521e+01    0.7344254    0.4767356 -11.20  0.003465714    1.978    0.494
       126 -10.6506     31.9467     64.7172   1.1792858031e+02   6.0072874463e+01    0.8120689    0.3183778 -29.19  0.003169973    3.501    0.714
       127  -9.1856    110.5558     58.2879   8.9126818382e+01   4.9021881599e+01    0.4994228    0.2260511  35.24  0.001557811    2.572    0.611
       128  -7.9990     23.3750     69.1960   1.2240296250e+02   5.9944478590e+01    0.1567893    0.1027653 -60.18 0.0002382967    1.551    0.355
       129  -9.6534    138.9794     57.2618   8.1621703631e+01   4.2810665123e+01    0.3597548    0.2064016 -41.02 0.0005879268    1.874    0.466
       130  -9.7355    138.0872     66.2261   8.4503742765e+01   4.1606548863e+01    0.3609266    0.2249057 -45.38  0.001064943    1.742    0.426
       131  -9.6797    235.7661     64.9200   6.7091959110e+01   1.8501556983e+01    0.4115376     0.133238  51.63  0.001473796    3.650    0.726
       132  -7.9618    170.3390     65.2917   7.7337878277e+01   3.3968108746e+01    0.1483258    0.1114125  31.08 0.0007025565    1.646    0.393
       133 -10.3609     17.2255     60.8040   1.2255164357e+02   6.2034803268e+01    0.5883256    0.2712895 -51.15  0.003193848    1.747    0.428
       134 -10.1389     49.8876     53.8355   1.0767759424e+02   6.0085995518e+01    0.5221698    0.3194406 -57.14  0.002309053    2.339    0.572
       135  -9.0931     55.9473     43.4614   1.0178393374e+02   6.0965182850e+01    0.5893632    0.4050192 -11.79   0.00348347    1.414    0.293
       136 -10.0409    199.9382    248.9879   1.1175266728e+02  -7.4230186224e+00    0.3772717    0.1336659  47.08   0.00141751    3.363    0.703
       137 -10.9468     22.0379     53.8674   1.1867095704e+02   6.2953485099e+01    0.7295817    0.4676157 -81.04   0.00292558    3.946    0.747
       138 -12.0118    245.3060    238.9773   1.0142203205e+02  -1.2863740237e+01    0.2431788    0.2093477  -9.96 0.0003039624    1.202    0.168
       139  -9.4055     49.7384     36.4948   1.0160162259e+02   6.2852060270e+01    0.3620242    0.2964906  36.39  0.002112935    1.496    0.332
       140 -11.7401     55.7562    229.6526   1.3864385041e+02   1.9809848616e+01    0.6229823     0.459595  75.72  0.003399608    1.125    0.111
       141 -11.6057     47.6219    223.5139   1.3968182067e+02   2.2190315367e+01    0.9350497     0.575305  72.20  0.005362481    1.470    0.320
       142 -10.1520      4.8230     41.8861   1.2230503368e+02   6.6283308329e+01    0.4846913    0.2442815 -59.73   0.00255513    2.194    0.544
       143 -10.2641      8.4053     47.1323   1.2231825504e+02   6.5143376172e+01    0.6007995    0.2012896  24.92  0.002992966    3.214    0.689
       144 -10.1482     14.5823     44.6548   1.1896320051e+02   6.5159220423e+01    0.5268199    0.2394835 -20.21  0.001528401    2.569    0.611
       145 -10.0708      6.9266     32.5224   1.1841350603e+02   6.7722721707e+01     0.318776    0.1899557   0.51  0.001262769    1.641    0.391
       146 -10.1946      7.1833     28.4289   1.1689491046e+02   6.8357839654e+01    0.3023015    0.2607056  31.44 0.0009562409    1.727    0.421
       147  -8.9073    164.4255     61.2314   7.7375613428e+01   3.6060753476e+01    0.2739423    0.1484929 -30.20  0.001150814    2.156    0.536
       148  -9.0620    146.6713     59.1223   8.0450612347e+01   4.0699479338e+01    0.3097881    0.2286667 -73.58 0.0007871753    1.748    0.428
       149  -9.4965    147.5775     54.2299   7.8826618005e+01   4.1216858830e+01    0.4342312    0.2002424 -31.41  0.001744546    2.465    0.594
       150  -9.3182    149.5542     48.4536   7.6732310332e+01   4.1567430927e+01    0.3325644    0.1993992 -32.76  0.001061665    1.845    0.458
       151  -8.7091      9.3948     59.7690   1.2535636082e+02   6.2753809322e+01    0.1709138   0.07852963 -47.17 0.0009483599    1.625    0.385
       152  -8.6879     87.3037     58.4276   9.6108998897e+01   5.3563736662e+01    0.2423714    0.2053121 -46.09 0.0007422682    1.372    0.271
       153  -9.7800    109.9495     63.9466   9.1105477980e+01   4.8235309100e+01    0.6077718    0.2566122 -44.31   0.00234365    2.639    0.621
       154  -9.8478    156.9793     57.2773   7.7752770812e+01   3.8487124219e+01    0.3155264    0.2574908 -52.32  0.001689208    1.312    0.238
       155  -9.5313    152.5454     54.7777   7.7945314470e+01   3.9937350572e+01    0.3830779    0.2668104 -68.05  0.001525803    1.839    0.456
       156  -9.3018    118.3275     55.3584   8.6092574873e+01   4.7803977426e+01    0.2875543    0.2427957 -68.92 0.0007219424    1.506    0.336
       157  -8.3832    168.6678     55.3226   7.4954680063e+01   3.5914485478e+01    0.2271733    0.1456939 -40.66 0.0008570781    1.645    0.392
       158  -9.4466    162.6204     53.8162   7.5676023095e+01   3.7621496347e+01    0.2973321    0.2284569 -70.48  0.001016526    1.475    0.322
       159  -9.9159    173.0795     51.3860   7.3103466007e+01   3.5402982511e+01    0.5252535    0.3711336  89.88  0.002436282    1.591    0.372
       160 -10.0643    167.5371     49.6643   7.3623859565e+01   3.7011335078e+01    0.3900582    0.3588623  54.09  0.001913743    1.116    0.104
       161  -9.7163    163.5170     50.4812   7.4584380173e+01   3.7882497795e+01    0.2567428    0.1947778 -28.19  0.001070567    1.518    0.341
       162  -8.8432    105.1058     53.0596   8.8952091472e+01   5.0959907173e+01    0.2613639    0.1854497 -46.72  0.000738857    1.655    0.396
       163  -8.4057    106.2218     49.0125   8.7296799617e+01   5.1326049043e+01    0.3815017    0.1853611  28.10  0.001427218    3.005    0.667
       164  -8.6280     89.7915     53.1261   9.3541742807e+01   5.3951513251e+01     0.404337    0.2116199  28.35  0.001761137    2.218    0.549
       165  -8.6931     44.0794     53.9921   1.0995702015e+02   6.0760292105e+01    0.1981036    0.1243101 -17.58 0.0004248638    1.628    0.386
       166  -8.9638    132.5358     53.0057   8.1826995142e+01   4.4948707338e+01    0.4631986    0.1340935  45.53  0.001471752    3.381    0.704
       167 -10.1992     85.0948     48.1200   9.3307685748e+01   5.5574032026e+01    0.3202324    0.2860152 -89.96 0.0009458631    1.655    0.396
       168  -9.4329     77.5480     50.2492   9.6517524623e+01   5.6576510950e+01    0.5744954    0.2247881  37.73  0.002394198    2.493    0.599
       169  -9.0790     80.0355     46.2936   9.4308055629e+01   5.6745502655e+01    0.3172228    0.2184926  15.52  0.001145419    1.517    0.341
       170  -8.7937    142.1748     49.1945   7.8499266967e+01   4.3231585637e+01    0.3113764    0.2130085 -47.63  0.001057555    1.646    0.393
       171  -9.3137    157.6055     48.9499   7.5277592938e+01   3.9544556302e+01    0.2618021     0.165319 -48.55 0.0009755267    1.750    0.428
       172  -9.3792    130.1742     47.3057   8.0620268396e+01   4.6304570506e+01    0.4123973    0.1967935 -30.20   0.00126877    2.363    0.577
       173  -8.2511    132.2132     41.0014   7.8196980902e+01   4.6676621070e+01    0.2769952    0.1773527  17.28  0.001260383    2.225    0.551
       174  -8.8383    121.1227     47.0723   8.2731288913e+01   4.8388414436e+01    0.2548397    0.1905653 -37.60   0.00044013    1.468    0.319
       175  -8.9616    111.7575     46.9776   8.5114447807e+01   5.0448207316e+01    0.2976685    0.2504259  13.75 0.0009142575    1.209    0.173
       176  -8.0120    209.9334     44.9869   6.5941880998e+01   2.7365544487e+01    0.1876284    0.1555513  42.02 0.0003953141    1.533    0.348
       177  -8.7055    143.2729     43.7849   7.6655420283e+01   4.3709444240e+01    0.2707601    0.1542167  38.05   0.00087868    1.952    0.488
       178  -9.2904    148.1801     41.3975   7.4954008517e+01   4.2848209230e+01    0.3282928    0.2432524  29.89  0.001719084    1.561    0.360
       179 -10.2477     70.3452     40.2169   9.5398278627e+01   5.9262237209e+01    0.9316657    0.5657449  -8.04  0.003172407    1.999    0.500
       180  -9.8329     76.0016     31.9545   9.0427274121e+01   5.9415233115e+01     0.324609    0.2448747  51.98  0.001070568    1.577    0.366
       181  -9.2649    153.2137     41.5930   7.4030384072e+01   4.1607538758e+01    0.3083251    0.1966357 -58.46  0.001275715    1.938    0.484
       182  -8.5610    191.0730     41.9464   6.7806325712e+01   3.2306104783e+01    0.2030956     0.181632  65.91 0.0005344014    1.149    0.130
       183  -9.2917    110.4005     33.6298   8.1019587301e+01   5.2476303751e+01    0.4070118    0.2123383 -40.38  0.001341468    2.239    0.553
       184  -9.2072    104.9857     40.8742   8.4903241561e+01   5.2707299488e+01    0.3332576    0.2147411 -48.19  0.001095512    1.993    0.498
       185  -8.6271    106.4841     36.4548   8.2996592198e+01   5.2962162353e+01    0.3505285    0.1752268  42.46  0.001322872    1.802    0.445
       186 -10.0671     88.0036     37.8798   8.8782376877e+01   5.6471847812e+01    0.4636978    0.3002147  23.80  0.001560024    1.578    0.366
       187  -9.2552     92.6898     37.3029   8.7165402754e+01   5.5649682068e+01    0.2803005    0.1886819  35.37 0.0004682447    1.337    0.252
       188  -9.0688    139.2943     39.8180   7.6299994745e+01   4.5170429372e+01     0.366463    0.2209446 -31.92  0.001539659    1.846    0.458
       189  -8.9172    219.2325     37.6318   6.3146834297e+01   2.6198798439e+01    0.2383452    0.2023678  73.35 0.0006648269    1.193    0.162
       190  -9.0466    143.8340     36.4160   7.4352591981e+01   4.4519337600e+01    0.2714218    0.2039274 -76.70  0.000771087    1.648    0.393
       191  -8.1753    136.2756     26.6719   7.2930382109e+01   4.7439945758e+01    0.1683551    0.1129844 -27.23 0.0002669641    1.717    0.418
       192  -8.7054    132.6425     35.7945   7.6489071152e+01   4.7231078163e+01    0.2398269     0.204743 -32.41 0.0006935981    1.315    0.239
       193 -10.5154    134.0939     31.0989   7.4730459256e+01   4.7450972496e+01    0.2424265    0.2093624  50.83  0.001462136    1.022    0.021
       194  -8.7496    119.0464     35.0977   7.9367764872e+01   5.0409313523e+01    0.2657443    0.1820611 -34.80 0.0007752656    1.628    0.386
       195  -9.3607    101.0196     32.9207   8.3254050074e+01   5.4531793022e+01    0.4394152    0.2287865 -25.34  0.002010986    2.142    0.533
       196  -8.5374    153.5199     34.9560   7.2077323036e+01   4.2371155120e+01    0.1869951    0.1379274 -32.53 0.0003979097    1.534    0.348
       197  -9.5116     60.0958     33.3513   9.6492687478e+01   6.1822933466e+01    0.4599554     0.224141 -36.89  0.002104749    2.096    0.523
       198  -9.3335    187.9996    233.5130   1.1158978895e+02  -2.9580599978e+00    0.2297428    0.1957625 -69.20 0.0008978053    1.606    0.377
       199  -9.1026     64.7639     26.5809   9.2201377927e+01   6.1969060808e+01    0.3830107    0.1684502  46.35  0.001827953    2.382    0.580
       200 -10.0661    157.9537    217.1346   1.1516165894e+02   5.4528040937e+00    0.2249025    0.2131096 -48.13 0.0002661937    1.165    0.142
       201 -10.2935     45.5070     29.3621   1.0054529987e+02   6.4415796627e+01    0.3580475    0.3549072  83.90  0.002502295    1.688    0.408
       202  -8.6352     10.0871    207.4762   1.4570300087e+02   2.9900435591e+01    0.2971188     0.196018  10.58  0.001718238    2.796    0.642
       203  -8.3407     21.9852    203.9494   1.4308728423e+02   2.9476752462e+01    0.1783431    0.1319732 -49.93  0.001011946    1.762    0.432
       204  -9.1063    190.8299     29.0284   6.4680253996e+01   3.4015953307e+01      0.33346    0.1838153 -81.48  0.001484689    2.264    0.558
       205  -8.0926    148.1962     29.3938   7.1456428145e+01   4.4310278785e+01    0.1923092     0.118292  74.88 0.0006310859    1.706    0.414
       206  -9.7936    172.8156     26.4932   6.6575291542e+01   3.8681849443e+01    0.3859935     0.250037 -78.85  0.001434309    1.777    0.437
       207  -9.4932     71.9586     26.4071   8.9664512019e+01   6.0795278509e+01    0.4181893    0.2430591  34.66  0.002272257    1.522    0.343
       208  -9.6865     79.7500     23.6931   8.6110954887e+01   5.9730697977e+01    0.4680717    0.2173777  29.94  0.002007699    2.345    0.574
       209  -9.3174     84.8827     22.0835   8.3941640193e+01   5.8953285016e+01    0.2809196     0.227244  54.13 0.0009541068    1.384    0.278
       210  -8.4796    144.1664     26.2588   7.1286945706e+01   4.5623486078e+01    0.2098589    0.1836301   5.52  0.001278033    1.352    0.260
       211  -7.9580    110.3025     27.3269   7.8914293493e+01   5.3225758667e+01    0.1372827   0.08899237  27.07 0.0005162484    1.643    0.391
       212  -8.9799     91.5319     26.3912   8.3588717679e+01   5.7197183280e+01     0.269569    0.2198638 -50.43 0.0009904252    1.661    0.398
       213  -8.4393     92.1189     21.1561   8.1516004345e+01   5.7650388803e+01    0.2940008     0.153421  28.74  0.001117688    2.078    0.519
       214  -8.3480    155.4096     25.0311   6.8940449141e+01   4.3065447569e+01    0.3589861   0.05197837 -40.63 0.0009540127    6.680    0.850
       215  -8.2950    151.0762     26.2737   7.0039263595e+01   4.3970832407e+01     0.297848    0.1607238 -89.55  0.001169259    3.019    0.669
       216  -8.8679    128.1122     25.5405   7.4254434512e+01   4.9454586170e+01    0.2316214    0.1762895 -51.05 0.0006974477    1.591    0.372
       217  -9.1316    102.9774     21.5254   7.8754917619e+01   5.5401241537e+01     0.266603    0.1778921 -34.16 0.0007334576    1.730    0.422
       218  -9.4811    118.9662     21.8123   7.5041530307e+01   5.1914395859e+01    0.2511858    0.2122915 -23.30 0.0009101986    1.351    0.260
       219  -9.5291    199.4232     20.7903   6.1663887267e+01   3.2933197892e+01    0.4830071    0.2393636 -80.48  0.001309751    2.613    0.617
       220  -8.8573    111.8000     21.2191   7.6487065501e+01   5.3551755014e+01    0.2697059    0.1561342  -6.94  0.001320964    2.297    0.565
       221  -7.6515    159.5053    202.5437   1.1224697544e+02   8.1006007639e+00    0.1469303     0.136435  40.64 0.0004628839    1.004    0.004
       222 -10.1816    192.3881    194.9305   1.0360945671e+02   3.2598554023e+00    0.9919192    0.4949576 -63.40  0.002889597    5.197    0.808
       223  -9.5059     40.8534     20.6044   9.8922915647e+01   6.6165277474e+01    0.1934531    0.1364906 -17.69 0.0002465311    1.240    0.194
       224  -8.0736    230.6038    168.3898   9.0520493750e+01   1.0404448021e+00    0.2866275    0.1149625 -51.58 0.0009618008    3.387    0.705
       225  -8.6570     95.9670     16.9433   7.8942647420e+01   5.7304686061e+01    0.2186494    0.1751195 -27.75 0.0004675046    1.441    0.306
       226  -8.9331    249.9934    160.9814   8.5553472655e+01  -1.1147264216e+00     0.198704    0.1765943 -26.44 0.0003226509    1.015    0.015
       227  -9.0566    106.3336    159.4136   1.1689618866e+02   2.8216366237e+01    0.2460182    0.2166312 -53.26 0.0004831342    1.144    0.126
       228  -8.8052    250.4639    156.0574   8.4456444004e+01  -3.2663136161e-01    0.1922498    0.1447815 -38.27 0.0003738781    1.176    0.150
       229  -8.3577    172.2082    154.8751   9.9590058538e+01   1.5736025051e+01     0.222554    0.2078928 -72.94 0.0002780802    1.125    0.111
       230  -8.2799    250.5741    151.0620   8.3400137451e+01   5.4127461864e-01    0.1980276    0.1196816 -38.85 1.034896e-05    1.462    0.316
       231  -9.1814    190.0217     15.4897   6.1537559787e+01   3.5754923408e+01    0.3394923    0.2094264  83.50  0.001129859    1.475    0.322
       232 -10.2467    218.9059    149.5155   8.8645551441e+01   6.8961948687e+00    0.2662154    0.2530244  78.85  0.000424452    1.165    0.141
       233  -9.0191    112.1717     15.6749   7.4532266383e+01   5.4014122904e+01    0.1869079    0.1721995 -36.55 0.0005820791    1.307    0.235
       234  -8.3504    103.9847     15.5338   7.6409412688e+01   5.5781476024e+01    0.2641388    0.1225962  22.84  0.001030189    3.481    0.713
       235  -9.1146    227.1425     27.3265   6.0082189398e+01   2.5733640160e+01    0.2943389    0.1761558 -36.32  0.001076533    1.833    0.454
       236  -9.2488    133.7190    146.5865   1.0703137823e+02   2.5920045364e+01    0.7946802    0.1981708 -53.51  0.001896237    5.101    0.804
       237  -9.4968     67.1027    144.3390   1.2460838457e+02   3.8261557631e+01    0.4859402    0.3090898  63.23  0.002246406    1.959    0.490
       238  -8.4997    104.9941    144.1155   1.1409011840e+02   3.2179009230e+01    0.2165441    0.2055876 -70.10 0.0003012135    1.015    0.015
       239 -10.0744    135.1539    131.4304   1.0309487758e+02   2.9138082614e+01    0.5800439    0.4761078 -40.10  0.002791364    1.251    0.200
       240  -9.9531    130.3807    118.6852   1.0116054331e+02   3.3053454889e+01     0.431437    0.3311293  89.19  0.001034127    1.740    0.425
       241 -10.1212    135.1456    122.0171   1.0075802671e+02   3.1275060795e+01    0.5506487     0.317529 -46.81  0.002187892    1.735    0.424
       242  -7.6228    172.2922     12.3403   6.3006044454e+01   4.0322701593e+01    0.1282998   0.08846252  42.37 0.0007026855    1.650    0.394
       243 -10.3502    140.4350    118.4445   9.8482171366e+01   3.0901181591e+01    0.6632686    0.3798504 -51.00  0.001672596    1.815    0.449
       244  -8.3116    112.2955    134.0675   1.0983672732e+02   3.3210012287e+01    0.3062481    0.1987789  68.55  0.001212059    2.207    0.547
       245  -9.3343    237.7536    131.4644   8.1340909746e+01   6.5260327835e+00    0.2541449    0.1962916 -50.55 0.0003378002    1.217    0.178
       246  -7.4550    166.2816    131.7494   9.5530089235e+01   2.2119584060e+01    0.1515327    0.1239056  87.51 0.0001725424    1.464    0.317
       247  -8.4161    223.7327    130.5536   8.3539194244e+01   9.5597794149e+00    0.1983761    0.1426914  66.39 0.0009516504    1.652    0.395
       248  -8.7621    160.7616    128.7265   9.6079714029e+01   2.4039410354e+01    0.4111762    0.1877511 -53.49  0.001385814    2.547    0.607
       249 -10.0083     71.0722    125.9714   1.1983397074e+02   4.2154145712e+01    0.5125821    0.3605188 -86.71  0.001411853    1.850    0.459
       250  -9.3054     66.2873    128.1477   1.2170293138e+02   4.2305950379e+01    0.3192657    0.2578929  84.02  0.001716974    1.428    0.300
       251 -10.0740     58.3930    124.8274   1.2336726040e+02   4.4143131006e+01    0.6224431    0.3719288  78.36  0.002492716    2.988    0.665
       252 -10.3117    116.8360    125.2784   1.0648374062e+02   3.4374989289e+01    0.6716694    0.4716931  83.09  0.001805622    2.170    0.539
       253  -9.4553     27.3386    122.9759   1.3221898896e+02   4.7887428352e+01    0.4800953    0.2578955  69.89  0.002068308    3.085    0.676
       254  -8.8959    129.5387    124.0036   1.0273233658e+02   3.2036111723e+01    0.2457546    0.1544555 -48.08 0.0006067409    1.587    0.370
       255  -9.1704     41.3752    122.0712   1.2791655153e+02   4.6760473449e+01    0.4277676    0.2041373 -74.78  0.001757686    2.580    0.612
       256  -9.7531     98.5656    128.6318   1.1241498884e+02   3.7066236679e+01    0.5866568    0.3686151  74.40  0.002195743    2.784    0.641
       257  -8.0117    186.4892    119.9786   8.8207081975e+01   1.9935326230e+01    0.2226243    0.1296205 -63.65 0.0006538276    2.413    0.586
       258 -10.0676    108.6085    114.4523   1.0607185518e+02   3.8479758564e+01    0.5840227    0.3735654 -73.39   0.00151541    2.417    0.586
       259 -10.8277    109.2816    101.5738   1.0246177017e+02   4.1181923294e+01     1.003364    0.7618437 -88.30   0.00455741    1.921    0.479
