#   1 NUMBER                 Running object number                                     
#   2 MAG_AUTO               Kron-like elliptical aperture magnitude                    [mag]
#   3 X_IMAGE                Object position along x                                    [pixel]
#   4 Y_IMAGE                Object position along y                                    [pixel]
#   5 X_WORLD                Barycenter position along world x axis                     [deg]
#   6 Y_WORLD                Barycenter position along world y axis                     [deg]
#   7 A_WORLD                Profile RMS along major axis (world units)                 [deg]
#   8 B_WORLD                Profile RMS along minor axis (world units)                 [deg]
#   9 THETA_WORLD            Position angle (CCW/world-x)                               [deg]
#  10 FWHM_WORLD             FWHM assuming a gaussian core                              [deg]
#  11 ELONGATION             A_IMAGE/B_IMAGE                                           
#  12 ELLIPTICITY            1 - B_IMAGE/A_IMAGE                                       
         1 -14.9213    160.1708     51.1502   7.6334174038e+01   3.8812806672e+01     1.147948     1.066794 -37.28  0.003580091    1.170    0.145
         2 -15.0619    172.3330     21.0922   6.6077030266e+01   3.9659957540e+01     1.382448    0.8945985 -86.00  0.005725882    1.680    0.405
         3 -13.5292    197.6648     21.6932   6.2948906664e+01   3.3536097410e+01    0.5585521    0.3032124 -56.47  0.002782164    1.906    0.475
         4 -14.3458    189.8414     15.0948   6.2293835312e+01   3.6125125019e+01    0.5454748    0.4239858 -74.71  0.002329547    1.208    0.172
         5 -14.3647    178.1710      6.0271   6.1454112210e+01   3.9804259743e+01      1.38134    0.5436893 -89.88  0.004565405    4.523    0.779
         6 -12.9910    190.8125      2.8229   5.9265171084e+01   3.7140505581e+01    0.4291648    0.1783333  80.22  0.001907403    2.336    0.572
         7 -10.4166    158.7874    240.2165   1.1952302947e+02   1.3017657523e+00    0.1972735    0.1612571 -52.26 0.0005551276    1.414    0.293
         8 -20.3193     74.7515    177.3138   1.2847421763e+02   2.9122594693e+01     16.80239     7.183362 -64.69   0.06862157    2.226    0.551
         9 -10.4243    223.1446    198.6129   9.9371701995e+01  -2.7544501785e+00     0.181351    0.1207599  27.25 0.0002896473    1.555    0.357
        10 -10.6429    131.3953    235.3550   1.2437133865e+02   6.9479886413e+00     0.197427    0.1683422 -67.47 0.0008045724    1.298    0.230
        11 -11.0692     23.7551    191.1936   1.4164586873e+02   3.2244563243e+01    0.2246301    0.1564147 -55.37  0.001291382    1.623    0.384
        12 -11.0634    141.4605    188.2296   1.1456770771e+02   1.4878095521e+01    0.2408074    0.2213993 -45.44 0.0006584863    1.164    0.141
        13 -11.0129     15.3714    187.6900   1.4306813059e+02   3.3873995828e+01    0.1542307    0.1207208 -60.16 0.0004166964    1.429    0.300
        14 -15.9160     41.8425    152.0635   1.3287259038e+02   3.9525757552e+01     1.526059    0.8498321 -62.32  0.005680248    1.511    0.338
        15 -14.3578    178.1632    171.9147   1.0307668438e+02   1.1012966326e+01     1.226978    0.7012155 -53.31  0.005112263    1.908    0.476
        16 -13.8232    187.1215    175.0765   1.0182276942e+02   8.5214412031e+00    0.8574969    0.4921022 -53.75  0.002026411    1.961    0.490
        17 -11.9107    186.9005    165.3639   9.9799072623e+01   1.0572327955e+01    0.4311308    0.3148356 -55.24   0.00108003    1.465    0.317
        18 -12.6206    193.7837    170.8441   9.9533290351e+01   8.0296165406e+00    0.7124448    0.3850104 -58.68 0.0008582435    2.547    0.607
        19 -14.1651    237.6913    173.5973   9.1651394993e+01  -9.1899926209e-01    0.8057589    0.4356239  42.22  0.003782851    1.986    0.496
        20 -11.4024    203.2983    174.1370   9.8287121747e+01   5.4638213535e+00    0.3510255     0.170639 -58.10  0.001193311    3.301    0.697
        21 -11.8643    110.5208    241.4373   1.2937520382e+02   9.2963223859e+00    0.2648799    0.2326406  74.94  0.001510722    1.096    0.087
        22 -13.6041    160.7061    164.5189   1.0539150497e+02   1.6255647781e+01     0.848244     0.467325 -68.12  0.002870152    3.098    0.677
        23 -10.2990    139.4888    227.4901   1.2156388351e+02   7.0471913941e+00    0.2142416    0.1599574  76.57 0.0005490871    1.587    0.370
        24 -12.1265    187.1943    154.5054   9.7341940975e+01   1.2780688669e+01    0.6858763    0.3709597  45.59  0.002798831    1.886    0.470
        25 -10.9475    191.6103    151.7897   9.5805509465e+01   1.2401884044e+01    0.3431081    0.2385563 -55.77  0.001014371    1.544    0.352
        26 -10.7589    137.0000    224.9721   1.2170614937e+02   7.9825966935e+00    0.3134866    0.1880669 -49.11 0.0008717289    1.869    0.465
        27 -11.0457     22.9948    156.0770   1.3809553152e+02   4.0483486747e+01    0.1992769    0.1761155  53.13    0.0004151    1.306    0.234
        28 -12.9686    164.3276    152.6906   1.0195868004e+02   1.8107202455e+01    0.4223532    0.3974153  11.39  0.001224857    1.160    0.138
        29 -11.4259     18.6169    150.5281   1.3849287189e+02   4.2183072309e+01     0.554475    0.1466227 -59.20  0.002239789    2.777    0.640
        30 -11.9928    174.4381    148.9120   9.8829186520e+01   1.6735991069e+01    0.3758672    0.2939958 -64.77  0.001122921    1.419    0.295
        31 -12.3358    129.6027    241.0552   1.2551318701e+02   6.1785168583e+00    0.2127927    0.2006912 -88.04  0.000584565    1.172    0.147
        32 -11.3915     10.8916    144.2800   1.3965331959e+02   4.4277298204e+01    0.2086259     0.174852 -50.60 0.0004373136    1.309    0.236
        33 -13.0287    207.8374    226.5744   1.0752823286e+02  -4.8341644256e+00    0.2797028    0.2339056 -34.62  0.001394762    1.287    0.223
        34 -10.5766    166.9248    133.5017   9.6882480160e+01   2.1755663842e+01    0.2383915    0.1560542  49.44 0.0008138019    1.553    0.356
        35 -12.8681    160.4687    127.8345   9.6974413814e+01   2.4448337140e+01    0.4781836    0.3852095 -70.11  0.001504997    1.381    0.276
        36 -13.2336    207.5035    221.5524   1.0669984003e+02  -3.9540732333e+00    0.3427825    0.2482531 -43.54  0.001264657    1.522    0.343
        37 -10.2978    115.9061    239.0277   1.2799887490e+02   8.8711429010e+00    0.2245368    0.1604576  29.53  0.001040404    1.636    0.389
        38 -10.7995     15.1387    218.3987   1.4554531473e+02   2.7171749616e+01    0.3073472   0.09353486 -71.20  0.001419683    2.667    0.625
        39 -11.1992    231.2723    113.7108   7.9745485209e+01   1.1375391805e+01    0.2510126    0.2405208 -40.17 0.0007863136    1.114    0.102
        40 -11.2325    167.6602    112.6632   9.1528274498e+01   2.6022325199e+01    0.3425973    0.2557205 -82.21  0.001373288    1.725    0.420
        41 -11.1065    217.7386    218.3474   1.0414017326e+02  -5.1522271837e+00    0.2229108    0.1559398 -47.22 0.0004992421    1.663    0.399
        42 -10.9451    205.3673    110.2719   8.3361533481e+01   1.7726559114e+01    0.3103182    0.2092358  50.20  0.001042731    1.561    0.359
        43 -12.2978     30.1397    104.8992   1.2819461255e+02   5.1799711563e+01    0.3471085    0.2257197  -2.04 0.0008866051    2.072    0.517
        44 -10.9343    162.0668    236.9508   1.1836695396e+02   1.3057414483e+00    0.2673542    0.1730575  47.88  0.001084388    1.418    0.295
        45 -10.9924     32.8034    212.2959   1.4172187100e+02   2.6544110669e+01     0.248704    0.1935736 -29.08  0.001502446    2.284    0.562
        46 -10.2055     24.9949    213.5889   1.4333913860e+02   2.7144611776e+01    0.1344243    0.1013985  58.49 0.0002176246    1.262    0.208
        47 -12.5491     41.1688     94.8122   1.2251012812e+02   5.2978594581e+01    0.4508381    0.3466654  10.01  0.002266405    1.510    0.338
        48 -12.6439     48.7497     92.4470   1.1945510556e+02   5.2665296115e+01    0.3525096    0.2899927  -7.83   0.00170368    1.324    0.245
        49 -13.2183     11.4933    206.3873   1.4535094640e+02   3.0110179269e+01    0.5018014    0.3832363 -51.56  0.003417643    1.768    0.434
        50 -12.0052     13.7659    199.5151   1.4438332193e+02   3.1388997935e+01    0.3378696    0.1286908 -60.90  0.001651588    2.433    0.589
        51 -10.6687    135.9207     85.5003   9.1580915106e+01   3.8806746104e+01    0.2314237    0.1472067  51.03 0.0009945168    1.562    0.360
        52 -10.4244    134.7545    235.1729   1.2365978280e+02   6.4016169843e+00    0.4296145    0.2491474 -62.38  0.001787574    2.047    0.512
        53 -14.2832    149.4378     65.2587   8.2562742307e+01   3.9232520114e+01     1.043971    0.8773116  34.52  0.001152358    1.269    0.212
        54 -10.8717    116.9898    245.6113   1.2860903459e+02   7.4396060203e+00     0.161355    0.1526707  56.60 0.0004340789    1.196    0.164
        55 -11.9352    133.9124    196.5492   1.1777836788e+02   1.4486450809e+01    0.3526978    0.2801502 -66.42 0.0006018083    1.323    0.244
        56 -11.3141     13.5751     59.9237   1.2363923214e+02   6.2482915226e+01    0.1794696    0.1595843   2.07 0.0004089026    1.300    0.231
        57 -13.5692    164.8875     42.2324   7.2978393178e+01   3.8903531487e+01     0.488146    0.4593671 -78.18 0.0007943516    1.085    0.078
        58 -10.7273    105.1906    246.4602   1.3102092228e+02   9.1999178937e+00    0.1128609    0.0912298 -41.02 0.0003155309    1.719    0.418
        59 -11.6311    101.2386    244.5944   1.3157591345e+02   1.0188263624e+01    0.2336915    0.1773523 -58.06 0.0007566448    1.539    0.350
        60  -9.8979     35.9122    245.3056   1.4377147178e+02   1.9305665347e+01     0.189568     0.102191  72.51 0.0006935264    1.603    0.376
        61 -10.6742    157.8455    244.8480   1.2039609562e+02   6.6004891757e-01    0.1835718    0.1694209 -17.58  0.000364778    1.267    0.211
