#   1 NUMBER                 Running object number                                     
#   2 MAG_AUTO               Kron-like elliptical aperture magnitude                    [mag]
#   3 X_IMAGE                Object position along x                                    [pixel]
#   4 Y_IMAGE                Object position along y                                    [pixel]
#   5 X_WORLD                Barycenter position along world x axis                     [deg]
#   6 Y_WORLD                Barycenter position along world y axis                     [deg]
#   7 A_WORLD                Profile RMS along major axis (world units)                 [deg]
#   8 B_WORLD                Profile RMS along minor axis (world units)                 [deg]
#   9 THETA_WORLD            Position angle (CCW/world-x)                               [deg]
#  10 FWHM_WORLD             FWHM assuming a gaussian core                              [deg]
#  11 ELONGATION             A_IMAGE/B_IMAGE                                           
#  12 ELLIPTICITY            1 - B_IMAGE/A_IMAGE                                       
         1 -16.9585    172.6532    124.5458   8.5445704612e+01   2.2469106359e+01     4.165296     3.157224  29.51   0.01373266    1.437    0.304
         2 -12.5013    190.9496     34.5825   5.9541269782e+01   3.2800484469e+01    0.7597404    0.5982144 -63.05   0.00360054    1.117    0.104
         3 -12.7677    199.6627     23.7153   5.5913686768e+01   3.2080321288e+01    0.5834203    0.5250121 -29.46  0.001633332    1.301    0.231
         4 -11.4795    180.7228      5.7700   5.2733036091e+01   3.8432208385e+01    0.6467988    0.4655531 -74.21  0.003815203    1.192    0.161
         5 -13.1853     46.5627    232.2471   1.3280111632e+02   2.0411426974e+01    0.5253739    0.3324212  55.03  0.001786357    1.344    0.256
         6 -15.2595    141.3941    199.6182   1.0692571680e+02   1.3830304612e+01     4.383752     1.402593 -48.26   0.01630741    3.455    0.711
         7 -14.8182    119.5366    216.9853   1.1436845291e+02   1.3914295900e+01     2.181856     1.177357 -54.99  0.009994916    2.240    0.554
         8 -14.3675     68.6998    248.8379   1.2896610775e+02   1.4839808894e+01    0.6574731    0.3368987  40.76  0.002703694    1.439    0.305
         9 -13.5520    109.8295    231.2223   1.1825582724e+02   1.2727982828e+01    0.6111935    0.4793789 -86.55  0.001594825    1.753    0.430
        10 -14.8924    104.0039    243.3992   1.2080700551e+02   1.1418395225e+01     1.361639    0.7700181 -70.92  0.007489665    2.597    0.615
        11 -15.3837     88.5281    248.5488   1.2464168778e+02   1.2503238048e+01     2.654216    0.5528997  28.66  0.006357331    4.348    0.770
        12 -16.6215    134.9028     11.4211   5.9233908803e+01   4.9578162398e+01     6.630328     1.362017  61.43   0.02120574    3.517    0.716
        13 -16.5707     55.2759      9.2722   7.8457297575e+01   6.9879942442e+01      5.56837     1.753436  54.31   0.02051758    2.902    0.655
        14 -16.9121     26.6426    244.3891   1.3780197848e+02   2.0212076643e+01     1.827473    0.7456744 -76.67  0.009773954    2.785    0.641
        15 -19.2880      5.4895    147.7117   1.3876181167e+02   4.3505998982e+01     19.37815     1.816499 -82.82   0.03461605   13.349    0.925
        16  -9.5250     84.1309    233.5306   1.2430894728e+02   1.5683362681e+01    0.2247047    0.1419472  39.11  0.001312546    1.234    0.190
        17  -9.0668     71.3551    210.5383   1.2522434563e+02   2.1796415896e+01    0.1318733    0.1057728  50.94 0.0003053092    1.098    0.089
        18 -11.9317     55.5151    206.0806   1.2879813091e+02   2.4707357299e+01    0.9002068    0.5191544   5.65  0.003106345    2.699    0.629
        19 -14.1655     47.1276    195.4053   1.3008941668e+02   2.8040428557e+01    0.9316026    0.7302189  72.60  0.002329698    1.226    0.184
        20 -12.3523    232.4689    197.6605   8.8974761401e+01   1.2519728302e+00    0.5064875    0.3219363  -6.99  0.001708179    1.454    0.312
        21 -16.0459    114.7287    181.5751   1.1054819248e+02   2.1596500957e+01     5.101015     3.212269 -71.23   0.02352588    2.173    0.540
        22 -12.4422    197.5267    198.3859   9.5121420550e+01   5.7193748848e+00    0.7710414    0.5879923  38.84  0.003895017    1.510    0.338
        23 -11.5572     36.0470    189.9310   1.3261301583e+02   3.0513588647e+01    0.5021736    0.3129246  31.10  0.002538136    1.454    0.312
        24 -10.0181     30.1319    181.5095   1.3362520889e+02   3.3090582114e+01     0.322404    0.1992749 -61.34  0.001694212    1.779    0.438
        25 -11.5254     59.8075    177.3725   1.2491468636e+02   3.0674914546e+01    0.6026659    0.3875535 -35.95  0.002245219    2.148    0.535
        26 -10.4714     76.9586    178.2455   1.2019088708e+02   2.8140314561e+01    0.3671108    0.2296065 -36.40  0.001666793    2.177    0.541
        27 -10.7973     80.6113    173.3562   1.1851997767e+02   2.8751273704e+01    0.3609903    0.2601788 -28.94  0.001163635    1.848    0.459
        28 -11.6893     87.1880    163.9863   1.1527976972e+02   2.9964185703e+01    0.5306885    0.2744437  43.23 0.0006145433    1.771    0.435
        29 -12.5336     76.3283    159.4270   1.1777957996e+02   3.2726358086e+01    0.6186671     0.415109 -57.61  0.001016515    1.578    0.366
        30 -10.9070     93.9855    156.9946   1.1217971697e+02   3.0532937048e+01    0.5097485    0.3458254 -25.49  0.001631075    2.085    0.520
        31 -13.0591    119.7356    145.1894   1.0269164127e+02   2.8712115067e+01     1.359668    0.5158312 -54.19   0.00458176    2.929    0.659
        32 -15.4413    236.0785    224.8007   9.2714649216e+01  -2.4884239026e+00     1.969199      0.93787 -26.00  0.007092256    1.896    0.472
        33 -11.2857     94.1264    141.4074   1.0931646835e+02   3.4266480863e+01    0.2963946    0.2741749   2.28 0.0004688239    1.197    0.165
        34 -12.1477     58.6554    130.5578   1.1894358950e+02   4.2628474422e+01    0.7150095    0.3178705 -79.08   0.00240739    3.123    0.680
        35  -9.9384    105.9477    130.6833   1.0354685166e+02   3.4690998842e+01     0.296461    0.2378223 -67.67  0.001423083    1.365    0.267
        36  -9.8016    101.6233    127.5054   1.0415156764e+02   3.6273136160e+01    0.2873979    0.2192344 -25.76 0.0007501196    1.636    0.389
        37 -12.8980     68.3174    144.1673   1.1792118068e+02   3.7730755388e+01    0.8713673    0.5388461  61.62  0.003515513    1.834    0.455
        38 -12.2247     55.4017    148.1633   1.2268956302e+02   3.8488937411e+01    0.5019068     0.301539  25.38  0.001948943    1.706    0.414
        39 -11.6562     44.9285    129.8194   1.2367623733e+02   4.4582218500e+01    0.4140509    0.1982998 -67.44  0.001697878    2.015    0.504
        40  -8.8236    109.6659    119.7192   9.9929338602e+01   3.6548315220e+01    0.1559993    0.1251832   0.28 0.0004341763    1.613    0.380
        41 -12.7927     50.3235    226.9280   1.3159904959e+02   2.1025521464e+01    0.5167837    0.3569056  35.18  0.001916291    1.190    0.159
        42 -14.2719    139.1312    139.5937   9.6445846074e+01   2.6196952556e+01     1.174001     1.049893  36.50  0.003987646    1.079    0.074
        43 -10.4979    178.5701     78.5882   7.2921383254e+01   2.9327802433e+01    0.3083886      0.24079 -64.22  0.001113798    1.328    0.247
        44 -11.4351    116.1734     74.4155   8.5305713681e+01   4.5045342925e+01    0.6685694    0.3428818  59.85  0.002479355    2.202    0.546
        45 -10.2400    163.5832     64.3295   7.1562075819e+01   3.5182661903e+01    0.3022874    0.2090274 -69.96 0.0008075094    1.655    0.396
        46 -11.5875    180.2852     43.1475   6.3079453600e+01   3.4227700927e+01     0.345864    0.2791078  69.69 0.0009787752    1.249    0.200
        47  -9.5181     49.2614    243.4446   1.3286026769e+02   1.8015235366e+01    0.1078027   0.08923946  54.15 0.0001219374    1.137    0.120
        48 -10.4635     74.3028    238.6198   1.2696453346e+02   1.5981787027e+01    0.2161051    0.2002629   5.10  0.000880914    1.317    0.241
