#   1 NUMBER                 Running object number                                     
#   2 MAG_AUTO               Kron-like elliptical aperture magnitude                    [mag]
#   3 X_IMAGE                Object position along x                                    [pixel]
#   4 Y_IMAGE                Object position along y                                    [pixel]
#   5 X_WORLD                Barycenter position along world x axis                     [deg]
#   6 Y_WORLD                Barycenter position along world y axis                     [deg]
#   7 A_WORLD                Profile RMS along major axis (world units)                 [deg]
#   8 B_WORLD                Profile RMS along minor axis (world units)                 [deg]
#   9 THETA_WORLD            Position angle (CCW/world-x)                               [deg]
#  10 FWHM_WORLD             FWHM assuming a gaussian core                              [deg]
#  11 ELONGATION             A_IMAGE/B_IMAGE                                           
#  12 ELLIPTICITY            1 - B_IMAGE/A_IMAGE                                       
         1  -8.1486    113.8705     11.8859   5.8268937679e+01   5.5177568569e+01    0.2329908    0.1983704  73.39 0.0007668007    1.325    0.245
         2  -7.4211     76.6412    249.6861   1.2070893412e+02   1.4581552222e+01   0.09444598   0.08546795  22.59 0.0007043316    1.748    0.428
         3  -8.4303     48.5618    249.5456   1.2533645003e+02   1.8211253474e+01    0.2725459    0.2104507  60.03  0.002171127    1.214    0.176
         4  -8.1636     30.0126    249.1433   1.2825863796e+02   2.0438972083e+01    0.1617427    0.1596148  52.40  0.001423929    1.835    0.455
         5  -8.1532     16.1080    250.0775   1.3043639256e+02   2.1782427696e+01    0.1783113    0.1500984 -73.74  0.001099397    1.728    0.421
         6  -8.2405     20.1402    248.6629   1.2976127843e+02   2.1595564496e+01    0.2264688    0.1023097  55.39  0.001406287    1.561    0.359
         7  -7.9789     62.5045    249.1785   1.2303372385e+02   1.6531196462e+01       0.2063    0.1236006  49.13  0.001408365    1.334    0.250
         8  -8.1807     90.0191    247.6558   1.1826085669e+02   1.3061311273e+01    0.2124718    0.1766949  37.58  0.001259783    1.474    0.322
         9  -7.9051      9.2271    248.5839   1.3140851987e+02   2.2738130190e+01    0.1170378   0.08145498  45.66 0.0004318398    1.564    0.361
        10  -8.3130     81.1025    247.3847   1.1977027700e+02   1.4352856165e+01    0.2879505   0.08931166  46.39  0.001396553    2.369    0.578
        11  -7.0807     57.4747    246.5289   1.2368634680e+02   1.7618028835e+01    0.1124777   0.07672844  65.14 9.759588e-05    1.063    0.060
        12  -7.9972     42.5574    245.1525   1.2604511363e+02   1.9676562982e+01    0.1984813    0.1161148  49.10 0.0009385094    1.399    0.285
        13  -9.1206     26.6400    242.6065   1.2845846769e+02   2.1928934557e+01     0.444021     0.206775  43.59  0.002886607    1.845    0.458
        14  -8.1201    123.0000    243.4502   1.1203351145e+02   8.8294371282e+00    0.2168562   0.06753084 -56.79 0.0009377107    3.959    0.747
        15  -8.8214    109.4390    242.0416   1.1432069234e+02   1.1134055467e+01    0.3142872    0.1784768  63.09  0.001812256    1.738    0.425
        16  -8.6767     71.7509    241.4408   1.2090429378e+02   1.6629532304e+01    0.3366968    0.1492503 -74.57  0.001862892    2.483    0.597
        17  -7.8879      1.8828    241.6827   1.3224439842e+02   2.4632658972e+01    0.1335687    0.1124138  61.85  0.001188328    1.489    0.329
        18  -7.7201    125.6094    240.7680   1.1126929246e+02   8.8466009235e+00    0.1454037    0.1079966 -84.26 0.0008901415    1.620    0.383
        19  -9.4384     51.0708    239.8673   1.2431049283e+02   1.9564934220e+01     0.369842     0.235391  52.03  0.001956659    1.272    0.214
        20  -8.7132     38.5415    230.0397   1.2579469837e+02   2.2821074405e+01    0.3312832    0.1785192  51.80  0.002174885    1.462    0.316
        21  -8.7585     45.0949    237.3257   1.2514788177e+02   2.0738556243e+01    0.3056403    0.1640264  60.14  0.001532712    1.415    0.293
        22  -9.6671     45.3939    230.7856   1.2467177922e+02   2.1876664151e+01    0.3687301    0.3330517 -31.81  0.002751286    2.010    0.503
        23  -8.9382     15.2986    240.0416   1.3012020899e+02   2.3580396427e+01    0.3193278    0.2187074  29.13  0.002319343    2.242    0.554
        24  -7.7377     11.9558    238.0000   1.3055124514e+02   2.4278149443e+01    0.1743193    0.1047454  50.72  0.001308582    1.409    0.290
        25  -7.5584    145.6640    240.3613   1.0757085087e+02   5.7136196092e+00    0.1243179   0.08142591  66.18 -5.491131e-05    1.817    0.450
        26  -7.5802    152.9286    239.5246   1.0614059655e+02   4.6619997543e+00    0.1938475   0.09692513  42.65 0.0009568108    1.590    0.371
        27  -7.5598    114.0411    238.4901   1.1312417535e+02   1.1014067517e+01    0.1848629   0.09549425  44.00 0.0007333379    1.562    0.360
        28  -8.6810     93.9447    236.4676   1.1656063887e+02   1.4373841806e+01    0.3659663    0.1908556  36.51  0.002006951    1.971    0.493
        29  -8.2177     25.3561    232.8145   1.2815651552e+02   2.3796148360e+01    0.1346787   0.07953381 -74.93 0.0006859087    1.669    0.401
        30  -8.1369      4.2215    235.9344   1.3166541901e+02   2.5404795405e+01    0.1653543    0.1227285  64.00  0.001166093    1.233    0.189
        31  -9.1116     62.0695    242.1707   1.2261406877e+02   1.7777698358e+01    0.4518442    0.1353852  49.96  0.002217113    2.467    0.595
        32  -8.9828     59.2572    229.5827   1.2217046191e+02   2.0373812795e+01    0.3360603    0.2747706  76.82  0.002533147    1.165    0.142
        33  -9.3421     12.7816    232.0696   1.3015442154e+02   2.5244678809e+01    0.4236973    0.2360059  23.75  0.002473721    3.435    0.709
        34  -7.4043    126.6453    230.3120   1.0987785117e+02   1.0384220395e+01    0.1293857   0.08036371  64.72 0.0007044422    1.732    0.423
        35  -8.2643     29.2121    231.6054   1.2745465402e+02   2.3592521480e+01    0.1302556   0.09254686  39.11 0.0009443953    1.683    0.406
        36  -7.8765     88.1504    229.3844   1.1694237217e+02   1.6458765808e+01    0.1774536   0.08412883  50.87 0.0009492427    1.703    0.413
        37  -7.4413    112.9846    228.4857   1.1223234051e+02   1.2867209437e+01    0.1797268   0.07926596  57.69 0.0006595965    2.424    0.587
        38  -8.4887     24.0180    236.8612   1.2858496990e+02   2.3219181048e+01    0.2097677    0.1691295  14.96  0.001535094    2.418    0.586
        39  -7.7084     10.8136    225.9762   1.3018888386e+02   2.6543531515e+01    0.2432539   0.06563424  57.75  0.001205844    2.844    0.648
        40  -8.4131     37.4971    240.7368   1.2661083949e+02   2.1032490195e+01    0.2641828    0.1082089  88.92  0.001440358    2.544    0.607
        41  -8.1013     69.2952    221.2610   1.1967559483e+02   2.0593150802e+01    0.2945753    0.1454549  36.74   0.00157616    2.126    0.530
        42  -8.5426     15.1473    219.6571   1.2916114391e+02   2.7280315260e+01    0.3673605    0.1200868  49.86  0.002039985    2.270    0.560
        43  -8.2152    105.9452    217.6933   1.1235159298e+02   1.5898514805e+01    0.3812167    0.1530186  33.00  0.001514722    3.306    0.698
        44  -8.4497      8.7708    216.6900   1.3008369626e+02   2.8465814722e+01    0.2134621    0.1520567  40.90  0.001365561    1.647    0.393
        45  -8.6294     31.6850    215.4054   1.2605659523e+02   2.6340879647e+01     0.432093    0.1259577  41.76  0.002135554    2.760    0.638
        46  -7.6880    199.6750    214.3395   9.3750108809e+01   4.9292557632e-01    0.1195862   0.09920409  70.12 0.0003388849    1.727    0.421
        47  -7.7111    125.1053    212.7839   1.0798212820e+02   1.3691226786e+01    0.2766081    0.1623821 -46.04  0.001442653    2.136    0.532
        48  -7.2905    173.4995    212.5226   9.8421757140e+01   5.3360280769e+00    0.1307022    0.1113923  37.97 -2.420501e-05    1.014    0.013
        49  -8.1010     44.2094    211.7391   1.2353585275e+02   2.5615311335e+01    0.2471054    0.1662938  49.86  0.001663835    1.354    0.262
        50  -7.8632      2.7078    212.1191   1.3088531115e+02   2.9900459328e+01    0.1793797    0.1043429  59.71 0.0009863043    1.328    0.247
        51  -8.3158    135.5127    211.4826   1.0573747050e+02   1.2163200096e+01    0.1302084    0.1111444  51.07 0.0002457791    1.019    0.018
        52  -8.4456     96.6679    210.0363   1.1329158911e+02   1.8781841754e+01    0.3439293    0.1616288  69.05  0.001380736    3.274    0.695
        53  -8.6835     22.1342    209.5205   1.2738587000e+02   2.8504926072e+01    0.3025343    0.2300755  26.60  0.002162317    1.967    0.492
        54  -7.8124     76.3273    209.6630   1.1725373302e+02   2.1852466789e+01    0.2586303    0.1388222  77.19  0.001307672    2.137    0.532
        55  -8.2807     75.3302    206.3107   1.1711098118e+02   2.2655551603e+01    0.2908373    0.1740562  42.96  0.001669595    1.565    0.361
        56  -7.7203     56.7838    209.6986   1.2101915305e+02   2.4468247378e+01     0.262598   0.08563038  40.96  0.001208135    2.653    0.623
        57  -8.2967    215.4902    207.5054   8.9662552975e+01  -1.2394076340e+00    0.1282706     0.107854  20.08 -2.546983e-05    1.019    0.018
        58  -7.4711     85.6071    205.7414   1.1501067783e+02   2.1288144612e+01    0.1692765    0.1078589 -83.84 0.0009505546    1.629    0.386
        59  -7.7244     51.5339    205.9809   1.2170400013e+02   2.5867046724e+01    0.1729766    0.1000767 -77.63   0.00103129    1.592    0.372
        60  -8.1202     65.6711    213.0133   1.1962272470e+02   2.2658426886e+01    0.1706645    0.1312343  79.30 0.0006901656    1.089    0.081
        61  -6.8448      1.3152    205.6521   1.3081967715e+02   3.1266643189e+01    0.1169059   0.05321174  67.73 0.0007047456    1.723    0.420
        62  -8.5879    238.9653    204.3647   8.4921564650e+01  -4.7043901731e+00    0.2903332    0.1055307  41.69  0.001268424    2.562    0.610
        63  -7.5546    118.9312    204.7160   1.0814894765e+02   1.6225332891e+01    0.2002296    0.1025396  24.05 0.0007018941    4.137    0.758
        64  -7.1648     33.9404    205.0000   1.2494313738e+02   2.8129489454e+01    0.1697963   0.05735715  36.49 0.0008034092    2.949    0.661
        65  -8.5858     11.9891    204.0001   1.2886958775e+02   3.0599771451e+01    0.2976892    0.1320229  49.36  0.001817164    1.865    0.464
        66  -7.9683     59.0614    201.1481   1.1981693940e+02   2.5891645956e+01    0.2224695    0.1418489  50.26   0.00135936    1.389    0.280
        67  -6.7175     26.3045    201.3223   1.2610607034e+02   2.9692827530e+01   0.09957825   0.07959808 -61.11 0.0004372528    1.637    0.389
        68  -8.1320    230.3394    200.3090   8.5688962846e+01  -2.7484849046e+00    0.1343307   0.08642287  10.82 0.0004405011    1.687    0.407
        69  -8.2906    100.2078    199.4177   1.1129856023e+02   2.0315264224e+01    0.2312869    0.1766135 -69.76  0.001393941    1.361    0.265
        70  -7.6078     74.8224    199.3401   1.1648679925e+02   2.4133335165e+01    0.1685565    0.1104913  34.10 0.0009478297    1.769    0.435
        71  -8.0029     51.8365    198.2229   1.2097525018e+02   2.7404147037e+01    0.2850796    0.1161897  64.44  0.001265846    2.751    0.636
        72  -6.8898     41.9880    199.0000   1.2296382693e+02   2.8426677501e+01    0.1722128   0.05981804  36.65 0.0007928777    2.877    0.652
        73  -8.0352     80.9711    197.4645   1.1502742896e+02   2.3637200439e+01    0.1899856    0.1082727  45.99 0.0006406117    1.576    0.365
        74  -9.5597    247.8358    191.5765   8.1003417453e+01  -4.4537378788e+00    0.4405833    0.2811304  -1.78  0.002419308    1.672    0.402
        75  -7.3731    210.3560    192.6722   8.7914234285e+01   1.8297425400e+00    0.1260773    0.1071417  78.60 0.0007045213    1.778    0.438
        76  -7.6201     37.8748    192.3651   1.2322916063e+02   3.0267808580e+01    0.1445321     0.109504  29.50 0.0009460716    1.781    0.439
        77  -7.5391    224.4807    190.4920   8.4894967906e+01  -3.5707512922e-01    0.1332429    0.1120901  11.51 0.0002648802    1.029    0.028
        78  -7.7950     13.1065    190.2745   1.2785818559e+02   3.3253145638e+01    0.1490627    0.1360182  62.68  0.001190331    1.427    0.299
        79  -8.2923     80.3709    188.0211   1.1405188487e+02   2.5695625265e+01    0.2377388    0.2189985  47.72  0.001567666    1.297    0.229
        80  -7.8219     68.2702    189.2158   1.1674353944e+02   2.7151724162e+01    0.2012047   0.07440601  47.38 0.0008828612    2.394    0.582
        81  -7.8780     44.6218    188.6905   1.2156702033e+02   3.0264232692e+01    0.1089508   0.08988786 -43.75 0.0007027536    1.788    0.441
        82  -7.4161      1.4381    187.4731   1.2987524215e+02   3.4868393455e+01    0.1098009   0.07848104  82.99 0.0001117277    1.035    0.034
        83  -7.4233     22.6920    186.3285   1.2575037749e+02   3.3143894202e+01    0.1235701   0.06495196  69.68    0.0007039    1.659    0.397
        84  -7.9437     13.1505    180.9359   1.2724595352e+02   3.5190205308e+01    0.2185898    0.1567333   1.19   0.00136022    2.733    0.634
        85  -7.3180     30.6605    193.7011   1.2474133471e+02   3.0783265438e+01    0.1016195   0.08401773 -55.19 0.0002828366    1.663    0.399
        86  -8.0414     15.8519    170.8725   1.2598691848e+02   3.7091864912e+01    0.1702441    0.1348645 -77.09  0.001222424    1.248    0.199
        87  -7.7463     27.9784    169.0139   1.2328465550e+02   3.6338852938e+01    0.2024283    0.1111427  70.06  0.001131815    1.702    0.412
        88  -7.5986      2.1587    169.5943   1.2868736006e+02   3.8535811770e+01    0.1187003    0.1099434  17.44  0.000589978    1.649    0.393
        89  -7.8391     50.2480    137.7503   1.1448338281e+02   4.1115832486e+01    0.2209201   0.07819193 -56.81 0.0009025226    2.450    0.592
        90  -7.4645     81.4994     85.5264   9.4587157826e+01   4.9177022045e+01    0.1439826    0.1308452 -44.86 0.0008100984    1.004    0.004
        91  -7.6180     32.2629     40.4135   9.8574470832e+01   6.4911664678e+01    0.1484595    0.1144419  31.08 0.0009521853    1.579    0.367
