#   1 NUMBER                 Running object number                                     
#   2 MAG_AUTO               Kron-like elliptical aperture magnitude                    [mag]
#   3 X_IMAGE                Object position along x                                    [pixel]
#   4 Y_IMAGE                Object position along y                                    [pixel]
#   5 X_WORLD                Barycenter position along world x axis                     [deg]
#   6 Y_WORLD                Barycenter position along world y axis                     [deg]
#   7 A_WORLD                Profile RMS along major axis (world units)                 [deg]
#   8 B_WORLD                Profile RMS along minor axis (world units)                 [deg]
#   9 THETA_WORLD            Position angle (CCW/world-x)                               [deg]
#  10 FWHM_WORLD             FWHM assuming a gaussian core                              [deg]
#  11 ELONGATION             A_IMAGE/B_IMAGE                                           
#  12 ELLIPTICITY            1 - B_IMAGE/A_IMAGE                                       
         1 -14.3695    169.2398     37.5527   7.5263924675e+01   3.8377346768e+01     1.299973     1.016071  11.95     0.004389    1.360    0.265
         2 -13.5713    182.9544      6.8563   6.2569013547e+01   3.8170355898e+01     1.143901    0.6280203 -46.22  0.004910158    1.989    0.497
         3 -12.9655    188.2186      4.1031   6.1009069634e+01   3.7021698258e+01    0.6909304    0.4608276 -30.00   0.00337417    1.479    0.324
         4 -13.3969    137.8797    198.5636   1.2020656116e+02   1.7499508561e+01    0.5976459    0.3209781  58.23   0.00311654    2.217    0.549
         5 -19.1056     71.7911    240.4600   1.3565528991e+02   2.0147304613e+01     5.366477     4.214938  64.69   0.03911367    1.130    0.115
         6 -11.1252    175.0884    193.7169   1.1262046212e+02   1.2240510938e+01    0.2599787    0.1612342 -62.45  0.001321112    2.962    0.662
         7 -10.8258    180.0205    192.4404   1.1152267176e+02   1.1598114908e+01     0.194555    0.1751886 -72.68 0.0007132457    1.575    0.365
         8 -12.4417    155.3004    196.7411   1.1671357338e+02   1.5032748211e+01    0.3635591    0.2422972  87.03  0.001815298    3.138    0.681
         9 -12.4542    167.2466    190.7873   1.1361834629e+02   1.3945153089e+01    0.3534278    0.2567616  36.03  0.001793375    1.152    0.132
        10 -18.8247     56.9698     92.2379   1.2236986115e+02   5.0129947309e+01     17.08763    0.6855593 -61.02   0.02327065   22.416    0.955
        11 -10.5796     21.5290    234.5400   1.4313619897e+02   2.6218166701e+01   0.09060763   0.06382062  63.53 0.0002177946    1.056    0.053
        12 -11.1316    176.6640    188.0660   1.1144649062e+02   1.2758584109e+01    0.2160014    0.1759328 -40.49 0.0009769957    1.479    0.324
        13 -10.7787    184.2856    186.6305   1.0981163135e+02   1.1670534198e+01    0.2320463    0.1360208  34.10  0.001101681    1.476    0.322
        14 -10.1120     38.7154    185.8391   1.3777946239e+02   3.2561383435e+01    0.1387405    0.0875928  67.12  0.000262203    1.299    0.230
        15 -11.1129     25.7084    232.1627   1.4240938136e+02   2.6183370495e+01    0.1140593   0.08835102  74.49 0.0006843355    1.205    0.170
        16 -12.1515    205.5072    180.4775   1.0492856868e+02   8.8586423346e+00    0.4653728    0.2389335  41.32  0.001965544    1.682    0.406
        17 -12.3932    208.5205    178.5061   1.0404280960e+02   8.5912673708e+00     0.404239    0.2982026  25.48  0.002136771    1.134    0.118
        18 -10.7147    198.7512    222.7600   1.1274055692e+02   4.9510552445e+00     0.141747     0.112849  43.01 0.0004916433    1.323    0.244
        19 -12.5742    195.9758    171.2397   1.0498749471e+02   1.1748567846e+01    0.6494812     0.367877 -44.60  0.003013367    2.232    0.552
        20 -12.5028    143.8967    168.0460   1.1457509661e+02   2.1421464743e+01    0.4530761    0.2847938  70.56  0.002124665    2.585    0.613
        21 -13.7989    137.5868    171.7065   1.1644611334e+02   2.1862275414e+01    0.7709114    0.3869407  49.79  0.003172057    1.919    0.479
        22 -10.8952     25.3878    165.6251   1.3900757275e+02   3.7603133922e+01    0.3451411    0.1965118  10.51  0.001888632    3.517    0.716
        23  -9.7942    201.6168    165.2966   1.0283846632e+02   1.1553173492e+01    0.1220355    0.1030863  71.47  0.000701908    1.767    0.434
        24 -10.7203    223.7717    163.9037   9.8626679720e+01   7.7634052783e+00    0.2034629    0.1711377 -37.42 0.0005592679    1.537    0.349
        25 -12.3594    158.8748    234.7841   1.2088925653e+02   9.4713757804e+00    0.3229947    0.1756781  43.20  0.001122845    1.393    0.282
        26 -10.5452     20.6361    219.0441   1.4266569877e+02   2.8673049631e+01    0.1562568   0.07280109  58.96  0.001034586    1.575    0.365
        27 -12.5097    168.3178    233.3158   1.1915275827e+02   8.2784202699e+00     0.297418    0.1805303  48.38  0.001154535    1.463    0.316
        28 -11.7728    163.0864    155.2918   1.0839695425e+02   2.0153132557e+01    0.2802239    0.2450756 -60.15  0.001116051    1.383    0.277
        29 -11.0475    163.6763    210.0587   1.1702303517e+02   1.1865769441e+01    0.1566353    0.1355188  28.19  0.001083131    1.116    0.104
        30 -14.0090    132.7855    145.4479   1.1301280398e+02   2.7378135813e+01    0.8981043    0.5524822 -62.90  0.003637455    2.043    0.511
        31 -11.0390     14.0656    151.2257   1.4038657963e+02   4.1379222279e+01    0.2399487    0.1835716 -19.41  0.001706996    2.198    0.545
        32 -10.6970    174.8448    148.9500   1.0477245670e+02   1.8984689244e+01    0.2336597    0.1975896 -65.18 0.0008415107    1.569    0.363
        33 -10.9986     30.1885    205.7656   1.4047857635e+02   2.9935885879e+01    0.1127243    0.1070994  84.60 0.0003968572    1.484    0.326
        34 -12.8811    144.6730    145.6972   1.1044892165e+02   2.5200279518e+01    0.4494454    0.3535521  66.66  0.002489724    1.490    0.329
        35 -11.6410    158.4510    204.3521   1.1718992247e+02   1.3454945213e+01     0.275864    0.1852254  62.81  0.001640956    1.908    0.476
        36 -12.8472    105.6463    138.2164   1.1793054926e+02   3.3347785921e+01    0.4385445     0.283112  62.80   0.00068744    1.805    0.446
        37 -12.6994    115.4582    138.1375   1.1561439340e+02   3.1766264294e+01    0.4648533     0.297726 -37.95  0.002329898    1.864    0.463
        38 -11.4647     20.5575    141.1656   1.3826672898e+02   4.2898154146e+01    0.1766785    0.1260041  59.62 0.0003994714    1.284    0.221
        39 -12.7129      5.4284    139.3391   1.4148814982e+02   4.4415497312e+01    0.7766254    0.2816168 -85.84  0.001337981    2.360    0.576
        40 -12.4362      2.9773    112.4841   1.4019824755e+02   5.0200930513e+01    0.4036849    0.2710898 -68.30   0.00216468    1.298    0.229
        41 -11.9576     10.8516    110.8319   1.3804577119e+02   5.0061094385e+01     0.311208    0.1834808   5.55  0.001763523    2.666    0.625
        42 -13.0117      2.6279    126.3650   1.4128536175e+02   4.7279945343e+01    0.5592284    0.2368253 -68.49  0.003242378    1.917    0.478
        43 -12.7357      2.2642    121.9984   1.4107338759e+02   4.8219499390e+01    0.4220902    0.2744794 -58.22  0.002172655    1.589    0.370
        44 -11.6009    163.3962    203.7352   1.1621093895e+02   1.2760049879e+01    0.2349739    0.2220059  -2.38  0.000929527    1.236    0.191
        45 -12.4603    106.0364    130.7995   1.1650654199e+02   3.4800342938e+01    0.3846025    0.3151428 -75.95  0.001216868    1.281    0.219
        46 -11.6389    108.8845    124.9926   1.1470050466e+02   3.5531950981e+01    0.2760854     0.245697  -9.61 0.0008991879    1.348    0.258
        47 -12.5892    119.7055    129.0745   1.1288313155e+02   3.2854354120e+01    0.3658156    0.3508028 -80.41  0.001213882    1.050    0.047
        48 -12.7292    125.1868    126.6522   1.1108302329e+02   3.2368063662e+01    0.5473605    0.3647819  88.56  0.002365208    2.599    0.615
        49 -12.6327    135.7349    122.3948   1.0767315420e+02   3.1254633997e+01    0.6700025    0.2445852 -51.48  0.002336765    3.184    0.686
        50 -11.1260    160.7846    127.6898   1.0319168660e+02   2.5354666915e+01    0.2922097    0.2017778 -50.66  0.001436814    1.649    0.394
        51 -11.4620     99.5746    126.8781   1.1736416427e+02   3.6644596451e+01    0.2627147    0.1870757  50.02 0.0008133031    1.408    0.290
        52 -11.3291    113.9684    118.3607   1.1207961313e+02   3.6038756360e+01     0.244817    0.1983205 -44.29  0.000403231    1.254    0.202
        53 -11.0927    116.1448    115.1878   1.1084770271e+02   3.6311603193e+01    0.2566682    0.1837765  59.44 0.0008775239    1.578    0.366
        54 -12.5950     27.6336    118.2550   1.3446390689e+02   4.7183575165e+01    0.3053086    0.1991565 -41.99  0.001243669    1.930    0.482
        55 -13.3118     29.3973    112.4529   1.3334951688e+02   4.8310110265e+01    0.4493259    0.3063954   2.47  0.002711195    2.261    0.558
        56 -11.0183    167.5486    113.0747   9.8278045009e+01   2.6549656736e+01    0.4361552     0.312166  78.82  0.001910485    2.286    0.562
        57 -10.5764    132.2904    129.3371   1.0996756255e+02   3.0547117295e+01    0.1376426    0.1088727  -5.99 0.0003232691    1.639    0.390
        58 -11.6401    160.9477    198.2885   1.1589025972e+02   1.3906495732e+01    0.2319285    0.1930055  73.99  0.001231879    1.556    0.357
        59  -9.7712    169.0072    202.5445   1.1503134099e+02   1.2029359649e+01    0.1751378   0.09600306  41.66 4.759679e-05    1.484    0.326
        60 -10.6322    205.5399    110.1728   8.9952900148e+01   1.8821050869e+01    0.2600072     0.199361  40.84 0.0006321163    1.281    0.219
        61 -11.2580     41.8152     91.9692   1.2689952445e+02   5.1793317403e+01    0.1868906    0.1791671  79.28 0.0004729818    1.176    0.149
        62 -10.9442     96.6325     80.1654   1.0750367035e+02   4.7121263003e+01       0.3844    0.2000491  48.55  0.001641271    2.198    0.545
        63 -10.3490    117.8088     67.0560   9.7439530283e+01   4.5781092932e+01    0.2178652    0.1975511 -60.46 0.0003540324    1.232    0.188
        64 -10.1661     13.6322     59.8854   1.3058193545e+02   6.1262517147e+01    0.1717844    0.1181574 -69.18  0.000470701    1.146    0.128
        65 -14.1528    157.1074     53.1168   8.3028361434e+01   3.9219109349e+01     1.438358     1.028811  31.26  0.004180931    1.482    0.325
        66 -10.9965    197.0831    246.3742   1.1607465646e+02   2.7679531418e+00    0.1639145    0.1242715   8.01  0.001062841    1.385    0.278
        67 -12.5851    172.9315     30.4556   7.2158067417e+01   3.8316309196e+01    0.4510764    0.3623826  17.31 0.0009476177    1.292    0.226
        68 -10.6446    135.4031     30.3088   7.9567224854e+01   4.7922821958e+01    0.2737786    0.2416051  85.06  0.001093782    1.382    0.277
        69  -9.2932     13.4620    245.0991   1.4468070230e+02   2.5415338168e+01    0.2237417   0.06578559 -72.01  0.001414128    3.467    0.712
