#   1 NUMBER                 Running object number                                     
#   2 MAG_AUTO               Kron-like elliptical aperture magnitude                    [mag]
#   3 X_IMAGE                Object position along x                                    [pixel]
#   4 Y_IMAGE                Object position along y                                    [pixel]
#   5 X_WORLD                Barycenter position along world x axis                     [deg]
#   6 Y_WORLD                Barycenter position along world y axis                     [deg]
#   7 A_WORLD                Profile RMS along major axis (world units)                 [deg]
#   8 B_WORLD                Profile RMS along minor axis (world units)                 [deg]
#   9 THETA_WORLD            Position angle (CCW/world-x)                               [deg]
#  10 FWHM_WORLD             FWHM assuming a gaussian core                              [deg]
#  11 ELONGATION             A_IMAGE/B_IMAGE                                           
#  12 ELLIPTICITY            1 - B_IMAGE/A_IMAGE                                       
         1 -13.5558    220.0740     57.4885   3.5691968509e+02   2.5382606428e+01     1.553652     1.137176  35.16  0.008141043    2.127    0.530
         2 -13.2041    240.6257     45.1031   3.5266523199e+02   2.3380409559e+01    0.9249218    0.7087181 -38.63  0.003341075    1.216    0.178
         3 -10.8324      2.6790     22.8946   5.1704549843e+01   7.5351157047e+01    0.3527035    0.1732223 -43.15  0.001211913    1.817    0.450
         4  -8.7124    189.4592     15.4769   3.4966919247e+02   3.6534993426e+01    0.1225534   0.09736732 -62.34 9.205388e-05    1.005    0.005
         5 -10.5375      2.5983      9.2427   4.4481174163e+01   7.8041922139e+01    0.3327988    0.1568591 -38.29  0.001656748    2.033    0.508
         6  -8.7848    148.4998      8.5061   3.5114472603e+02   4.6443410606e+01    0.1278516     0.109329 -78.00 -0.0001604857    1.027    0.027
         7  -9.9264      2.5702      2.6208   3.9925353348e+01   7.9209829084e+01    0.2542793    0.1778599 -36.93  0.001586305    1.380    0.275
         8  -8.7079    147.0093    242.7563   4.4758415075e+01   5.5317614260e+00    0.1532272   0.08394626  24.45 0.0004286484    1.539    0.350
         9  -9.0939     75.0000    249.9707   6.1073680058e+01   1.2273860036e+01    0.2386196    0.1417027 -45.61  0.001368519    2.069    0.517
        10  -9.3689     74.9840    245.8077   6.0734685436e+01   1.3034401402e+01    0.2434871    0.1821743 -19.93  0.001515703    1.642    0.391
        11  -8.9023     51.7200    250.6036   6.6322769451e+01   1.4555941067e+01     0.173442   0.08469316  34.93 0.0009349003    1.560    0.359
        12 -11.2701     42.3569    249.0977   6.8323954163e+01   1.5756441693e+01    0.3152431    0.2053419  26.17 0.0004670906    1.309    0.236
        13 -13.8285     56.0858    235.6670   6.4294263749e+01   1.6983649046e+01      5.07374     3.728684 -21.04   0.01768533    1.766    0.434
        14 -13.9694      6.9254     72.9878   6.3093659704e+01   6.3128592475e+01      8.60533    0.3483029 -70.14   0.01741042    8.039    0.876
        15  -9.8284    148.3759    229.3602   4.2724734696e+01   7.5321493039e+00    0.2689289    0.1207382 -55.12  0.001253676    2.960    0.662
        16 -10.1095     45.5734    230.0279   6.6388828086e+01   1.9206877233e+01    0.4837251     0.242163  11.36   0.00203858    2.435    0.589
        17  -9.2039    104.4215    223.7646   5.1722278731e+01   1.3826380594e+01    0.1698489    0.1149144 -41.26 0.0006181573    1.636    0.389
        18 -11.9238    104.8970    228.7825   5.2197019561e+01   1.2815733683e+01     0.843052     0.217667  28.53  0.003069811    3.230    0.690
        19 -11.1695     96.8508    224.5929   5.3595564717e+01   1.4580511903e+01    0.5770973    0.3400885 -42.76  0.003041496    1.930    0.482
        20 -11.3879     82.2458    222.1273   5.6824745299e+01   1.6809157932e+01    0.6450939    0.2863659  41.41  0.002955559    2.033    0.508
        21 -10.1924     72.0759    226.0189   5.9671502721e+01   1.7189450310e+01    0.3650866    0.2152422  39.28  0.001643264    1.458    0.314
        22 -10.5608    173.5839    224.3853   3.6971342119e+01   5.4160755364e+00    0.3666812    0.1867421  10.20  0.001594939    2.277    0.561
        23  -9.1078     32.8283    222.0911   6.8970453475e+01   2.2136365801e+01    0.2102539    0.1675095 -77.71 0.0009991733    1.379    0.275
        24 -10.6385     87.6596    220.9358   5.5386647701e+01   1.6408836008e+01    0.7573044    0.4338723  75.40  0.003315776    3.048    0.672
        25  -9.0819     95.8233    211.6658   5.2326959367e+01   1.7304331381e+01    0.2628558    0.1533211  86.04  0.001082748    3.263    0.694
        26 -10.1536    103.7506    202.9776   4.9255693809e+01   1.8093694379e+01     0.246339    0.2285493 -31.19 0.0003721335    1.142    0.124
        27  -9.4074    211.4184    198.8353   2.6149494048e+01   4.9973665788e+00    0.2732952    0.1551933  16.82  0.001459133    1.880    0.468
        28  -9.6299    115.3528    192.2229   4.4843652010e+01   1.8781488285e+01      0.23581    0.1247986 -53.72 0.0007403981    1.990    0.497
        29  -8.6977    207.5269    189.9908   2.5321267590e+01   6.7876347349e+00    0.1814767   0.09805448 -35.28  0.001020747    1.575    0.365
        30 -11.3007    107.8159    189.1619   4.6263715409e+01   2.0497977804e+01    0.4146733    0.2975031   8.19  0.002118024    1.538    0.350
        31 -13.8164     13.2311    247.9157   7.4718244876e+01   1.8624972205e+01      2.31561    0.9462095 -74.94   0.01210255    2.711    0.631
        32 -14.2212      7.9995    238.0395   7.5544492242e+01   2.1004816832e+01     1.651555    0.9035418  42.33  0.009838234    1.395    0.283
        33 -10.1418    101.5187    185.2293   4.7290962125e+01   2.2257475549e+01    0.2533745    0.1840258  29.48 0.0005224354    1.295    0.228
        34  -8.9835     64.1914    183.0414   5.7202072294e+01   2.7764380585e+01     0.212692    0.1697119  62.40 0.0003939402    1.278    0.218
        35 -10.0596    116.0016    182.0229   4.3075813800e+01   2.0876447669e+01    0.2208105    0.2056264  -0.10 0.0008227378    1.030    0.029
        36 -14.1624      3.6642    213.2570   7.5723579624e+01   2.6610142156e+01     1.731046    0.8632093  39.40  0.005130509    1.601    0.375
        37 -11.2916     58.0612    172.0518   5.7646854154e+01   3.1257003807e+01    0.6162948    0.3152576  87.71  0.001784982    2.828    0.646
        38  -9.8762     74.0522    173.4587   5.3128091920e+01   2.8850996674e+01    0.3024473    0.2250967 -79.22 0.0004590706    1.482    0.325
        39 -11.3327    233.4463    168.1650   1.7474854274e+01   6.9718914737e+00    0.4205404    0.3094435 -59.55  0.001675057    2.171    0.539
        40  -9.1777    110.3877    167.0387   4.1982632818e+01   2.5078476939e+01    0.2363882    0.1959619  62.09 0.0003862225    1.397    0.284
        41  -8.6439    101.6094    167.1924   4.4369862557e+01   2.6397566766e+01    0.1996069     0.131543 -44.72  0.000264232    1.566    0.361
        42  -9.3023    179.8620    165.6086   2.5898140587e+01   1.4547148937e+01    0.2219793    0.1438278 -43.99   0.00117557    1.465    0.318
        43 -12.4438     66.5173    122.5986   4.6874726232e+01   4.3136921938e+01     1.382693     1.087859 -84.39  0.005042552    1.397    0.284
        44 -12.8622     55.4646    108.2365   4.7909573737e+01   4.8598717359e+01      1.81829    0.8151741 -64.85  0.003160312    2.312    0.568
        45 -14.2556     68.6013    148.6218   5.0999899199e+01   3.5942367455e+01     1.986149     1.379839  84.62  0.001660319    1.756    0.430
        46 -12.7678     53.0769    144.3789   5.5435723763e+01   3.9147460787e+01    0.6218947     0.433951 -16.81  0.001292791    1.888    0.470
        47 -11.2762     49.4714    160.4591   5.8838933339e+01   3.5290970709e+01    0.5163266    0.3547518  -5.40  0.001874819    1.904    0.475
        48 -11.3650     55.4437    156.5803   5.6427023932e+01   3.5592713824e+01    0.4684249    0.3320309 -60.12  0.001123529    1.406    0.289
        49 -10.1200    239.9223    159.8694   1.5098535007e+01   7.4073602329e+00    0.1765411    0.1251776 -18.69 0.0004989483    1.235    0.190
        50 -12.4754    235.6887    156.1393   1.5008202675e+01   8.4679387469e+00    0.8286126    0.3274533 -29.02  0.003832603    2.572    0.611
        51  -8.3861    134.3173    148.9807   3.2409830776e+01   2.5191014849e+01    0.2333114    0.1216805 -69.10 0.0007048555    4.293    0.767
        52  -9.0677     86.3901    147.2236   4.5191312279e+01   3.3645322563e+01    0.2243554    0.1976253  18.80 0.0003519852    1.184    0.155
        53  -9.2671     35.4265    146.4717   6.1729458457e+01   4.0604570422e+01    0.2475275    0.2013975 -77.38 0.0001218006    1.185    0.156
        54  -9.9549     36.8489    142.6525   6.0763403598e+01   4.1499765377e+01    0.3057406    0.2362117 -78.32 0.0007385262    1.254    0.203
        55 -14.5869     10.0702    206.8470   7.3869683942e+01   2.7553663118e+01     2.878138    0.8835256  19.33  0.008624391    3.265    0.694
        56  -9.7689    248.9798    141.2771   1.0580073647e+01   8.9748469779e+00    0.1582102    0.1254668 -28.06 0.0007883412    1.078    0.072
        57 -10.2928    108.7741    144.9995   3.8235113898e+01   3.0503683940e+01    0.4284255    0.2720052 -61.65   0.00188297    1.723    0.420
        58  -9.4630     46.6969    138.0629   5.6676826731e+01   4.1645998826e+01    0.2103242     0.189309 -79.70 0.0004315783    1.077    0.072
        59 -10.5182     94.2463    133.5935   4.0077075870e+01   3.5776659894e+01    0.5496012    0.4404624 -48.97  0.002509719    1.239    0.193
        60  -8.9498     25.5189    128.4911   6.3063975578e+01   4.6531072790e+01    0.2620899     0.173724  89.96 0.0006039687    1.531    0.347
        61  -9.1942     33.9393    132.9749   6.0523076545e+01   4.4469338156e+01    0.2142217    0.2041017 -88.30 0.0003126617    1.018    0.017
        62  -9.6742    105.5250    130.8541   3.6134940498e+01   3.4458486995e+01    0.4342823    0.2816319 -59.17  0.001232476    1.612    0.380
        63  -9.2331    105.7603    126.3897   3.5054033580e+01   3.5485968242e+01    0.2804197    0.2348445  21.59 0.0007442984    1.304    0.233
        64 -10.2817     43.2596    131.3926   5.6883911292e+01   4.3881465282e+01    0.3050413    0.2725991 -11.96 0.0009460286    1.253    0.202
        65  -8.6959    141.9962    132.9859   2.7132023075e+01   2.7259992355e+01    0.3905857    0.1931296 -65.16  0.001165209    4.406    0.773
        66  -9.0308     30.7877    128.9541   6.1143446461e+01   4.5902116206e+01    0.2519188    0.2104679  32.63 0.0006329291    1.227    0.185
        67  -9.9904     27.4583    133.0751   6.2913967458e+01   4.5079256478e+01    0.3678012    0.2298788  81.49 0.0004206203    1.723    0.420
        68 -10.3937     31.1112    121.9120   6.0021264492e+01   4.7826097975e+01    0.3711403    0.3204172 -58.19 0.0006439283    1.130    0.115
        69  -9.4240     35.5035    124.0110   5.8641148840e+01   4.6788637958e+01    0.3017422    0.1647804  49.15 0.0009371966    1.947    0.486
        70  -9.7461     38.1574    121.6260   5.7243550077e+01   4.7159214627e+01    0.3537206    0.2768484 -81.26  0.000828321    1.267    0.211
        71  -9.6008     48.7723    123.1827   5.3469857525e+01   4.5462522041e+01    0.2555594    0.2251498 -10.83  0.000605068    1.272    0.214
        72  -8.7589    116.7689    120.5552   3.0580526482e+01   3.4777509796e+01    0.2130007    0.2033726  -1.66 0.0004824945    1.105    0.095
        73 -10.0379     92.7230    121.2549   3.7795634638e+01   3.9110412994e+01    0.3908524    0.2917366 -12.57  0.001728538    1.814    0.449
        74  -9.1278    103.9293    115.9998   3.3111540520e+01   3.8306464972e+01    0.2213542    0.2187589 -63.59 0.0003296414    1.010    0.010
        75 -10.3179    244.0053    114.6579   6.1909780360e+00   1.3450318487e+01    0.2106299    0.1257197 -43.58  0.001141674    1.338    0.253
        76  -8.5815     19.9407    108.9876   6.2667492831e+01   5.2442097877e+01    0.2329274    0.1548457  56.46 0.0004684339    1.617    0.382
        77 -10.2199     24.1845    105.2179   6.0275812072e+01   5.3118153062e+01    0.3128998    0.2729397 -37.78 0.0007653909    1.180    0.152
        78  -8.7776     67.0000    104.9609   4.2716898597e+01   4.7684606577e+01    0.2597952    0.0867319 -57.57 0.0008020296    2.940    0.660
        79  -9.3082     45.9977    103.9999   5.0789158844e+01   5.1034552879e+01    0.2547054    0.1756421  65.73  0.001110751    1.748    0.428
        80  -9.4172     19.6704    101.3148   6.1627878308e+01   5.4585889140e+01      0.24076    0.2063626 -83.96 0.0003718315    1.130    0.115
        81 -11.8814     78.8052    132.0984   4.4640938841e+01   3.8724287416e+01    0.6401465    0.5591269   8.75  0.003268877    1.266    0.210
        82  -9.5352     46.1402     87.8485   4.6905751058e+01   5.5278504686e+01    0.2277104    0.1989263  64.59 0.0005156399    1.248    0.199
        83 -10.5234     23.6002     86.1433   5.7048795022e+01   5.8361881200e+01    0.4839074     0.266563  53.50  0.001643665    2.218    0.549
        84  -9.3452     39.6533     86.4225   4.9481010804e+01   5.6512160712e+01    0.3521199     0.222444  59.48  0.001198209    2.018    0.504
        85  -9.2221     33.5933     82.2496   5.1303417382e+01   5.8337165092e+01    0.2660298    0.2109755  62.91  0.001154166    1.445    0.308
        86  -7.9951     15.6367     82.7729   6.0333200718e+01   5.9943360073e+01    0.1447668   0.09793834 -28.76 0.0005838376    1.580    0.367
        87  -8.8069    219.6291     79.6962   1.7955146623e+00   2.2362373287e+01    0.1144045   0.09285355   2.38 0.0001387554    1.753    0.430
        88  -7.9284    141.2970     78.6762   1.3432338884e+01   3.8313743906e+01    0.1505679    0.1084745 -71.44 0.0003468526    1.624    0.384
        89  -8.1680     81.2498     77.9958   2.9766102668e+01   5.1602309379e+01    0.1891539    0.1293054 -48.69 0.0002331581    1.462    0.316
        90  -9.0761     70.2094     76.7481   3.3488052073e+01   5.4033262076e+01    0.3897848    0.2553694  87.01   0.00145649    2.816    0.645
        91 -10.2336     34.4853     74.4295   4.8808124770e+01   6.0232033356e+01    0.5936396    0.2096661  43.62  0.001957041    3.369    0.703
        92  -9.6510     97.0517    244.7780   5.5683078613e+01   1.0800346656e+01    0.2451754    0.1852236 -68.17  0.001089259    1.688    0.408
        93  -8.2509     82.9808    245.9889   5.8946728259e+01   1.2135925042e+01    0.1452987    0.1210191  28.13 0.0003348151    1.019    0.018
        94  -9.1760    142.5363     68.6750   1.0298916786e+01   3.9799387453e+01    0.3931183     0.198847 -63.21  0.001406767    3.032    0.670
        95  -9.3588    139.0110     64.1650   9.6540019963e+00   4.1371902101e+01    0.4169027    0.2286192 -65.82  0.001614861    2.618    0.618
        96  -9.4878     64.0584     70.5081   3.3898262970e+01   5.6591887423e+01     0.219474    0.1462777  38.66 0.0004164265    1.498    0.333
        97  -8.3787     76.6623     67.3529   2.7848032922e+01   5.4832637598e+01    0.1571211    0.1194595  87.71 0.0007043857    1.798    0.444
        98  -8.9832     51.0676     61.5069   3.6489766307e+01   6.0893409264e+01    0.2527493    0.2068218 -78.32  0.001006273    1.497    0.332
        99 -14.0152     53.4191    217.0352   6.3485442287e+01   2.1141736998e+01     2.991586     1.614149 -84.07   0.01459298    2.241    0.554
       100 -10.4355     13.4413     60.2058   5.6536412488e+01   6.5947224283e+01    0.2488489    0.2294255 -49.82 0.0006082658    1.043    0.041
       101  -9.0876     73.1993     57.1890   2.5417640100e+01   5.7615101322e+01    0.2001166    0.1747522  85.47 0.0004769077    1.321    0.243
       102  -8.8490     45.2501     49.6860   3.4794448822e+01   6.4413385476e+01    0.3266853    0.2254888 -84.10  0.001403315    2.553    0.608
       103 -11.5337    232.0206     50.5042   3.5441167314e+02   2.4175753367e+01    0.3290153    0.3094239  25.95  0.001150111    1.530    0.346
       104 -13.2643     16.3407    180.9849   7.0813574936e+01   3.3265670565e+01     1.410845    0.7613084 -18.85 0.0007204538    2.952    0.661
       105  -8.4180    108.6399     39.6956   7.9767096908e+00   5.2464129028e+01     0.146634    0.1063434  32.27 0.0006463822    1.727    0.421
       106  -9.2398     72.6158    232.3683   6.0121588859e+01   1.5856497496e+01    0.2527303    0.2131426 -50.21  0.001190029    1.383    0.277
       107 -13.0796     30.9231    156.2422   6.4324532716e+01   3.8410183220e+01     2.334792     1.367005  36.31  0.007470236    1.611    0.379
       108  -8.4339    130.5294     22.5363   3.5780368383e+02   4.9309732527e+01    0.1358652    0.1183871 -80.24 0.0001830973    1.026    0.025
       109  -9.4497     60.6181     21.5343   1.4326872739e+01   6.6267354053e+01    0.2396825     0.224875  76.00 0.0006405947    1.155    0.134
       110 -15.2716     28.2804    173.5806   6.6761948907e+01   3.4094865164e+01     5.296432     2.937673  57.43   0.02444758    1.784    0.439
       111  -9.0425     75.1813     18.7954   7.9490976584e+00   6.3287824728e+01    0.2982573    0.1795034 -76.12   0.00124775    2.745    0.636
       112 -11.8133    126.9651    230.3881   4.7430065143e+01   9.8887477082e+00     0.536992    0.2767421  27.10  0.002802162    1.669    0.401
       113 -10.2268     35.7570    243.3805   6.9493775974e+01   1.7485896112e+01    0.3408363    0.2517394 -11.88  0.002113062    1.793    0.442
       114  -9.3386     29.8132    240.7432   7.0710377920e+01   1.8560932870e+01    0.3901261    0.2208652 -30.32  0.001936345    2.931    0.659
