#   1 NUMBER                 Running object number                                     
#   2 MAG_AUTO               Kron-like elliptical aperture magnitude                    [mag]
#   3 X_IMAGE                Object position along x                                    [pixel]
#   4 Y_IMAGE                Object position along y                                    [pixel]
#   5 X_WORLD                Barycenter position along world x axis                     [deg]
#   6 Y_WORLD                Barycenter position along world y axis                     [deg]
#   7 A_WORLD                Profile RMS along major axis (world units)                 [deg]
#   8 B_WORLD                Profile RMS along minor axis (world units)                 [deg]
#   9 THETA_WORLD            Position angle (CCW/world-x)                               [deg]
#  10 FWHM_WORLD             FWHM assuming a gaussian core                              [deg]
#  11 ELONGATION             A_IMAGE/B_IMAGE                                           
#  12 ELLIPTICITY            1 - B_IMAGE/A_IMAGE                                       
         1 -13.3284    206.8459      3.1180   6.0716856065e+01   3.2099050141e+01     1.063954    0.6166323  70.05   0.00302167    1.535    0.349
         2 -14.1039    185.3094     26.7288   6.9838969555e+01   3.5232454286e+01      1.66145     1.198317  -1.17  0.005271066    1.790    0.441
         3 -13.9508    192.4430     19.7130   6.6840770993e+01   3.4138753106e+01     1.672431     1.052007 -32.36  0.006737406    1.660    0.398
         4 -12.8897    199.1118     11.7995   6.3835621231e+01   3.3231456010e+01    0.5903046    0.5544444  34.92  0.001170273    1.233    0.189
         5 -11.4876     40.8785      3.3272   9.8751929980e+01   7.0196329627e+01    0.3087863     0.120588 -32.77  0.001503311    2.359    0.576
         6  -9.5139     93.5168    178.4843   1.2963465914e+02   2.6780849560e+01    0.3466247     0.155825  59.00  0.001360314    2.787    0.641
         7 -12.9391    183.7170    249.6743   1.2113392715e+02  -6.0739244339e-01      1.24601    0.1750265  38.59  0.003218466    7.171    0.861
         8 -13.5024    139.4860    247.8549   1.2898730990e+02   6.7745787067e+00    0.8606749    0.3987898  45.43  0.004623901    1.640    0.390
         9 -14.6637     52.9461    223.5776   1.4273914220e+02   2.3479257668e+01     2.074228    0.9326249 -54.55  0.005906049    3.083    0.676
        10 -16.4696     50.7510    202.8057   1.4152329182e+02   2.7719348459e+01     8.865034     3.163774  56.26    0.0404178    2.682    0.627
        11 -11.5875     87.0688    173.2633   1.3039418033e+02   2.8905023721e+01    0.3333088    0.2386095  63.42 0.0003314494    1.333    0.250
        12 -13.4046     75.1107    170.1477   1.3276883765e+02   3.1353981336e+01    0.4816915    0.2936418 -45.23  0.001690298    2.108    0.526
        13 -13.4302     55.7871    144.0873   1.3397587219e+02   3.9789706946e+01     0.802898    0.4755433 -61.33  0.004262712    1.549    0.355
        14 -13.8988     58.2956    130.9979   1.3133548560e+02   4.2515439112e+01     2.161002     0.764243 -74.77  0.006620545    4.675    0.786
        15 -14.0158     89.0235    163.9088   1.2856407356e+02   3.0648587400e+01     4.788473    0.7923489  46.28  0.002454108    6.292    0.841
        16 -13.5382     67.7387    144.3277   1.3090774979e+02   3.8200026230e+01    0.9685724    0.5976025  82.00   0.00466232    1.984    0.496
        17 -10.5968    104.4735    148.5041   1.2211904140e+02   3.1524359601e+01    0.2744536    0.2597287 -86.16 0.0007816764    1.049    0.047
        18 -10.0195    106.4718    145.0097   1.2094652765e+02   3.1955687343e+01    0.3274813    0.2186237 -34.53 0.0009984798    1.951    0.487
        19 -12.3196     93.2905    148.0422   1.2489809289e+02   3.3524915911e+01    0.2750909    0.2675054  18.54 0.0004633031    1.200    0.166
        20 -10.3401    134.1550    146.4628   1.1426739005e+02   2.6348236222e+01    0.7491348    0.1559606 -52.36  0.001728076    6.462    0.845
        21 -10.1931    113.5900    134.9067   1.1704646277e+02   3.2919351959e+01    0.3203719     0.242063 -23.76 0.0009760468    1.755    0.430
        22 -11.8932     70.8490    134.7258   1.2851807084e+02   3.9998215561e+01    0.4139527    0.2215183  44.00   0.00195344    1.895    0.472
        23 -10.9598    101.3143    131.8035   1.1966672114e+02   3.5865914792e+01    0.2835373    0.2352462 -29.57 0.0004690888    1.429    0.300
        24 -14.0723     10.4121    206.5307   1.4942250051e+02   3.1307280911e+01     1.336928    0.5267497  26.04  0.006174855    3.863    0.741
        25 -10.0686    160.8234    127.9562   1.0361650481e+02   2.4467163937e+01    0.2612828    0.1843476 -70.47  0.001091491    2.016    0.504
        26  -9.4995    118.6620    127.6735   1.1411271147e+02   3.3558469527e+01    0.1531718    0.1212044  -5.36 0.0007051613    1.727    0.421
        27  -9.7855    109.4951    122.5103   1.1540517921e+02   3.6484231289e+01    0.2331761    0.2298573  60.85 0.0001978727    1.036    0.035
        28 -17.2860      5.7607    180.6742   1.4888496246e+02   3.6817640110e+01      17.1937     2.034172 -78.14   0.04892877    7.882    0.873
        29 -12.3158     50.0822    153.2778   1.3662645491e+02   3.8370823045e+01    0.5059433    0.2979465 -87.11  0.002658921    1.718    0.418
        30 -11.4823     44.9846    113.9919   1.3233232965e+02   4.8006812615e+01     0.304386    0.1657877  88.07  0.001331529    2.583    0.613
        31 -10.8525    168.2247    113.0431   9.8138217640e+01   2.5710195130e+01    0.3870217    0.3131633 -85.28 0.0009957119    1.598    0.374
        32 -10.6324    227.1699    202.6266   1.0566181587e+02  -1.7517546095e+00    0.2480519    0.2086975 -41.66 0.0008177744    1.590    0.371
        33  -9.3089    205.5153    110.4551   8.9710254837e+01   1.7301394530e+01    0.1515595    0.1443008   9.89 0.0001020346    1.033    0.032
        34 -10.6959     23.1527     93.4489   1.3563341048e+02   5.4700680234e+01    0.3557231    0.1695392  33.53  0.001855889    2.383    0.580
        35 -11.1884    248.8577    249.4023   1.0974838217e+02  -1.0465918206e+01    0.3120463    0.1507969  25.71  0.001826608    1.697    0.411
        36 -11.8554    162.1114    248.9455   1.2496783875e+02   2.9757351117e+00    0.3670947    0.1825689  33.65  0.001952529    1.786    0.440
        37 -11.2322    193.2107    195.2323   1.1077031079e+02   5.4230419006e+00       0.8118    0.4106877 -60.88  0.002402661    6.659    0.850
        38 -12.0408     74.9739    191.0658   1.3535003376e+02   2.6919832922e+01    0.3794759    0.2800577 -40.11  0.001732219    1.978    0.494
        39 -11.9266     79.2290    184.6825   1.3367167473e+02   2.7639471755e+01    0.2837474    0.2419051 -57.84  0.000684879    1.374    0.272
