#   1 NUMBER                 Running object number                                     
#   2 MAG_AUTO               Kron-like elliptical aperture magnitude                    [mag]
#   3 X_IMAGE                Object position along x                                    [pixel]
#   4 Y_IMAGE                Object position along y                                    [pixel]
#   5 X_WORLD                Barycenter position along world x axis                     [deg]
#   6 Y_WORLD                Barycenter position along world y axis                     [deg]
#   7 A_WORLD                Profile RMS along major axis (world units)                 [deg]
#   8 B_WORLD                Profile RMS along minor axis (world units)                 [deg]
#   9 THETA_WORLD            Position angle (CCW/world-x)                               [deg]
#  10 FWHM_WORLD             FWHM assuming a gaussian core                              [deg]
#  11 ELONGATION             A_IMAGE/B_IMAGE                                           
#  12 ELLIPTICITY            1 - B_IMAGE/A_IMAGE                                       
         1 -11.6692    228.3729     22.6876   3.4453976702e+01   2.6505181420e+01    0.7087523     0.542037 -62.94   0.00286932    1.093    0.085
         2 -12.1904    211.8674     37.3468   3.9219904428e+01   2.8249839270e+01    0.9270966    0.7996889 -58.51  0.006017976    1.133    0.118
         3 -10.4568      2.3235     22.8318   9.4138481958e+01   7.1099436340e+01     0.484705    0.1474182 -57.06  0.001990544    4.011    0.751
         4  -9.9191      2.0000     10.4944   8.9234896602e+01   7.3094551749e+01    0.4597347   0.08164436 -43.42  0.001851766    3.981    0.749
         5  -9.3185      2.0000      2.9979   8.5694525437e+01   7.4182968332e+01    0.2931008    0.1610488 -45.87   0.00185364    1.994    0.499
         6 -10.1202    248.6050      3.3718   2.9217272306e+01   2.4591620108e+01    0.3988585    0.2524158 -67.42  0.002574162    1.230    0.187
         7 -10.2756     58.9487    176.1205   1.0623310703e+02   3.1046514978e+01    0.4449583    0.3029521 -33.26  0.002167383    2.032    0.508
         8  -9.4932     81.5471    249.7482   1.0925718774e+02   1.1750723394e+01    0.2536283    0.1999083  55.54 0.0008261654    1.048    0.046
         9 -13.1749    112.3093    229.0815   1.0042530714e+02   1.1246828391e+01     7.417239     1.706784  32.24   0.01992353    5.670    0.824
        10 -10.1005     64.4103    170.8886   1.0408143508e+02   3.1603668420e+01    0.3419519    0.2766439 -27.84 0.0008440351    1.584    0.369
        11  -8.4123     95.0925    169.1804   9.5649450265e+01   2.7390573114e+01    0.2986504    0.1859991  11.27  0.001169026    2.647    0.622
        12 -10.2290     74.4630    161.7659   9.9970377349e+01   3.2442527986e+01    0.3629975    0.2861421 -51.07 0.0007282633    1.301    0.231
        13 -11.0276     81.7929    155.4460   9.6861273917e+01   3.2906238721e+01    0.8808011    0.4995731 -41.02  0.001150618    2.093    0.522
        14 -12.2868     69.2437    146.1578   9.8793345343e+01   3.7105944816e+01     1.463482    0.8252296  86.91  0.004853761    2.933    0.659
        15  -9.9235     32.6521    156.5953   1.1076517438e+02   3.8941477036e+01    0.4600801    0.2080735 -71.17  0.001874335    1.974    0.493
        16 -12.1330      5.5403    185.6352   1.2028316100e+02   3.4442748605e+01     1.410757    0.7059906  85.67  0.006706373    1.823    0.451
        17  -9.2619     97.7024    140.6837   8.9490467705e+01   3.3922567963e+01    0.5211065    0.3358072 -27.43  0.002131543    2.193    0.544
        18 -10.4966     84.7394    140.0400   9.3103161710e+01   3.6271224680e+01    0.3134845    0.2675541 -50.50 0.0004530037    1.156    0.135
        19 -11.7162     61.4481    157.5470   1.0290790558e+02   3.5323331402e+01    0.5249363    0.3321629 -40.57  0.001369159    1.875    0.467
        20  -8.1576     73.5045    134.4816   9.5334333796e+01   3.9405469018e+01    0.1467182    0.1382182 -78.59 1.469692e-05    1.031    0.030
        21  -9.6430     70.1070    131.4002   9.5755813281e+01   4.0674657352e+01      0.29037    0.2074009  74.93 0.0008860282    1.768    0.435
        22 -10.9514     84.0882    220.0135   1.0559077473e+02   1.7387581074e+01    0.5061538    0.3961562 -62.89  0.001467886    1.384    0.277
        23  -9.0911    107.6214    130.7998   8.4489323778e+01   3.4504855984e+01     0.465287    0.2740892  30.83  0.001790141    1.920    0.479
        24 -11.5064     30.2521    202.6510   1.1600439879e+02   2.8160898424e+01    0.4785284    0.4183244 -37.96  0.001256998    1.547    0.354
        25  -8.2795     95.4000    126.5120   8.7047024198e+01   3.7774503473e+01    0.2993893    0.2269106   7.56  0.001093862    1.724    0.420
        26  -8.2350    115.3041    125.3373   8.1044206427e+01   3.4308488797e+01    0.1583828    0.1233524 -13.07 0.0004714882    1.670    0.401
        27  -9.9397     43.0714    218.1434   1.1448351537e+02   2.3245936507e+01    0.3022789    0.1854659  76.44 0.0004120618    1.569    0.363
        28  -8.0217    105.8148    119.2592   8.2265707024e+01   3.7573667710e+01     0.200108     0.176318  -6.31 0.0003659618    1.293    0.227
        29  -9.2266     53.5355    118.5226   9.8425778064e+01   4.6109546494e+01    0.2614955    0.1343302 -73.96   0.00103193    2.423    0.587
        30  -8.7674    135.0000    113.4620   7.2795104219e+01   3.2899606288e+01    0.3504072   0.08805095 -45.35 0.0009386853    3.967    0.748
        31  -8.1550    205.7256    110.4159   5.7018753923e+01   1.7982708822e+01     0.185371     0.136193  42.00 0.0006322624    1.537    0.349
        32 -11.7184     56.8651    239.3634   1.1337002646e+02   1.7077734914e+01    0.5983986    0.4522944  61.85 0.0008374538    1.088    0.081
        33 -14.4699     37.4758    190.6523   1.1324974772e+02   3.0148495673e+01     11.37718     4.319064  83.89   0.03361087    5.483    0.818
        34 -13.0893     33.6313    249.4738   1.1869102297e+02   1.7885747751e+01     3.281355    0.9344189  26.60  0.009932775    7.354    0.864
        35  -9.8511     13.3690     60.2357   1.0036321145e+02   6.3319575023e+01    0.2372753    0.1875464 -58.23 0.0007410781    1.251    0.201
        36 -13.0553      6.2463    246.2748   1.2358701692e+02   2.1421460563e+01     1.620032    0.8213671  37.93   0.01005909    1.807    0.447
        37 -12.0149    203.5689     43.8060   4.1665042537e+01   2.9253554248e+01    0.8335217    0.6315097 -34.67  0.003899138    1.443    0.307
        38 -13.4053      9.4040    208.3041   1.2093514830e+02   2.8985299782e+01     1.664644     1.130724  84.57  0.005091057    1.208    0.172
        39 -10.7336    219.5086     30.9288   3.7009828829e+01   2.7392508040e+01    0.4064946    0.3139704  53.52 0.0009898001    1.579    0.367
        40 -10.6820    194.7248     50.2812   4.4358534701e+01   3.0381359767e+01    0.4406731    0.2456082 -44.33  0.002037479    1.707    0.414
        41 -10.2123      2.4404     49.9922   1.0268547825e+02   6.6077341826e+01    0.2745231    0.1662024 -45.27  0.001700316    1.290    0.225
        42 -10.5039     11.6457     52.6233   9.9085465454e+01   6.4984463025e+01    0.2199582    0.2025483 -36.17  0.001383706    1.192    0.161
        43 -10.5593      2.0000     31.9512   9.7558816751e+01   6.9530967027e+01    0.4839597    0.1313475 -58.37  0.001953805    3.769    0.735
        44  -7.6644    131.9884     38.7770   5.1793831708e+01   4.6934510182e+01      0.18264     0.104783  58.79 0.0002969157    1.585    0.369
        45  -7.6707    131.7174     31.2870   4.9482301862e+01   4.7939608841e+01     0.130869    0.1007671 -76.43 0.0002413519    1.524    0.344
        46  -7.4885     99.6488    181.2637   9.6492928715e+01   2.3742821526e+01    0.1517264    0.1051017  63.66 0.0002168665    1.616    0.381
        47  -9.9938     32.6190    234.3483   1.1789561112e+02   2.1022775459e+01    0.3657481    0.1628132  85.82  0.001131547    2.491    0.599
        48  -7.6550    189.3540     15.6932   3.6599897322e+01   3.5961583805e+01    0.1372327   0.08115444 -70.54 0.0007042107    1.717    0.418
        49  -7.8388     57.4470    194.4526   1.0885509385e+02   2.6839587743e+01    0.1335479    0.1181342  77.35 0.0001075591    1.023    0.022
        50 -12.8057      8.4625    230.9307   1.2241844999e+02   2.4265758926e+01     1.864152    0.5934935  50.93  0.009105613    2.441    0.590
