#   1 NUMBER                 Running object number                                     
#   2 MAG_AUTO               Kron-like elliptical aperture magnitude                    [mag]
#   3 X_IMAGE                Object position along x                                    [pixel]
#   4 Y_IMAGE                Object position along y                                    [pixel]
#   5 X_WORLD                Barycenter position along world x axis                     [deg]
#   6 Y_WORLD                Barycenter position along world y axis                     [deg]
#   7 A_WORLD                Profile RMS along major axis (world units)                 [deg]
#   8 B_WORLD                Profile RMS along minor axis (world units)                 [deg]
#   9 THETA_WORLD            Position angle (CCW/world-x)                               [deg]
#  10 FWHM_WORLD             FWHM assuming a gaussian core                              [deg]
#  11 ELONGATION             A_IMAGE/B_IMAGE                                           
#  12 ELLIPTICITY            1 - B_IMAGE/A_IMAGE                                       
         1 -15.2224    133.5871     23.4547   6.8265594821e+01   4.7984843197e+01     7.961986     4.034978 -53.69   0.03645658    2.759    0.638
         2 -15.0598    218.6159     77.3467   6.8131876211e+01   2.1163453805e+01     4.068454      1.63135 -59.69   0.01391975    3.643    0.726
         3 -18.0837    242.3427     37.1759   5.7247814376e+01   2.2222868763e+01     5.686135     2.643874 -37.01   0.01530422    2.324    0.570
         4 -14.4196    220.8601     28.1689   5.7551249472e+01   2.7833949401e+01      1.28947    0.5221786 -27.55  0.005113096    4.280    0.766
         5 -11.3431    201.3024     17.8772   5.7418608422e+01   3.3286823982e+01    0.2652914    0.2128514 -85.30 0.0004281571    1.018    0.018
         6 -13.7338    245.9855      3.3686   5.0870326459e+01   2.5621089374e+01    0.6122716    0.2434078  75.41  0.002030705    2.188    0.543
         7  -9.4148     79.6245     12.3676   7.6855379991e+01   6.0234554987e+01    0.3010085    0.1175684 -16.46  0.001307445    3.525    0.716
         8 -11.0225    156.2607     11.3806   6.1340554203e+01   4.4064326277e+01    0.4340741    0.2753114 -13.10  0.002152555    2.263    0.558
         9 -10.3704     92.5100      8.7339   7.2251587937e+01   5.8065774200e+01    0.3289554    0.1165768 -23.46   0.00149609    3.276    0.695
        10 -10.2306    192.3019    193.8353   9.8249869609e+01   3.5675433928e+00     1.020397    0.4681998 -62.63   0.00260683    6.476    0.846
        11 -11.2844    231.0562    250.6002   1.0098989032e+02  -1.2441221388e+01    0.2018532    0.1155339  30.45  0.001142875    1.645    0.392
        12 -10.2269    207.8096    184.1628   9.3150440629e+01   2.7265365268e+00    0.3376797    0.2481219   8.52  0.001672867    1.680    0.405
        13 -14.0525     22.6730    167.7773   1.3503098450e+02   3.7334078772e+01     1.856868     1.442997  -0.92  0.007496242    1.821    0.451
        14 -11.5238     49.4983    154.4102   1.2614719892e+02   3.7786849877e+01    0.4541077    0.3306023 -12.22  0.001109708    1.948    0.487
        15 -14.1273     61.0957    147.9065   1.2180237526e+02   3.7949697347e+01     2.432501     1.696888  -7.74  0.006850412    2.130    0.531
        16  -8.8739    191.4474    181.7204   9.5985932461e+01   6.2193310823e+00    0.2695454    0.1389951 -49.97 0.0009862859    1.977    0.494
        17 -11.0605    212.9268    187.5858   9.2834421633e+01   1.1535005873e+00    0.5159115    0.3234716  36.02  0.001646899    1.701    0.412
        18  -8.0161    148.2926    162.6203   1.0164802467e+02   1.8986199937e+01    0.1634337    0.1239184 -87.73 0.0007019856    1.747    0.427
        19 -10.9609    205.0551    153.3703   8.7227117298e+01   9.5066445405e+00    0.6438041     0.442304  86.51  0.002691853    2.500    0.600
        20  -7.7760    154.2800    156.7006   9.8918187688e+01   1.9141737131e+01    0.1543238    0.1238922 -88.82 0.0002139702    1.542    0.352
        21  -8.8852    169.3103    155.1405   9.5099590102e+01   1.6385644577e+01    0.2943796    0.2058528  75.66  0.001031478    2.089    0.521
        22 -10.1338    198.2829    153.5344   8.8594434272e+01   1.0813248594e+01     0.299197    0.2361353 -28.12 0.0007765626    1.333    0.250
        23  -8.8692     88.1902    152.8469   1.1518781045e+02   3.2664207011e+01    0.2294164    0.1984118  87.59 0.0005403742    1.220    0.181
        24  -9.0971     92.3255    152.1853   1.1391773763e+02   3.2142126252e+01     0.227614    0.2097873  12.31 0.0004815087    1.231    0.188
        25  -9.5765    205.5081    147.5038   8.5862238269e+01   1.0624494640e+01    0.2828331    0.2034746  86.80 0.0009650794    2.088    0.521
        26 -10.5068    174.9135    148.9002   9.2452207805e+01   1.6605928945e+01     0.396406    0.3524494   3.81  0.001071932    1.300    0.231
        27 -11.9630    135.8356    125.9060   9.6214952936e+01   3.0117824295e+01     1.543069      0.45962 -50.87  0.004340122    3.668    0.727
        28 -11.3413    134.8369    110.0170   9.2424794994e+01   3.3829341037e+01     1.211464    0.2528101 -45.75  0.003033319    4.775    0.791
        29 -10.2378    132.8585     99.0492   9.0011781549e+01   3.6538395192e+01    0.4766437    0.3006911 -70.72  0.001838719    2.531    0.605
        30 -11.6029    125.0298    109.6414   9.4858684080e+01   3.5998153061e+01    0.7523916    0.6443422 -37.72  0.002335881    1.173    0.148
        31 -12.0525    121.4804    100.7925   9.3434609757e+01   3.8611454167e+01     1.051055    0.5129013 -57.99  0.003661654    2.881    0.653
        32 -10.2640    133.6565    145.8588   1.0153139133e+02   2.5930040322e+01    0.8976353    0.3169999 -57.00  0.002503381    3.791    0.736
        33 -11.2572    130.9599    134.7034   9.9607201101e+01   2.9112772916e+01     1.091386    0.5634831 -69.54  0.003122277    4.163    0.760
        34  -8.6233    140.5082    147.4903   1.0018287675e+02   2.4139023481e+01    0.1580383    0.1524254 -71.28 0.0008104617    1.022    0.021
        35  -9.2804      7.6190    247.7519   1.4502335198e+02   2.0569464057e+01     0.160358   0.08372852  87.77  0.000908963    1.606    0.377
        36  -9.7569    191.9251    144.1230   8.7786408823e+01   1.4089424548e+01    0.2952025    0.2196878  53.71 0.0004788815    1.455    0.313
        37 -11.7344    189.1868    139.0302   8.7190210253e+01   1.5739127158e+01    0.6746725    0.4871514  39.80  0.002239018    1.525    0.344
        38 -10.0924    211.0570    136.1300   8.2330248818e+01   1.1825753880e+01    0.3553349    0.3455966 -82.05  0.001570515    1.092    0.085
        39 -10.2972    190.3347    131.2943   8.5187379233e+01   1.7121402094e+01    0.3562469    0.3069321  85.77  0.001845627    1.285    0.222
        40 -10.4497    198.4236    178.1997   9.3817675617e+01   5.6447313054e+00    0.4178021    0.2639994 -36.94  0.001934338    1.541    0.351
        41 -10.7274    160.1499    128.8808   9.1076761513e+01   2.4197741918e+01    0.5475075    0.4091269 -27.88  0.002496576    1.554    0.357
        42 -11.4139    202.1894    176.1888   9.2638221882e+01   5.3569889596e+00    0.6765066    0.3211328  56.97  0.002334585    3.486    0.713
        43  -8.6300     97.2800    129.0148   1.0742853750e+02   3.6976892590e+01    0.2147198     0.191735 -51.58 0.0004125769    1.067    0.062
        44  -9.2107    193.6560    117.9669   8.1453368462e+01   1.9134092283e+01    0.3656373    0.2565679  87.47   0.00131653    1.935    0.483
        45  -9.7970    205.3658    122.3536   8.0292193307e+01   1.5751891781e+01     0.395086     0.273722 -70.31  0.001229471    1.743    0.426
        46  -8.7776    197.6411    119.8139   8.1131000267e+01   1.7901829956e+01    0.2947855     0.197755 -43.02 0.0009496457    1.409    0.290
        47 -11.3888    185.0754    121.7657   8.4017613411e+01   2.0235275340e+01    0.7427539    0.7151824  26.18  0.004099855    1.164    0.141
        48  -9.8431    175.2431    115.2831   8.4472563847e+01   2.3745909173e+01    0.6669479    0.4030206 -83.44  0.002000761    3.435    0.709
        49 -11.3213    161.2944    118.5502   8.8290295596e+01   2.6177977536e+01    0.7712734    0.4963959 -75.07  0.000630771    2.405    0.584
        50 -10.4638    168.1459    114.1232   8.5689533981e+01   2.5574396748e+01    0.4643955    0.4391773  60.89 0.0009987125    1.083    0.076
        51 -12.1881      5.4012    119.7072   1.3327587700e+02   5.0294577871e+01     1.187554    0.5273687 -80.25  0.005230634    2.578    0.612
        52  -9.0824    154.1351    125.4976   9.1646944381e+01   2.6257897269e+01    0.2571663    0.2220384 -22.70  0.001267108    1.304    0.233
        53 -10.6615    201.6174    125.0165   8.1580566482e+01   1.6009881876e+01    0.5921797    0.3805794 -75.87  0.002433901    2.337    0.572
        54  -8.4833     93.7395    122.9839   1.0700986473e+02   3.9033728344e+01     0.213928     0.175884 -51.33 0.0003105465    1.160    0.138
        55 -10.5687    130.0650    117.5685   9.5596954014e+01   3.3206136421e+01     0.475614    0.3337512 -64.66  0.001576275    1.681    0.405
        56  -7.8398     98.6796    114.3181   1.0341182809e+02   4.0153679196e+01    0.1511847    0.1204271  84.59 0.0006188201    1.663    0.399
        57 -10.5963    140.9829    107.0001   9.0109846143e+01   3.3124549741e+01    0.3786955    0.2913442 -69.78  0.001601589    1.530    0.346
        58 -10.1535    118.1345    109.5638   9.6685747368e+01   3.7440555750e+01    0.2686698    0.2078952 -58.26   0.00075482    1.372    0.271
        59 -10.4863    190.0403    105.8753   7.9291550321e+01   2.2317908690e+01     0.473179    0.3628313 -81.05  0.001111663    1.488    0.328
        60 -10.2865    112.5114    105.4313   9.7133550063e+01   3.9467686557e+01    0.5308372    0.3940519  81.89  0.002365305    1.974    0.493
        61  -9.9370    158.0202    106.9355   8.6109027820e+01   2.9331491816e+01    0.3025645    0.2196791 -52.91 0.0006361744    1.386    0.278
        62 -10.8107    146.0677    103.9141   8.8079614037e+01   3.2633678063e+01    0.4713841    0.3162678  50.15  0.001353983    1.498    0.332
        63 -11.8593    154.5849     99.6542   8.5005632336e+01   3.1571301175e+01    0.8189658    0.5771096  37.84  0.002468247    1.579    0.367
        64 -10.6828    167.5658     97.9998   8.1782181889e+01   2.8933194889e+01    0.4805028    0.4019468   2.16  0.001097251    1.595    0.373
        65 -11.0588    168.4090     92.2419   8.0150143828e+01   2.9834074472e+01    0.8315004    0.4871415  34.68  0.002754021    2.356    0.575
        66  -9.4548     85.0637    104.6123   1.0496945586e+02   4.4716586028e+01    0.5073508    0.2368669 -61.28  0.001758554    3.108    0.678
        67  -7.9790     37.2529    106.3394   1.2079218061e+02   5.0789913782e+01    0.1388932   0.08466379 -37.53 0.0003641635    1.573    0.364
        68 -10.9284    188.0709     97.3172   7.7613720042e+01   2.4392738859e+01    0.5985245    0.3657422 -57.69  0.001631162    1.739    0.425
        69  -9.4324    185.4998     92.4911   7.6921303858e+01   2.5872146362e+01    0.2456832    0.2143534  59.71 0.0007358303    1.175    0.149
        70 -10.3453    138.6399     94.2761   8.7293801797e+01   3.6215467371e+01    0.3847423    0.3340365  52.64  0.001027567    1.143    0.125
        71 -11.2287    152.3001     90.4243   8.3093808073e+01   3.3873159471e+01    0.4185395    0.3470718  86.23 0.0001674609    1.344    0.256
        72  -8.3562     32.6283     90.7744   1.1881308506e+02   5.4693066513e+01    0.1782755     0.113106 -64.62 0.0004595749    1.683    0.406
        73 -10.3390    214.6781    241.3332   1.0251412309e+02  -8.7423093023e+00    0.3637122    0.1936704 -11.35  0.001503273    3.139    0.681
        74  -9.9501    175.3555     88.3118   7.7791518034e+01   2.8959857599e+01    0.2447825    0.2306968  85.74 0.0003460037    1.033    0.032
        75  -8.6684     99.9889     87.0522   9.5594238849e+01   4.5687802174e+01    0.1761226    0.1631598 -27.08 0.0005102102    1.059    0.056
        76 -10.3901     82.3959     85.8222   1.0060709723e+02   4.9103023834e+01    0.4461056    0.2766778 -52.84   0.00196448    1.766    0.434
        77 -11.0290      5.2434     83.5830   1.2691376265e+02   5.8337670051e+01    0.4177079    0.1720968 -65.81  0.001970546    2.333    0.571
        78 -11.3191    196.3078    173.4098   9.3253916406e+01   7.0353288053e+00    0.4879149    0.3685249  65.57  0.002364493    1.722    0.419
        79 -11.0964    110.5213     77.5487   8.9813554843e+01   4.5387219404e+01    0.4632637    0.3748435 -87.96  0.001569476    1.697    0.411
        80 -10.6043    125.0268     69.5624   8.3670494315e+01   4.3699043948e+01    0.4242662     0.315369 -31.50  0.001225318    1.439    0.305
        81  -8.4877    248.9669    240.4985   9.6002338425e+01  -1.3273217308e+01    0.1629983    0.1068702  26.53 0.0003802356    1.502    0.334
        82  -8.6615    207.3055    169.3446   9.0194941729e+01   5.8007656588e+00    0.1499715     0.111002 -11.26 0.0007041917    1.691    0.409
        83  -9.7025    199.0530     44.1353   6.3419840621e+01   3.0530071364e+01    0.3944863    0.1766102 -38.62 0.0008981985    2.271    0.560
        84  -7.7960     55.6580     48.3039   9.7790229541e+01   5.9884340050e+01    0.1105261    0.1019402  70.98 0.0007040199    1.681    0.405
        85  -8.2084    154.3455    168.6427   1.0149959872e+02   1.6363881428e+01    0.1647859    0.1237296  85.96 0.0007034304    1.834    0.455
        86  -9.8824    205.5883     37.2326   6.1090564491e+01   2.9992705270e+01    0.2973341    0.2203501 -30.17   0.00176022    1.699    0.412
        87 -11.3902    205.9333     32.2780   5.9983851608e+01   3.0552300682e+01    0.4164694    0.1826411 -36.28 0.0006024635    2.431    0.589
        88  -9.4327    202.6243     23.2380   5.8417798576e+01   3.2381443208e+01    0.4207199    0.3079255  64.58   0.00175641    1.345    0.257
        89 -10.0805    143.0458    227.5990   1.1509055270e+02   5.4045451956e+00    0.2331201    0.2014448 -54.59 0.0004447288    1.244    0.196
        90  -8.6852    201.4398    222.4554   1.0179664888e+02  -3.4941877347e+00    0.1345435     0.119988  -1.64 4.536525e-05    1.006    0.006
        91  -8.6454    189.8833     35.7603   6.2706819227e+01   3.3706249730e+01    0.1658499    0.1251049 -68.05 0.0008922418    1.262    0.208
        92  -8.4473    171.2262     35.0463   6.5132192681e+01   3.8070783299e+01    0.1724041    0.1517597 -77.13 0.0004490063    1.106    0.096
        93  -9.3503    164.8049     33.3596   6.5680679718e+01   3.9757289429e+01    0.3548479    0.2046065  88.72  0.001130126    2.148    0.534
        94  -9.9300    201.1921     32.2158   6.0516155422e+01   3.1610276628e+01     0.209359    0.1606797 -44.40 0.0006308123    1.394    0.283
        95 -10.0356     92.0042     30.1475   7.9759089341e+01   5.6065425305e+01    0.4430307    0.1806521 -28.53  0.001996805    2.729    0.634
        96  -8.6087     78.3942     28.7337   8.3157013622e+01   5.8789639234e+01    0.1614417    0.1099552 -10.09 0.0006581388    1.588    0.370
        97  -9.1186     93.0383    167.7600   1.1676501382e+02   2.8108714408e+01    0.2382928    0.2015907 -63.41 0.0003276191    1.119    0.106
        98  -9.7729    177.5287     25.4332   6.1912214892e+01   3.7764270754e+01    0.3863956    0.2173713  67.16  0.000559144    1.535    0.349
        99  -8.2597    159.5144    165.5929   9.9636846350e+01   1.6023623581e+01    0.1518877    0.1502528 -74.55 0.0001210555    1.021    0.021
       100  -9.8512    210.1117     16.9193   5.6332166176e+01   3.1476783261e+01    0.1958126    0.1377457 -89.99  0.000414951    1.178    0.151
       101 -12.3192     10.5247    206.4687   1.4159106194e+02   2.9258882741e+01    0.8855408    0.3030182 -54.75  0.003748977    3.225    0.690
       102  -9.2870    123.9678    205.9914   1.1586689327e+02   1.3449003487e+01     0.202586     0.193056  60.57  0.001142817    1.015    0.014
       103  -9.3018    163.0637     13.9645   6.1057399572e+01   4.2275831268e+01    0.1808908    0.1527541  76.45 0.0003451344    1.027    0.026
