#   1 NUMBER                 Running object number                                     
#   2 MAG_AUTO               Kron-like elliptical aperture magnitude                    [mag]
#   3 X_IMAGE                Object position along x                                    [pixel]
#   4 Y_IMAGE                Object position along y                                    [pixel]
#   5 X_WORLD                Barycenter position along world x axis                     [deg]
#   6 Y_WORLD                Barycenter position along world y axis                     [deg]
#   7 A_WORLD                Profile RMS along major axis (world units)                 [deg]
#   8 B_WORLD                Profile RMS along minor axis (world units)                 [deg]
#   9 THETA_WORLD            Position angle (CCW/world-x)                               [deg]
#  10 FWHM_WORLD             FWHM assuming a gaussian core                              [deg]
#  11 ELONGATION             A_IMAGE/B_IMAGE                                           
#  12 ELLIPTICITY            1 - B_IMAGE/A_IMAGE                                       
         1 -14.0765    161.1929     82.1765   9.6222843179e+01   3.3060142283e+01     2.764215     2.117206  32.18  0.008997312    1.376    0.274
         2 -16.1063    129.6051     20.4776   8.1978019283e+01   5.0446860233e+01     12.48504     5.092325 -45.84   0.04301686    3.009    0.668
         3 -18.0771    239.3620     35.8287   7.1214354012e+01   2.0971230892e+01     8.362783     2.930323 -20.62    0.0313141    2.933    0.659
         4 -13.1765    216.5710     21.3329   6.9543168433e+01   2.7790602668e+01    0.9609396    0.4949551  27.55  0.003763158    3.037    0.671
         5 -14.8262    205.2754     61.4408   8.2279188775e+01   2.5711391512e+01     3.181657     1.558189 -64.01  0.009345498    5.019    0.801
         6 -11.0144     92.5799     11.1902   8.7170365749e+01   6.0681832816e+01    0.3171186    0.2542191  -0.99 0.0008322668    1.256    0.204
         7 -10.4926     92.1719     19.3629   9.1248321867e+01   5.9678026899e+01    0.3562477    0.2311549 -28.05  0.000528142    1.513    0.339
         8 -10.0456     92.2454     14.9810   8.9129009441e+01   6.0266778300e+01    0.3339858    0.2239094 -39.86  0.001643318    1.573    0.364
         9 -10.4904    219.9468     11.1136   6.6386671576e+01   2.7994828648e+01    0.1668419    0.1515444  21.22 0.0004284415    1.236    0.191
        10 -11.2736    204.3438      8.0188   6.6887579809e+01   3.2123718224e+01    0.1872247    0.1577549 -10.18 0.0005858799    1.260    0.207
        11 -10.3041    164.9291      6.5618   7.0731935098e+01   4.2558255414e+01    0.2435066    0.1956832 -14.46 0.0005429083    1.309    0.236
        12 -11.3937    243.0258      4.0212   6.2805454726e+01   2.3322098915e+01    0.2087739    0.1678693  54.63  0.001292708    1.414    0.293
        13 -10.4777    190.2045    170.7380   1.1050613971e+02   1.2757522025e+01    0.5231347    0.2631083  57.37  0.002090486    3.538    0.717
        14 -13.7107    237.7047    245.4436   1.1404315801e+02  -2.3763243482e+00     1.894437    0.5726943  35.27   0.01030078    2.417    0.586
        15 -10.5056    180.2856    165.2866   1.1140773177e+02   1.5273587906e+01    0.4982349    0.2969641  63.32  0.002146628    3.092    0.677
        16 -12.8821     68.4165    144.8046   1.3352360160e+02   3.7490021991e+01    0.8375335    0.5649073  73.55  0.003078144    1.551    0.355
        17 -12.0189     54.3574    161.9971   1.3890703853e+02   3.5605710696e+01    0.3135356    0.2889594 -16.35 0.0008978189    1.496    0.332
        18 -14.1305     64.1413    155.0598   1.3583235164e+02   3.5864563282e+01      1.78582      1.27883 -14.14   0.00960649    2.457    0.593
        19 -10.0888    249.3564    156.5889   9.7824290916e+01   4.6616282294e+00      0.24658    0.1711383  38.20 0.0008995937    1.462    0.316
        20 -10.3057    215.8147    169.1619   1.0562832476e+02   8.6255140112e+00    0.5171525    0.2142777  51.04  0.002154466    3.210    0.689
        21  -9.3115     72.8415    242.6392   1.4141038117e+02   1.9367158782e+01    0.1397354    0.1226196  64.52 0.0003955846    1.273    0.215
        22 -11.5424    199.9898    144.0507   1.0353573112e+02   1.4806936681e+01    0.4253465    0.2698834 -24.92  0.001164798    1.633    0.388
        23 -10.7871    196.0134    142.0091   1.0384800278e+02   1.5853481219e+01    0.2853968    0.1834181  48.17 0.0006172985    1.592    0.372
        24  -9.3449    155.9971    138.4990   1.1121482864e+02   2.4133939993e+01    0.1945622    0.1179706  63.88 0.0008098619    2.477    0.596
        25 -14.0055     14.4191    181.6565   1.4912235103e+02   3.5708223513e+01     1.900647    0.9529625  70.82   0.01195721    1.681    0.405
        26 -10.9935    143.9809    146.8177   1.1551638833e+02   2.4911303784e+01    0.4739896    0.3006868 -69.12   0.00212915    2.533    0.605
        27  -9.4609    136.2771    135.0390   1.1496879010e+02   2.8535924363e+01    0.2540881    0.1748834 -55.62 0.0007110068    1.646    0.392
        28 -11.0169    134.7657    109.4734   1.0967023714e+02   3.3809677061e+01     1.246629    0.1933638 -44.13  0.002858479    6.667    0.850
        29  -9.8384    132.1707     98.0219   1.0743935709e+02   3.6611462983e+01    0.2705426    0.2128622  58.53 0.0004201529    1.355    0.262
        30  -9.9839    135.3673    129.0805   1.1395394597e+02   2.9853454007e+01     0.443097    0.2536711 -42.43  0.002006133    1.874    0.466
        31 -10.8106    134.1439    120.6805   1.1242757507e+02   3.1728020690e+01    0.5168342    0.3418415 -56.53  0.002091055    1.727    0.421
        32 -10.3406    133.8436    147.7846   1.1798803114e+02   2.6575125877e+01    0.5160797    0.2169981 -56.37  0.001990403    3.136    0.681
        33 -11.8115    160.6073    128.6030   1.0810152690e+02   2.4973577063e+01    0.4058424    0.3623972 -30.60  0.001771496    1.171    0.146
        34 -10.1905    151.5869    121.5921   1.0853260434e+02   2.8061330573e+01    0.3930084    0.1404774 -41.99  0.001391999    2.932    0.659
        35  -8.9000     99.2183    132.3651   1.2363017402e+02   3.5636681105e+01    0.1879643    0.1175812  47.72 0.0004377104    1.530    0.346
        36  -9.2797    123.9039    123.0291   1.1547004860e+02   3.3229889562e+01    0.3470964     0.196849 -72.54  0.001251903    3.390    0.705
        37  -9.9951    126.9780    111.5301   1.1211446842e+02   3.4964344482e+01    0.2762218    0.2060094 -67.14 0.0009519805    1.620    0.383
        38  -9.8502    144.4177    110.0624   1.0747653639e+02   3.1700867940e+01    0.3537377    0.2346044 -69.00  0.001355154    2.329    0.571
        39 -13.7984     29.1612    177.7316   1.4581051619e+02   3.5121378349e+01    0.8102466    0.6271223  62.22  0.003618236    1.034    0.033
        40 -10.4192    118.0196    109.2856   1.1391099540e+02   3.7171353554e+01    0.2096981     0.183259  46.86 0.0005154741    1.118    0.106
        41  -9.8048    139.6827    105.2338   1.0741932907e+02   3.3619679238e+01    0.2708199    0.2639799  78.65  0.001011872    1.083    0.077
        42 -11.6006    124.6604    104.0125   1.1089743133e+02   3.6952484249e+01    0.6539612    0.4579633  82.46  0.002472293    2.232    0.552
        43 -11.5143    118.1428    100.6625   1.1178829685e+02   3.8940301098e+01    0.4907153     0.341347 -77.66  0.002133319    2.096    0.523
        44  -9.8264     92.7052    102.0152   1.1929471231e+02   4.3339022460e+01    0.5914762    0.2832871 -74.13  0.001636384    5.530    0.819
        45 -11.4035    153.1307     96.6656   1.0202518570e+02   3.2326244466e+01    0.4524227    0.4155156  10.84  0.002467771    1.109    0.098
        46 -11.4244    138.8454     92.9270   1.0440871569e+02   3.6174417060e+01    0.5811831    0.3959614  87.15  0.001971458    2.611    0.617
        47 -10.2070    144.7418    102.0243   1.0538621438e+02   3.3160364367e+01    0.3164811    0.2715958   9.32 0.0005581163    1.290    0.225
        48 -10.1094    202.9194     90.7052   9.0557344681e+01   2.2109588298e+01    0.2343412    0.2197981 -73.39  0.000451848    1.268    0.211
        49 -10.3624    133.2400    142.4791   1.1713680335e+02   2.7682533951e+01    0.5748615    0.2054596 -56.71  0.001869712    4.266    0.766
        50 -10.1878    114.9170     94.3300   1.1104532544e+02   4.0897689222e+01    0.2088669    0.1899828  37.21 0.0007159875    1.109    0.099
        51 -10.6232    172.4044     83.8918   9.4373167204e+01   3.0146381600e+01    0.2562922    0.2338918  37.33 0.0002892817    1.083    0.077
        52 -10.4667    147.8410    151.2515   1.1549811180e+02   2.3411822205e+01    0.2852164    0.2165009 -89.81  0.001209637    1.997    0.499
        53 -10.1754    202.6332     80.1641   8.7828128163e+01   2.3709941324e+01    0.3047786    0.2242204 -66.56  0.001302251    1.847    0.459
        54 -10.3140      4.3936     82.2002   1.4514767262e+02   5.7906025119e+01    0.1781094   0.09352954  88.98 0.0009518726    1.724    0.420
        55 -10.7562    108.7704     75.2534   1.0742306796e+02   4.6088885545e+01    0.3322519    0.2393284 -33.21   0.00137377    1.466    0.318
        56  -9.6992    222.7334     74.1769   8.3178348119e+01   2.0032308636e+01    0.2167712    0.1825723  52.09  0.001232964    1.275    0.216
        57 -10.6736    191.5574    192.3953   1.1392090600e+02   9.6300386909e+00    0.8191687     0.438532 -59.69  0.002759906    7.412    0.865
        58  -9.1794    206.2138     53.7828   7.9987742581e+01   2.6499916649e+01    0.2048176    0.1434151 -47.74 0.0002850349    1.481    0.325
        59  -8.8234     71.4418     53.0049   1.1266247724e+02   5.7681716104e+01    0.2088593    0.1301516 -48.41 0.0003575194    1.506    0.336
        60 -11.3241    176.2758    146.1529   1.0852965334e+02   1.8961440164e+01    0.4833794    0.3169848  73.28  0.002019855    3.125    0.680
        61  -9.3825     54.7806     40.9184   1.1507948467e+02   6.2779583014e+01    0.4137895     0.138483 -52.60  0.001501594    2.911    0.657
        62  -9.6627     57.6310     36.2481   1.1201580578e+02   6.3312088948e+01    0.4572612     0.122698 -48.15  0.001510906    3.450    0.710
        63  -9.4085     70.8859     41.3988   1.0858657854e+02   6.0139478757e+01    0.2347963    0.1754324 -48.52 0.0005426872    1.316    0.240
        64  -8.9954    190.0858     35.5893   7.6882761204e+01   3.2787863369e+01    0.1764669    0.1640415  44.09 0.0009823417    1.104    0.094
        65  -9.6219    181.7625     36.3528   7.8330376893e+01   3.4826564467e+01    0.1520915    0.1035781 -51.47 0.0003785446    1.575    0.365
        66 -10.7925    198.4355     34.8988   7.5546403237e+01   3.0760197170e+01    0.2185881    0.1473725 -28.23 0.0005714287    1.418    0.295
        67  -9.1624     57.4633     28.9986   1.0902217580e+02   6.4750475893e+01    0.2130513    0.1227123 -43.52 0.0007376252    1.598    0.374
        68 -10.0515    207.0764     22.9226   7.0979259475e+01   2.9949249734e+01    0.4948771     0.124716 -21.13  0.001452335    4.279    0.766
        69  -7.6578    177.6046     25.7885   7.5532323373e+01   3.7177705654e+01    0.1521808   0.09902827  43.34 0.0006829223    1.621    0.383
        70 -10.1705    171.1553     22.3134   7.5306301254e+01   3.9271765526e+01    0.3309873    0.1942074 -24.86  0.001351875    1.703    0.413
        71  -9.9375    192.0019    187.3024   1.1301618063e+02   1.0217315316e+01    0.1821378     0.155239   4.87 0.0002598883    1.142    0.124
        72 -11.1095    213.8156    186.1184   1.0897423958e+02   6.8775256657e+00    0.2363018     0.143491  30.21 0.0005968345    1.378    0.274
        73 -10.1317    211.2812    178.9827   1.0817823432e+02   8.1474297862e+00    0.3170344    0.1604672  50.37  0.001546901    2.423    0.587
        74 -11.0322    203.9480     17.4811   6.9715978865e+01   3.1297489986e+01    0.2084186    0.1809802   3.42 -1.993183e-05    1.258    0.205
        75  -9.2516     79.0711     17.9310   9.4981852668e+01   6.2696931685e+01    0.2194026    0.1578626   5.98 0.0004513004    1.601    0.375
        76  -9.9359    211.7704     16.7205   6.8706532128e+01   2.9431906819e+01    0.1261305    0.1015175  22.31 0.0006751436    1.434    0.303
        77  -8.2265    101.0172    176.0220   1.2979255418e+02   2.6653864832e+01    0.1400279    0.1197455  52.55 0.0009167623    1.005    0.005
        78 -10.7389    192.0774    143.9873   1.0499976775e+02   1.6303574249e+01    0.2262523    0.2060233  16.53 0.0005346386    1.068    0.064
        79  -9.3084    237.0956    172.5918   1.0273824441e+02   4.7918293396e+00    0.1678938    0.1214654  26.29 0.0005076083    1.185    0.156
        80  -9.7490    229.0256    172.6883   1.0405889132e+02   6.0505650860e+00    0.3382139    0.1031435  46.98  0.001316192    3.660    0.727
        81  -8.9853    165.0000     18.7747   7.4999776183e+01   4.1298586625e+01    0.2318098   0.08328684 -22.87 0.0007858383    2.829    0.646
