#   1 NUMBER                 Running object number                                     
#   2 MAG_AUTO               Kron-like elliptical aperture magnitude                    [mag]
#   3 X_IMAGE                Object position along x                                    [pixel]
#   4 Y_IMAGE                Object position along y                                    [pixel]
#   5 X_WORLD                Barycenter position along world x axis                     [deg]
#   6 Y_WORLD                Barycenter position along world y axis                     [deg]
#   7 A_WORLD                Profile RMS along major axis (world units)                 [deg]
#   8 B_WORLD                Profile RMS along minor axis (world units)                 [deg]
#   9 THETA_WORLD            Position angle (CCW/world-x)                               [deg]
#  10 FWHM_WORLD             FWHM assuming a gaussian core                              [deg]
#  11 ELONGATION             A_IMAGE/B_IMAGE                                           
#  12 ELLIPTICITY            1 - B_IMAGE/A_IMAGE                                       
         1 -10.3363     10.2284     18.8053   1.1073904840e+02   6.9827959608e+01     1.297051    0.4016697 -31.08  0.004017607    7.162    0.860
         2 -10.6119     37.2719      9.6338   9.4212687572e+01   6.8937748590e+01    0.7793863    0.3363458 -42.03  0.001907421    1.960    0.490
         3 -10.7894     19.5295      6.8000   1.0132713981e+02   7.1272878977e+01     1.054306     0.798223  76.54  0.006165188    2.968    0.663
         4 -10.5575     32.2346     64.4394   1.1463312520e+02   5.8914844194e+01     1.307773    0.4959804 -35.81  0.004266588    4.603    0.783
         5 -11.1625     23.7088     32.4463   1.0929435900e+02   6.6179755676e+01     1.462221    0.3824511 -45.43  0.003369261    2.995    0.666
         6  -9.5650      2.3150     14.3844   1.1304318312e+02   7.1158300623e+01    0.4413433    0.2057642 -69.96  0.002013901    2.612    0.617
         7 -10.4422      4.9714      4.5596   1.0791031183e+02   7.2806064832e+01    0.4461881    0.3557493 -28.91  0.001548638    1.145    0.127
         8 -10.7515    154.1828     26.9985   6.6575152576e+01   4.3226580797e+01    0.7513626    0.5254963  13.64  0.003501667    1.597    0.374
         9 -10.5015     35.9082     37.9736   1.0611783935e+02   6.3976734312e+01    0.5313828    0.2758802 -32.78 0.0003724398    2.072    0.517
        10 -10.1547    130.6164     46.4989   7.8759427325e+01   4.6360957842e+01     1.268425    0.4656459 -21.34  0.003492913    4.670    0.786
        11 -10.1356     69.5493     40.5579   9.4503274554e+01   5.9236726456e+01     1.158004    0.3765594 -40.28  0.003828183    2.807    0.644
        12  -9.8066    101.0513     32.3846   8.1260282214e+01   5.4975157794e+01    0.5609297    0.3841397 -33.69  0.002589372    1.395    0.283
        13  -9.4195    102.7449     22.1354   7.6536935548e+01   5.6095188727e+01    0.6609756    0.2955106 -22.15  0.001945738    2.386    0.581
        14  -8.6309    104.0026     15.5359   7.3337034805e+01   5.6675839933e+01    0.4614266     0.231556  14.27  0.001615524    3.441    0.709
        15  -9.8252     63.9233      2.9789   7.9869025074e+01   6.6031346407e+01    0.5368975    0.2898793 -24.65  0.001895702    1.658    0.397
        16  -9.7333     63.2004     21.2469   8.8973723123e+01   6.3519978109e+01    0.5827981    0.2635546 -49.04  0.001763576    2.815    0.645
        17 -10.3199     64.5488     13.3995   8.4857142023e+01   6.4506708043e+01     0.453149    0.3251296 -40.76   0.00194889    1.474    0.322
        18 -10.3890     50.7239     15.2782   9.1122913527e+01   6.6298759469e+01     1.174411    0.6010847 -12.20  0.004622793    3.666    0.727
        19  -8.4254    120.2495     16.3312   6.9597856815e+01   5.2893832940e+01    0.5050523    0.2121206  23.36  0.001351133    5.430    0.816
        20  -8.7236    120.5189      6.1181   6.5216421597e+01   5.3923848208e+01    0.2638845    0.1926241  52.21 0.0009257379    1.311    0.237
        21  -9.3644    125.9783      4.9282   6.3554398071e+01   5.2711795610e+01    0.3845762    0.2431633  29.18  0.001531753    1.583    0.368
        22  -9.2071    114.3114      9.9423   6.8282394677e+01   5.4997996185e+01    0.4026645    0.2255068  31.70 0.0003464123    1.864    0.463
        23  -9.5237    131.5506     17.0051   6.7339523564e+01   5.0094159390e+01     0.462013    0.3303757  77.25  0.002222888    1.740    0.425
        24  -8.6807    112.3494     15.7220   7.1254579346e+01   5.4795004561e+01    0.3172388      0.20133 -35.30 0.0006576718    1.631    0.387
        25  -9.5422    132.0745      5.3715   6.2517313206e+01   5.1158205508e+01    0.5187681    0.2311998  49.73  0.001477335    1.987    0.497
        26  -8.2928    136.2207      1.6047   6.0203404030e+01   5.0448155652e+01    0.3403188    0.1442683  44.75   0.00134243    2.159    0.537
        27  -8.5478    125.0515     12.9688   6.7108611134e+01   5.2123956300e+01     0.251539    0.1900794 -43.61 0.0005732073    1.518    0.341
        28  -8.9739    126.9455      9.0545   6.5077184645e+01   5.2072057658e+01    0.3658417     0.195822  33.41 0.0007512955    1.950    0.487
        29  -9.2476     78.0927      4.4433   7.5748295964e+01   6.3302049131e+01    0.5991055    0.2777618 -12.38  0.002154734    2.630    0.620
        30  -9.9776     73.6067     17.3753   8.3481960260e+01   6.2404027287e+01    0.8949166    0.2262934 -32.98   0.00299036    3.723    0.731
        31  -8.7850     72.1360      8.5513   7.9783262771e+01   6.3885815951e+01    0.3247284    0.1697747 -20.91 0.0009150979    1.861    0.463
        32  -9.6767    133.6436     12.6912   6.5172655286e+01   5.0043108594e+01    0.4610088    0.2372029 -38.31  0.001940197    2.106    0.525
        33  -8.3871     97.1487     12.2642   7.3755171327e+01   5.8543777855e+01    0.3440317    0.1990658  20.66  0.001255117    2.053    0.513
        34  -9.6352     85.2992     13.1102   7.7653820206e+01   6.0839734160e+01    0.4435405    0.2554912 -50.75  0.001394978    2.618    0.618
        35  -8.1766    141.4177     13.2317   6.3848222282e+01   4.8027406534e+01    0.3051074    0.1903392  28.85  0.001160456    1.687    0.407
        36  -7.8751     80.4936     12.5463   7.8917907125e+01   6.1831423053e+01    0.2494309    0.1034374 -39.56   0.00102604    2.541    0.606
        37  -7.9112    137.5292      9.4869   6.3121423734e+01   4.9391252590e+01    0.1485461    0.1306705  28.12 -2.944729e-05    1.045    0.043
        38  -8.4751    104.4651      2.2988   6.7242067499e+01   5.8038981673e+01    0.3623616      0.18917  21.95  0.001144049    2.255    0.557
        39  -8.7829    101.7957      8.0153   7.0552454087e+01   5.8035771833e+01    0.2794433    0.2124695 -42.14 0.0006986762    1.537    0.349
        40  -9.0002     96.4191      4.3434   7.0279119043e+01   5.9600369357e+01    0.4532984    0.2628091 -40.47  0.001678754    2.004    0.501
        41  -8.5672    110.3148      7.6869   6.8251367122e+01   5.6160728889e+01    0.2015541    0.1916924 -27.65    0.0005697    1.204    0.169
        42  -9.1131    111.0004      4.4987   6.6666263610e+01   5.6329262036e+01     0.490257     0.323661 -55.86  0.002301575    2.183    0.542
        43  -8.4151     84.7854      6.8189   7.4818265544e+01   6.1722999147e+01    0.4308899    0.2155121  14.75  0.001638183    3.195    0.687
        44  -8.8231     88.9768      2.7554   7.1592286720e+01   6.1336344704e+01    0.2790746    0.2047311  -7.17  0.001207625    1.256    0.204
        45  -7.9927    143.1140      5.1373   6.0375344510e+01   4.8371973937e+01    0.1948522    0.1699478 -53.74  0.000536407    1.326    0.246
        46  -9.1009    115.2322      3.9873   6.5463561476e+01   5.5390316973e+01    0.2945795    0.2182638 -33.41 0.0006117038    1.451    0.311
        47  -7.8178    151.3121      1.6874   5.7676228775e+01   4.6534799322e+01    0.1457857     0.107657 -57.80 0.0006026101    1.632    0.387
        48  -9.8322    138.8102     91.4482   9.0834236644e+01   3.6828372369e+01    0.6888073    0.3545534 -40.34  0.001911159    1.953    0.488
        49  -8.6236    236.0474    249.4602   1.0234112878e+02  -2.4106224944e+00    0.1852534    0.1158427  10.79   0.00136946    1.600    0.375
        50  -8.4132    227.4165    249.7121   1.0363897444e+02  -1.1940564662e+00    0.1915799   0.08531339  31.53  0.001155791    1.765    0.433
        51 -11.1516    188.9245    246.8864   1.0907993904e+02   4.7132212308e+00    0.5991051    0.2643987  34.80  0.003553104    1.886    0.470
        52  -9.3371    139.8794     75.5510   8.6038181177e+01   3.9438948584e+01    0.6160676    0.4175376 -39.15  0.001794787    1.473    0.321
        53  -9.7497     27.3104    122.9354   1.2523732903e+02   4.7019113861e+01    0.4823468    0.2149292  69.02  0.002110254    2.912    0.657
        54 -10.6971    108.3085    100.5110   1.0069504365e+02   4.1081194826e+01    0.9328837     0.597657 -68.93  0.003228659    2.066    0.516
        55  -9.4246     41.4202    121.9538   1.2171968162e+02   4.5887571594e+01    0.3888813    0.1892257 -83.22  0.001963682    2.238    0.553
        56 -10.0394    108.6065    114.4458   1.0376335094e+02   3.8254357066e+01    0.5523818    0.3274989 -71.39  0.001456631    2.436    0.590
        57  -7.9642    101.6674    117.6994   1.0613375709e+02   3.8777689475e+01    0.1276855    0.1051404  -9.20 0.0003134132    1.652    0.395
        58 -10.1897     91.9157    113.1475   1.0763716370e+02   4.1262524296e+01    0.5253219    0.3606531  87.04  0.001726638    1.950    0.487
        59  -8.9359     93.0421    103.4324   1.0530997683e+02   4.3072652666e+01    0.6420233    0.3728197  21.95  0.002783078    2.785    0.641
        60  -8.0988      1.3511    115.9906   1.3074019331e+02   5.0403270758e+01    0.2283182   0.07632468 -75.73 0.0008670348    2.300    0.565
        61  -9.5159    152.7965    115.4355   9.3727131019e+01   2.9549723765e+01    0.2962913    0.2358566 -87.87 0.0009381895    1.707    0.414
        62 -10.2408     78.0692    113.0021   1.1112216566e+02   4.3343496030e+01    0.5039559    0.3001446 -79.81  0.001656742    2.167    0.539
        63  -9.6297     81.2576    100.3487   1.0776349425e+02   4.5517188380e+01    0.8520712    0.3571255 -46.49  0.002847369    2.401    0.583
        64 -10.5202     14.3553    111.6341   1.2718251213e+02   5.0391624937e+01    0.6854221    0.3051135 -88.40  0.003636799    2.252    0.556
        65  -8.8248    219.9979    248.9626   1.0464070096e+02  -5.8469776893e-02    0.1470031    0.1144548  54.64  0.001142896    1.722    0.419
        66 -10.6140    199.2262    247.0192   1.0752327450e+02   3.1696348312e+00    0.4285137    0.1984523  34.73  0.002650933    1.698    0.411
        67  -9.7558    153.3943    248.9170   1.1477452686e+02   9.7293243102e+00    0.3395175    0.1471793  53.74  0.001952377    2.197    0.545
        68 -10.8385     22.0188     53.6407   1.1574505279e+02   6.2020358072e+01    0.7628816    0.4063348  87.48  0.002698544    3.610    0.723
        69 -10.7464     25.5028     78.0101   1.1949985961e+02   5.6609552618e+01    0.6607022    0.5714765 -63.33  0.003432662    1.095    0.087
        70  -8.0921    103.9815    249.2339   1.2239456195e+02   1.6522055984e+01    0.1346667   0.06021877  44.97 0.0007975396    1.615    0.381
        71 -10.0296     34.4695     90.6172   1.1898405046e+02   5.3152974036e+01    0.4874788    0.2318114 -82.74  0.001621564    2.651    0.623
        72 -10.1372     36.8999     80.9953   1.1654985285e+02   5.4977453362e+01    0.6988245       0.3743 -20.75  0.003002716    4.025    0.752
        73  -9.3829    140.4280     82.5213   8.7956316376e+01   3.8087747896e+01    0.7515988     0.353219 -34.26   0.00293519    2.222    0.550
        74  -9.4360    162.5999    246.6938   1.1311855269e+02   8.6310995020e+00    0.2062962     0.130381  14.17   0.00128016    2.627    0.619
        75 -11.9638    242.5882    241.5600   1.0031988931e+02  -2.7381868993e+00    0.2220822    0.1603057  27.91  0.001768727    1.095    0.087
        76 -10.0976     13.0234     45.6866   1.1723960785e+02   6.4302589638e+01     0.603874    0.3161531 -23.09  0.002448448    2.643    0.622
        77 -10.1230      4.9750     42.0910   1.1953592009e+02   6.5523704541e+01    0.6387435    0.2964378 -66.97  0.002324608    1.715    0.417
        78  -9.7239      6.8263     32.8020   1.1652519641e+02   6.7302916127e+01    0.3406716     0.176609 -37.24   0.00119985    1.834    0.455
        79 -10.0301      7.2603     28.2990   1.1509778248e+02   6.8174181864e+01     0.313732    0.2676328  60.48  0.001114995    1.587    0.370
        80  -7.6118    167.4619    114.0034   9.0252048347e+01   2.6667156145e+01    0.2071137    0.1423344 -35.06 0.0004103824    1.520    0.342
        81  -8.1997     68.7763     79.5869   1.0656333878e+02   5.1618776915e+01    0.7041224    0.2575361 -61.32  0.002572485    3.324    0.699
        82 -10.6557     62.9998     95.7514   1.1181934157e+02   4.8968527973e+01    0.9963568    0.4935415 -76.81  0.001602513    3.053    0.672
        83  -8.8190     64.2637     86.5657   1.0952429854e+02   5.0749962365e+01    0.5449544    0.3179061 -17.43  0.002147412    4.028    0.752
        84  -9.9961     65.9221    111.0098   1.1388873608e+02   4.5383823016e+01    0.6390732    0.3631538  86.98  0.001128202    2.714    0.632
        85  -9.7680     59.5156    110.0173   1.1538406088e+02   4.6383540866e+01    0.4623721    0.2666875  64.41  0.001812316    2.179    0.541
        86  -8.4221    158.9495    111.7902   9.1518121834e+01   2.8882363329e+01    0.2417837     0.181137 -55.47   0.00049097    1.575    0.365
        87  -7.6997    191.1983    110.3979   8.4620898384e+01   2.1990255614e+01    0.1886893    0.1371518  58.32 0.0003134675    1.499    0.333
        88  -8.3450    149.8200    110.1794   9.3122568824e+01   3.1106832989e+01     0.195934     0.166697   1.97 0.0003890711    1.327    0.246
        89 -11.0338     44.3716    102.2580   1.1812785602e+02   4.9713279401e+01    0.8031297     0.395914  68.45  0.002830456    3.322    0.699
        90  -9.5666      6.5111    103.9757   1.2837265611e+02   5.2519060578e+01    0.3817132    0.1841131  77.43  0.001345983    2.245    0.555
        91  -8.7759    166.0030    104.0745   8.8086888121e+01   2.8656496369e+01    0.3165658    0.2037064 -44.26 0.0006397957    1.673    0.402
        92  -9.7782    149.5569    103.3033   9.1471129775e+01   3.2389547604e+01    0.4670943    0.3065936 -54.96  0.001016954    1.831    0.454
        93  -9.1621    150.7851     96.7471   8.9493685283e+01   3.3287236649e+01    0.6967649    0.3392393  25.79  0.002015091    4.679    0.786
        94  -8.1213     73.6006    102.0336   1.1017224661e+02   4.6252315959e+01    0.3181062    0.1170161 -59.74 0.0007682518    2.664    0.625
        95  -9.2701    158.8236    100.7933   8.8778497278e+01   3.0810230815e+01    0.3826005    0.2352708 -48.80 0.0009433159    1.843    0.457
        96 -10.6211    123.3221     92.0910   9.4774691785e+01   3.9898102332e+01    0.6746045    0.5584724 -33.78  0.001548786    1.227    0.185
        97  -8.9749    126.4844     83.6275   9.1668733292e+01   4.0856253965e+01    0.5885179    0.3425546  13.81  0.001927137    4.056    0.753
        98  -9.5019     94.2542     97.1839   1.0357633030e+02   4.4155280518e+01    0.3511758     0.250382 -69.56 0.0007371427    1.581    0.368
        99  -8.7347     95.7060     91.2902   1.0177119182e+02   4.5115883451e+01    0.3940495    0.2493364 -23.86  0.001700714    2.382    0.580
       100  -8.9372    164.6396     94.5593   8.5877131341e+01   3.0563523539e+01     0.269125    0.2480008 -46.49 0.0005862703    1.175    0.149
       101 -10.1563      4.3716     89.5608   1.2738270331e+02   5.5646420815e+01    0.5739691    0.2392367  87.69   0.00186105    2.786    0.641
       102  -9.5000      6.5679     78.2824   1.2532409402e+02   5.7878511916e+01    0.5654802    0.3029924 -22.74   0.00314641    3.010    0.668
       103  -9.2013    157.8009     90.8659   8.6347915914e+01   3.2744834615e+01    0.4152532    0.2371753 -27.69  0.001532837    1.940    0.484
       104  -9.2727    150.4013     89.3728   8.7582758519e+01   3.4668634475e+01    0.5110293    0.2674699 -29.19  0.001768016    2.161    0.537
       105  -9.6786    110.7631     89.9867   9.7429934728e+01   4.2718541864e+01    0.7617796    0.4073844  26.18  0.002918953    3.016    0.668
       106  -7.7949     78.3783     89.7427   1.0619460810e+02   4.8147894471e+01    0.2552725     0.117919 -57.72  0.001123112    2.118    0.528
       107 -10.5064     48.3801     82.9482   1.1345973050e+02   5.3397800224e+01     1.087299    0.4035549 -58.51  0.003709129    2.239    0.553
       108 -10.2119     62.5419     60.8862   1.0355059587e+02   5.6306087662e+01    0.7128986    0.3034235  34.94  0.001364826    2.698    0.629
       109 -10.6313     55.0310     70.9555   1.0868663812e+02   5.5174959458e+01    0.6784925     0.437687  70.03  0.001197377    2.408    0.585
       110  -9.2845     54.7759     63.4247   1.0682725177e+02   5.6769550978e+01    0.3689966     0.301416 -18.09  0.001769454    1.398    0.285
       111  -8.9305    242.1723     88.8124   7.0560649135e+01   1.3460758881e+01    0.2037283    0.1516073  11.36  0.001067408    1.354    0.261
       112 -10.2293     85.3768     86.6051   1.0346699041e+02   4.7741949910e+01     0.444919    0.3461502  88.62 0.0008569519    1.616    0.381
       113  -9.6197     87.2793     78.9665   1.0095685324e+02   4.9000501619e+01    0.6195682    0.3894027  16.85  0.001936066    2.502    0.600
       114  -8.9097     40.2429    107.2300   1.1999567906e+02   4.9079569379e+01    0.2160254    0.1559389  82.50 0.0005683661    1.378    0.274
       115  -8.8536    170.5952     84.0176   8.1712320047e+01   3.0910803208e+01    0.3808032    0.1742861 -35.90  0.001208147    2.181    0.542
       116 -10.4446    103.9522     82.7134   9.7300919273e+01   4.5399028297e+01    0.9223613    0.3685124 -45.30 0.0009203443    2.398    0.583
       117  -9.6212    104.4895     72.9918   9.4389013931e+01   4.7194704819e+01    0.6976529    0.4554795 -14.66  0.003071107    2.285    0.562
       118  -9.1788    163.6966     86.7293   8.3923772495e+01   3.2087304690e+01    0.4147984    0.2268765 -28.90  0.001360847    1.948    0.487
       119  -9.2301    157.9600     82.6347   8.3998601734e+01   3.4102731731e+01     0.519388    0.2764983 -22.32  0.001579943    2.357    0.576
       120  -8.8742    157.1137     75.9952   8.2240958439e+01   3.5405061015e+01    0.3984987    0.2258548 -27.53  0.001269398    1.873    0.466
       121  -9.8970    232.0828     78.9352   6.9494917491e+01   1.6957422834e+01    0.3221472    0.2614188 -14.03 0.0004199902    1.163    0.140
       122  -9.7377    236.4599     74.9103   6.7802683970e+01   1.6446922699e+01    0.3137524    0.2200347  41.34 0.0009200558    1.417    0.294
       123  -8.0957     63.3417     82.0266   1.0876923407e+02   5.1824507832e+01    0.1847699    0.1456545 -59.55 0.0005388412    1.131    0.116
       124  -9.0977     74.1768     80.2708   1.0512501216e+02   5.0723794224e+01    0.3214538    0.2071407 -67.43 0.0008847403    1.734    0.423
       125  -9.4651    150.1462     79.6328   8.4866182412e+01   3.6411812902e+01    0.5427335    0.2596071 -27.99  0.001346426    2.411    0.585
       126  -9.4140    115.4216     72.2728   9.1203209252e+01   4.5220259910e+01    0.5955356    0.3047587 -38.23  0.002013858    1.921    0.479
       127  -8.7665    119.0596     80.6944   9.2725650339e+01   4.2912920985e+01    0.2817193    0.2341617 -71.77   0.00082393    1.447    0.309
       128  -8.4384    119.9529     76.0214   9.1134884696e+01   4.3609455325e+01    0.2562596    0.2110596 -22.47 0.0005935867    1.265    0.209
       129  -8.6834    166.3345     78.0706   8.0883059574e+01   3.2879941426e+01    0.4367038    0.2443414 -22.42  0.001766235    2.044    0.511
       130  -8.4809    169.6457     72.0801   7.8425463860e+01   3.3027520767e+01    0.3386507    0.2037598 -35.50   0.00147118    1.665    0.399
       131  -9.5202    127.4055     75.2597   8.9002692392e+01   4.2204189832e+01     0.401572    0.2809518 -57.68 0.0008955995    1.727    0.421
       132  -8.4031    128.4853     69.9675   8.7117443416e+01   4.2923981590e+01    0.3044241    0.2365628   9.41   0.00149563    1.530    0.346
       133  -8.8691    130.9674     65.7418   8.5168290288e+01   4.3123369524e+01    0.5159868    0.2812133 -42.13  0.001916862    1.849    0.459
       134  -9.8715     81.6103     72.4345   1.0083803620e+02   5.1219347121e+01    0.4217527    0.2931903 -78.12 0.0009860824    2.078    0.519
       135  -9.0893     83.3292     64.8642   9.8120860901e+01   5.2456967110e+01    0.5821933    0.3452242 -16.36  0.002335875    3.091    0.676
       136  -8.4098    162.7618     73.0953   8.0158762032e+01   3.4532842412e+01    0.2918127    0.1959212 -44.48 0.0007019492    1.606    0.377
       137  -9.9147     16.0583     70.4949   1.2116609825e+02   5.8910775667e+01    0.5177876    0.1867379 -66.39  0.001403427    2.139    0.533
       138  -9.7954     16.6107     61.4990   1.1932819123e+02   6.0770022122e+01    0.5629907    0.4105363  25.11  0.003923366    1.723    0.420
       139  -9.0610    153.4169     34.6442   6.9466382111e+01   4.2478870093e+01    0.4366548    0.2308033 -33.46  0.001726412    1.878    0.468
       140  -7.2263     21.9984    243.7967   1.3416544241e+02   2.6568299483e+01    0.1073729   0.05147864  44.98 0.0002222051    1.635    0.388
       141  -9.3060    146.9714     69.2067   8.2444818125e+01   3.8904845628e+01    0.3838148     0.262297 -51.92 0.0009920424    1.718    0.418
       142 -10.3699    153.6501     41.5263   7.1837655169e+01   4.1507064040e+01    0.4907672    0.4149075 -68.02  0.001760328    1.444    0.308
       143  -9.3785    146.7929     60.7862   7.9812540310e+01   4.0321502551e+01    0.7205631    0.2751842 -38.07  0.002542984    2.572    0.611
       144  -9.2173    147.7072     53.9610   7.7358071041e+01   4.1170868187e+01    0.5503694    0.2079435 -29.90  0.001894274    2.686    0.628
       145  -9.8109    149.7327     48.1752   7.4956442384e+01   4.1542259216e+01    0.6424625    0.2097405 -28.33   0.00189864    3.153    0.683
       146  -8.8641    156.5694     69.4416   8.0375873692e+01   3.6602666763e+01     0.390593    0.2171865 -19.13  0.001261816    2.214    0.548
       147  -7.9937     95.3781     53.8127   9.0911624009e+01   5.2477114135e+01    0.3415085    0.1299607 -41.61  0.001302346    2.457    0.593
       148  -9.8001     94.8009     68.3663   9.5758042667e+01   4.9840490180e+01    0.3837115    0.2528343 -54.41 0.0007332919    1.596    0.373
       149  -9.4280     96.5430     59.6031   9.2499354488e+01   5.1197295853e+01    0.7355165    0.3871824 -19.48  0.002540427    3.696    0.729
       150  -8.3664     74.8555     74.8606   1.0353025298e+02   5.1742397007e+01    0.3810087    0.2314319   7.15  0.001580274    3.317    0.699
       151  -8.0884    236.2972     69.3492   6.6357342096e+01   1.7160478426e+01    0.1518026    0.1016576  18.89 0.0007034776    1.682    0.406
       152  -7.9253     23.2835     68.9544   1.1854220504e+02   5.8706750481e+01    0.1641334    0.1192168 -64.95 0.0003535988    1.103    0.094
       153  -8.9475    232.4866     68.2922   6.6608685007e+01   1.8179980891e+01      0.32054    0.1470754  44.59  0.001292869    2.204    0.546
       154  -9.4887    138.9568     56.1179   8.0083879348e+01   4.2912507250e+01    0.6932258    0.2417671 -36.17   0.00151689    2.756    0.637
       155  -8.6181    141.9675     48.6480   7.6841596546e+01   4.3359697889e+01    0.3589837     0.207253 -29.50 0.0004342095    1.716    0.417
       156  -8.6114    142.4162     44.4020   7.5257686174e+01   4.3879822521e+01    0.4369311    0.1943719  39.39  0.001574168    2.519    0.603
       157  -9.0926    138.0734     66.3937   8.3644186240e+01   4.1422077604e+01    0.3414445    0.2360817 -50.33 0.0005845526    1.636    0.389
       158  -8.6973    138.9431     62.0293   8.2036941197e+01   4.1954018392e+01    0.3403929    0.2212009  23.27   0.00119875    1.949    0.487
       159  -9.3073    121.2009     66.0861   8.7761341920e+01   4.5165345743e+01    0.3801742     0.261841 -43.80  0.001231347    1.456    0.313
       160  -8.3712    122.2908     61.3289   8.5941780920e+01   4.5773789083e+01    0.2809013    0.2062952  24.76 0.0005617836    1.539    0.350
       161  -9.3859    109.9761     63.9711   9.0091133106e+01   4.7836513100e+01    0.3497731    0.2728002 -56.61 0.0006810639    1.446    0.309
       162  -9.0607    110.5117     58.3379   8.8100887972e+01   4.8746799044e+01    0.4540772    0.3039017  19.73  0.001460455    1.951    0.487
       163  -8.0938    184.1211     78.0371   7.7321113504e+01   2.8586837398e+01    0.2298662    0.2137952  13.83 0.0005492338    1.020    0.019
       164  -8.5387    164.2813     61.2716   7.6196380038e+01   3.6000907390e+01    0.4567403    0.1603346 -33.86  0.001536213    2.738    0.635
       165  -8.2080    157.3946     63.1284   7.8226914787e+01   3.7405030375e+01    0.2306244    0.1816493 -14.20 0.0005800934    1.321    0.243
       166 -10.1525     73.3968     57.3493   9.8931553006e+01   5.5477972433e+01     1.106529     0.338989 -41.96  0.003031329    3.157    0.683
       167  -9.1599     80.0641     46.7098   9.3203410775e+01   5.6445351079e+01    0.4046383    0.2231954 -35.35 0.0008089029    1.715    0.417
       168  -8.1615    152.5128     59.6232   7.8161595103e+01   3.9134730223e+01    0.3209516    0.1464523 -31.82  0.001212394    2.174    0.540
       169 -10.3043     89.8767     38.2248   8.6923363123e+01   5.6215165903e+01    0.8720521    0.3729934  32.31  0.003185062    3.315    0.698
       170  -8.7681     87.5693     58.4321   9.4811362670e+01   5.2999469238e+01    0.3930203    0.2203048 -51.19  0.001171608    1.833    0.455
       171 -10.4616     85.6539     48.6141   9.2088822774e+01   5.5154485633e+01    0.5702681    0.4132784 -77.24  0.001480415    2.343    0.573
       172  -9.1534    129.9963     57.8494   8.2831653959e+01   4.4679741790e+01    0.3083391    0.2149633 -33.09 0.0005042806    1.404    0.288
       173  -9.4116    118.3299     54.8710   8.4814824917e+01   4.7730732995e+01    0.4851015     0.290042 -39.20  0.001501588    1.631    0.387
       174  -9.6686    121.4038     45.6697   8.0770012591e+01   4.8575122217e+01    0.8959508    0.3567424 -23.05  0.001905864    3.580    0.721
       175  -9.9842     43.8010     53.8379   1.0795812043e+02   5.9985087533e+01    0.6765032    0.4072282 -87.23  0.002979863    3.372    0.703
       176  -9.3322     53.3671     39.0084   9.9760839542e+01   6.1789091765e+01    0.4405762    0.1971856 -44.08  0.001790714    1.891    0.471
       177 -10.1000     49.9552     54.2188   1.0589542200e+02   5.9220891501e+01    0.6464001    0.3592444 -67.71  0.002356691    2.276    0.561
       178  -9.6709     56.0389     43.5279   1.0035151765e+02   6.0585658756e+01    0.7490752    0.3984648 -15.44  0.002732693    4.361    0.771
       179 -10.0538     37.8244     42.0085   1.0666068269e+02   6.2988784089e+01    0.4353338    0.2891555 -79.99  0.001830804    2.294    0.564
       180  -9.0743      7.4983    236.3644   1.3593969510e+02   2.8951966602e+01    0.1444566    0.1147093  68.62 0.0002143422    1.316    0.240
       181  -9.6790    162.9887     53.2257   7.3875231596e+01   3.7511302584e+01    0.4550283    0.3254336 -25.87  0.001750806    1.398    0.285
       182  -7.8506    152.4836     53.9497   7.6307422365e+01   4.0010703698e+01    0.2092357     0.119495 -52.19 0.0004110357    2.313    0.568
       183  -9.2538    105.5096     51.7386   8.7244062293e+01   5.0909224798e+01    0.6331062     0.271747 -36.19  0.001946178    2.244    0.554
       184  -9.1355    112.5547     44.4375   8.2663640640e+01   5.0690056329e+01    0.9650723    0.3972193 -21.51  0.002913823    4.154    0.759
       185  -9.2083    139.1320     39.8472   7.4371187203e+01   4.5329412734e+01     0.452284    0.3614496 -44.64  0.001701286    1.370    0.270
       186  -9.7493    188.1234    233.8667   1.0761889934e+02   6.1450675353e+00    0.2180272    0.1773579 -54.08  0.001534228    1.855    0.461
       187  -8.8024    132.8292     35.8371   7.4343939803e+01   4.7407982530e+01    0.3238201    0.2135971 -38.09 0.0004403069    1.562    0.360
       188 -10.6843    134.0371     31.0818   7.2278627595e+01   4.7763907723e+01    0.4249727    0.2867953   1.78            0    1.715    0.417
       189  -8.9827    157.1523     48.8809   7.3628072586e+01   3.9598848329e+01    0.3977894    0.2484892 -50.65  0.001242333    1.958    0.489
       190  -7.2268    184.3103    225.6564   1.0717686995e+02   7.6190192089e+00    0.1043409   0.07791751  63.11 0.0007045257    1.700    0.412
       191  -9.1750     70.3151     26.6095   8.8715427343e+01   6.1527803455e+01    0.3607005    0.3076213  25.54  0.002254067    1.244    0.196
       192  -9.9940     76.0233     31.8611   8.8911446786e+01   5.9719669764e+01    0.4652312    0.3931648  87.69  0.001142346    1.820    0.450
       193  -9.9920     79.7630     23.8834   8.4302823375e+01   6.0347560026e+01    0.6656513    0.3151461  29.63  0.002317671    2.823    0.646
       194  -9.0864     84.7127     21.9299   8.1835349319e+01   5.9732922913e+01    0.2755832    0.2344977   9.60 0.0007737462    1.109    0.098
       195  -9.1362    110.3171     33.1370   7.8966596378e+01   5.2918689737e+01    0.4134073    0.2445482 -41.81  0.001372099    1.788    0.441
       196  -8.2882    110.3727     26.8843   7.6440522871e+01   5.3800983854e+01    0.3955634    0.2096737 -32.87  0.001755454    1.814    0.449
       197  -9.2797    104.9716     40.8342   8.3428570650e+01   5.2849597417e+01    0.4334107    0.2468136 -44.74   0.00105542    1.875    0.467
       198  -8.3286    106.3383     36.3193   8.1310937854e+01   5.3281270183e+01    0.2589846    0.2226085   0.47 0.0008697587    1.121    0.108
       199  -8.4625    160.1707     39.8777   6.9962101698e+01   4.0073290488e+01    0.2256276    0.1989593 -48.46 0.0005429194    1.251    0.201
       200  -9.2547    144.1775     36.5147   7.2052720603e+01   4.4554065831e+01    0.3218115    0.2231349 -52.18 0.0006108311    1.762    0.432
       201  -8.8930    118.9653     34.6613   7.7283080380e+01   5.0790821025e+01    0.3458654    0.1935636 -32.62 0.0006947159    1.727    0.421
       202  -7.9254      5.5921    223.1849   1.3575665291e+02   3.1047813203e+01    0.1097452   0.06638128 -76.58  0.000524749    1.710    0.415
       203 -10.1177    155.0755    219.3015   1.1120008906e+02   1.2984087198e+01     0.182165     0.148714  44.34 0.0002121228    1.068    0.064
       204  -7.5723     28.6828    214.9942   1.3187537710e+02   3.0163942996e+01     0.127945   0.08997027  73.96 0.0003124346    1.084    0.077
       205 -10.2235     10.2775    207.4668   1.3442704393e+02   3.3063411664e+01    0.3964837    0.2046363  33.54  0.002897851    2.235    0.553
       206  -9.4756     60.0917     33.4510   9.5198669634e+01   6.1907650759e+01    0.3932331    0.3411842 -64.89  0.001652227    1.466    0.318
       207  -8.7326     61.9666     26.8488   9.1844925264e+01   6.2785183719e+01    0.3385768    0.2359868  -4.28  0.001870438    1.666    0.400
       208  -7.4241    156.8441    204.5997   1.0901017132e+02   1.4620162816e+01    0.1571007   0.08978636  51.06 0.0002055703    1.525    0.344
       209  -9.2809    192.2398    194.6202   1.0137527794e+02   9.9153153385e+00    0.6184378    0.3314315 -59.75  0.002423276    5.354    0.813
       210  -9.2726    226.1985     30.2669   5.6892315136e+01   2.4063133528e+01    0.3714284    0.2509545 -11.46 0.0009170944    1.532    0.347
       211  -8.2222    230.5694    168.8015   9.0333429519e+01   6.1223326096e+00    0.2963364     0.165638 -39.45  0.001537746    2.280    0.561
       212  -8.9323     42.1249     28.1286   1.0011641790e+02   6.5175612715e+01    0.2970186     0.167456 -33.07  0.001026434    1.649    0.393
       213  -9.1078    144.1948     26.4631   6.8349267305e+01   4.5838535084e+01    0.3950448    0.2387593 -15.08  0.001306459    1.751    0.429
       214  -9.2365     91.5755     26.4249   8.1624188871e+01   5.7759795340e+01    0.3724572    0.2413289 -50.90  0.001150704    1.988    0.497
       215  -8.7359     92.2056     20.9829   7.9092672404e+01   5.8420624747e+01    0.3575194    0.2185845  17.07   0.00123255    2.043    0.510
       216  -8.9348    128.6337     24.7919   7.1079698542e+01   4.9877364113e+01    0.4978302    0.2856305 -12.01  0.001529949    1.949    0.487
       217  -7.2321    199.0611     23.7411   5.8319518020e+01   3.1743219495e+01    0.1756281    0.1257652  68.88  0.000257638    1.414    0.293
       218  -8.4404    139.9687     22.9516   6.7892091897e+01   4.7320303533e+01    0.2294492    0.1746332 -59.78 0.0004983086    1.669    0.401
       219  -9.3157    119.1757     21.5238   7.2000375186e+01   5.2519491743e+01    0.2905505    0.2498419 -30.31 0.0005998517    1.211    0.174
       220  -7.4688     31.9979    173.9802   1.2879343531e+02   3.6721343923e+01    0.1237172   0.09445855  72.05 0.0003895206    1.035    0.033
       221  -9.1949    247.9704    163.8385   8.6569497460e+01   3.5375326954e+00    0.3036673    0.1854127  44.86  0.000873211    1.568    0.362
       222  -9.0615    103.9558    161.1161   1.1302361139e+02   3.0068844051e+01    0.1727446    0.1511894  65.25 0.0002680828    1.000    0.000
       223  -9.2249    248.4632    158.8237   8.5498127278e+01   3.9845571018e+00    0.2488409    0.1860558  10.01 2.370601e-05    1.150    0.131
       224  -8.6042    248.4978    153.9901   8.4515845466e+01   4.5016198894e+00    0.2302574     0.161558  37.29 0.0004983953    1.285    0.222
       225  -8.4403    111.5110     21.5541   7.3937203580e+01   5.4261479371e+01    0.3676873    0.2231302 -19.16   0.00162679    1.644    0.392
       226  -8.3342    170.0166    156.9831   9.8940466730e+01   1.9180326983e+01    0.1906515    0.1688617  37.95  0.001184862    1.016    0.016
       227 -10.3567    216.5553    152.2099   8.9422806479e+01   1.0761085722e+01    0.2398519    0.2014865  38.66  0.000360798    1.165    0.142
       228  -8.6408    133.7083    145.7179   1.0422442047e+02   2.7867409486e+01    0.5356003    0.1188777 -51.15  0.001550007    5.696    0.824
       229  -9.4971    238.5668    145.9798   8.4435416825e+01   7.2622020086e+00    0.3379247    0.1565783  27.90  0.001432156    2.479    0.597
       230  -8.6013    102.6286    146.0263   1.1101412177e+02   3.3077770561e+01    0.1915657    0.1574397  53.33  0.001009665    1.134    0.118
       231  -9.5726     66.9412    144.1211   1.1864974282e+02   3.8497672049e+01    0.4307831    0.2838608  76.11  0.002597635    1.585    0.369
       232  -9.1526    235.6091    134.1334   8.2357423178e+01   9.2549733734e+00    0.2496582    0.1909145  41.75 0.0003817737    1.271    0.213
       233  -8.6815    112.3680    133.9384   1.0674728383e+02   3.3798340504e+01    0.3046345     0.210981  85.78  0.001174805    1.964    0.491
       234  -8.0747    221.2398    133.0484   8.4515134854e+01   1.2300379815e+01     0.188347    0.1656659  14.46 0.0006149907    1.036    0.034
       235  -8.1837    140.2017     18.1476   6.5995552978e+01   4.7810980961e+01     0.198582     0.169642 -50.89 0.0004235787    1.352    0.260
       236  -8.6111     95.8543     16.7184   7.6130685448e+01   5.8255330738e+01    0.2554215    0.1816751 -28.33 0.0005488364    1.347    0.257
       237  -8.3355    135.5093    132.5074   1.0128344207e+02   2.9917700605e+01     0.446583    0.2015243 -41.23  0.001877899    2.474    0.596
       238  -8.8361    132.3482    131.6703   1.0181249469e+02   3.0664126114e+01    0.2727185    0.1824734 -71.15 0.0009436117    2.066    0.516
       239  -9.9874     46.3315     29.8771   9.9095194990e+01   6.4359365424e+01    0.4137305    0.2323037 -55.45  0.001015433    1.941    0.485
       240  -7.0535    189.3173     15.7021   5.7063756180e+01   3.5136047712e+01    0.1505027    0.1079768 -59.70 0.0002722957    1.612    0.380
       241  -7.3029    171.2545     15.0390   5.9412101985e+01   4.0028635150e+01    0.1768146    0.1267681 -14.88 0.0002447903    1.436    0.304
       242  -7.2407     85.9495    134.0000   1.1284465696e+02   3.7941589040e+01    0.1971957   0.06777316  39.18 0.0005521814    2.919    0.657
       243  -9.7422     98.7248    128.7772   1.0895855493e+02   3.7044036878e+01    0.5662761    0.3213477  72.30  0.002390601    2.968    0.663
       244 -10.5708     70.5485    126.1864   1.1524780025e+02   4.1642702939e+01    0.5302366     0.487187 -64.56  0.001606626    1.164    0.141
       245 -10.1233     58.2673    124.5689   1.1797795873e+02   4.3501464094e+01    0.6162383    0.3126414  74.94  0.002540748    3.163    0.684
       246  -7.0189    168.3021    129.7171   9.3715395536e+01   2.3875441335e+01    0.1324939    0.1109802  84.60 0.0002957266    1.553    0.356
       247 -10.6330    139.5601    103.0819   9.3697860637e+01   3.4537566490e+01      1.00896    0.5239425 -34.60  0.002427242    2.135    0.532
       248  -8.9819     41.0071     20.6869   9.7574334709e+01   6.6637020359e+01    0.2209638    0.1432961 -33.74 0.0003287285    1.288    0.223
       249 -10.1111    117.1250    124.1955   1.0375965511e+02   3.4850279834e+01    0.7544329    0.3899107 -54.28  0.002410524    2.051    0.512
       250 -10.4138    140.5497    117.7175   9.6975848134e+01   3.1645492767e+01    0.8299578    0.3866184 -46.49  0.001560918    2.264    0.558
       251 -10.1652    130.4816    118.2553   9.9393698830e+01   3.3517793744e+01    0.5518182    0.3334948 -57.89  0.001411098    1.945    0.486
       252 -10.8763    133.5125    109.0428   9.6568865589e+01   3.4657905806e+01     1.861992    0.4867337 -49.45  0.005261956    4.839    0.793
       253  -9.7367    127.7895    102.4167   9.6318769546e+01   3.7044606180e+01    0.5132373    0.3390332 -53.02  0.001258292    1.620    0.383
       254 -11.2260    121.0511    109.5547   9.9652299832e+01   3.6969983808e+01      1.13896    0.6731774 -57.72  0.003097189    1.930    0.482
       255 -11.1211     20.9976    100.9947   1.2424208707e+02   5.2098686723e+01     1.616612    0.7819698  80.28  0.007509085    2.659    0.624
