#   1 NUMBER                 Running object number                                     
#   2 MAG_AUTO               Kron-like elliptical aperture magnitude                    [mag]
#   3 X_IMAGE                Object position along x                                    [pixel]
#   4 Y_IMAGE                Object position along y                                    [pixel]
#   5 X_WORLD                Barycenter position along world x axis                     [deg]
#   6 Y_WORLD                Barycenter position along world y axis                     [deg]
#   7 A_WORLD                Profile RMS along major axis (world units)                 [deg]
#   8 B_WORLD                Profile RMS along minor axis (world units)                 [deg]
#   9 THETA_WORLD            Position angle (CCW/world-x)                               [deg]
#  10 FWHM_WORLD             FWHM assuming a gaussian core                              [deg]
#  11 ELONGATION             A_IMAGE/B_IMAGE                                           
#  12 ELLIPTICITY            1 - B_IMAGE/A_IMAGE                                       
         1 -11.8697      2.1439     40.8021   1.3154144823e+02   6.7507393186e+01     1.070168    0.1215133 -64.14  0.002617921    9.277    0.892
         2 -13.0370      4.6843     10.0207   1.1964759531e+02   7.3050115362e+01     1.629943    0.4894998 -44.26  0.008204262    2.341    0.573
         3 -13.7835    204.9071     10.6467   6.3908770987e+01   3.2679541069e+01     1.681863     1.143324  38.47  0.008569553    1.829    0.453
         4 -13.1737    191.3610     28.9532   7.0715179532e+01   3.4072110180e+01     1.320016     1.179605  71.89   0.00691441    1.086    0.080
         5 -10.5058     81.8381    248.8826   1.3938068470e+02   1.5015819874e+01     0.193061    0.1603801  65.00  0.001443619    1.196    0.164
         6 -11.4344    248.3545    248.0652   1.1094064026e+02  -1.0017863386e+01    0.3602313    0.2565625  16.31  0.002673269    1.081    0.075
         7 -10.5881    143.7317    249.5897   1.2879701473e+02   5.7237008341e+00     0.301946   0.09073153  39.13 0.0008846863    2.943    0.660
         8 -11.2009    125.1436    249.8430   1.3205267013e+02   8.5604866690e+00    0.3896325    0.1310329  38.53  0.001738321    2.761    0.638
         9 -10.8403     97.9946    249.4702   1.3669023056e+02   1.2650074596e+01    0.3216034     0.179314  49.45  0.001975892    1.361    0.265
        10  -9.8997    101.5073    246.0299   1.3577674926e+02   1.2689553959e+01    0.1482465    0.1061951 -76.32 0.0007976225    1.571    0.363
        11 -12.3506     33.8269    246.9459   1.4710434249e+02   2.1364089429e+01    0.7152399     0.575063  34.80  0.005693219    1.836    0.455
        12 -11.0831     24.3001    246.5324   1.4857544725e+02   2.2488083013e+01    0.4690292    0.1152266  55.72  0.002360274    2.871    0.652
        13 -14.3976      6.6444    240.9233   1.5105161150e+02   2.5265358401e+01     10.46968     2.435612  32.21    0.0353263    9.193    0.891
        14 -10.4715     82.5108    243.4772   1.3883016169e+02   1.5813539503e+01    0.1653962    0.1184891  61.33 0.0008299551    1.038    0.037
        15 -15.5191      7.6875    204.9505   1.4926611402e+02   3.1721607053e+01     9.146749      1.38125 -76.14   0.02845381    5.058    0.802
        16 -11.0471    149.1145    229.8265   1.2544391431e+02   7.8076825683e+00     0.366553    0.1538923  35.39  0.001642951    2.460    0.594
        17 -10.8130    173.7181    222.2919   1.1986306704e+02   4.8132655195e+00    0.3939251    0.1438024  40.79  0.001713044    2.320    0.569
        18 -12.5337     40.9824    232.0358   1.4508232891e+02   2.3131828694e+01     0.280413    0.2158567 -76.06 0.0007901128    1.488    0.328
        19  -9.1862     94.6476    216.6815   1.3411666663e+02   1.8775458512e+01    0.2397916    0.1331069  68.98 0.0007319149    1.943    0.485
        20 -10.7034     47.6150    248.2971   1.4498195763e+02   1.9526406373e+01    0.4221255     0.185633  47.40  0.002637366    1.727    0.421
        21  -8.7892    152.6833    212.9333   1.2245644772e+02   9.9242966558e+00     0.165813    0.1493494  58.25 0.0003952455    1.091    0.084
        22  -9.5654     33.0686    207.4838   1.4487081485e+02   2.8636979745e+01    0.1998097    0.1162404  79.48 0.0003629661    1.411    0.291
        23 -14.5318     47.1887    224.6042   1.4352477694e+02   2.3743665704e+01     1.904314     1.663116  55.11   0.00741666    1.420    0.296
        24  -9.9167    193.4708    195.5809   1.1183125828e+02   5.4189981078e+00    0.6565418     0.308056 -61.16   0.00153125   10.744    0.907
        25 -11.3705     66.1869    197.6289   1.3770347378e+02   2.6555900493e+01    0.3313503    0.2301376 -50.05  0.001488424    1.949    0.487
        26  -8.6778     51.5064    197.0523   1.4055930040e+02   2.8564488082e+01    0.1632681    0.1001992 -79.87 0.0003827952    1.464    0.317
        27 -11.5327     71.6652    189.9954   1.3578967862e+02   2.7379029551e+01    0.2536072      0.22104 -66.84 0.0007708131    1.353    0.261
        28 -10.3994    234.0605    237.8091   1.1167759773e+02  -6.9093221936e+00    0.1660584    0.1390301  33.57   0.00100383    1.304    0.233
        29  -9.0740    102.6940    178.7813   1.2773318203e+02   2.5031744876e+01    0.1847396     0.135306  75.22 0.0005403999    1.369    0.269
        30 -10.7999     80.7977    177.4429   1.3234664018e+02   2.8736135414e+01    0.2348414      0.19872 -78.45 0.0003022705    1.159    0.137
        31 -13.0353     68.0687    175.3893   1.3487968126e+02   3.0989011547e+01    0.4533187    0.2733876 -47.18  0.001598662    2.198    0.545
        32 -11.7245     87.9221    168.0870   1.2947470249e+02   2.9702527888e+01    0.6085135    0.5025726  60.98  0.003669685    1.127    0.113
        33 -12.5324     67.2253    144.0493   1.3082290316e+02   3.8185724362e+01    0.9333274    0.5465994  85.91  0.003558351    2.071    0.517
        34 -11.9626     58.0482    132.4733   1.3136512966e+02   4.2093062760e+01     1.642779    0.5655779 -77.28  0.004118799    7.008    0.857
        35  -9.8609    100.1168    151.9765   1.2404030117e+02   3.1332919533e+01     0.268696    0.2565336 -63.36 0.0007817323    1.181    0.153
        36  -9.0827    102.6932    147.6797   1.2264564076e+02   3.1866145659e+01     0.250717    0.2016716 -31.32  0.001315434    1.628    0.386
        37 -12.0212     88.7225    151.3365   1.2668735953e+02   3.3340542542e+01    0.2718978    0.2496429 -56.43 0.0005025148    1.233    0.189
        38  -9.9882    185.4149    238.1954   1.2003811952e+02   6.3098338323e-01     0.143983    0.1144787 -61.16 0.0009523846    1.787    0.440
        39  -8.4087    192.2285    144.0033   1.0170150317e+02   1.4538236575e+01    0.1854433    0.1207659 -38.69  0.000443008    1.549    0.354
        40  -9.8397    198.9906    246.2450   1.1881093859e+02  -2.5400287546e+00    0.1597952   0.07824168  40.41 0.0008887654    1.610    0.379
        41  -9.6396    110.7428    136.9823   1.1857931758e+02   3.2866289226e+01    0.3511878    0.2297774 -31.08  0.001124222    2.201    0.546
        42 -10.2991     98.3250    134.3606   1.2119561360e+02   3.5668208885e+01    0.2590974    0.2292212 -41.12 0.0006409173    1.281    0.219
        43  -9.5461    107.6396    123.9063   1.1657371463e+02   3.6420515253e+01    0.2066466    0.1985865  41.49 0.0003148029    1.147    0.128
        44 -10.6789    168.1902    113.1202   9.9238695270e+01   2.5889327998e+01    0.3631655    0.3033563 -77.60 0.0008623305    1.390    0.281
        45  -9.3603    203.7664    111.4199   9.1647725427e+01   1.7908001964e+01     0.214217    0.1385134  40.09  0.000942755    1.676    0.403
        46 -10.2754    228.5426    228.0143   1.1105100411e+02  -4.9584259291e+00     0.265596    0.2030242 -58.44   0.00134976    2.338    0.572
        47  -8.5737     11.6217     93.2775   1.3848329439e+02   5.5661206296e+01    0.1174313    0.0782673  70.03 0.0007005627    1.706    0.414
        48  -9.2715    163.3179    249.6663   1.2540335685e+02   2.6333845037e+00    0.1140335    0.0787392  63.50            0    1.694    0.410
        49 -10.3233    108.0837    248.8959   1.3490768886e+02   1.1269360123e+01    0.1844682    0.1222074  63.20 0.0007579605    1.308    0.235
        50  -9.4757     88.5101    249.0036   1.3826349086e+02   1.4071351700e+01    0.1459344     0.100854 -80.03 0.0004715435    1.563    0.360
