#   1 NUMBER                 Running object number                                     
#   2 MAG_AUTO               Kron-like elliptical aperture magnitude                    [mag]
#   3 X_IMAGE                Object position along x                                    [pixel]
#   4 Y_IMAGE                Object position along y                                    [pixel]
#   5 X_WORLD                Barycenter position along world x axis                     [deg]
#   6 Y_WORLD                Barycenter position along world y axis                     [deg]
#   7 A_WORLD                Profile RMS along major axis (world units)                 [deg]
#   8 B_WORLD                Profile RMS along minor axis (world units)                 [deg]
#   9 THETA_WORLD            Position angle (CCW/world-x)                               [deg]
#  10 FWHM_WORLD             FWHM assuming a gaussian core                              [deg]
#  11 ELONGATION             A_IMAGE/B_IMAGE                                           
#  12 ELLIPTICITY            1 - B_IMAGE/A_IMAGE                                       
         1 -12.9264     55.8192     69.2188   1.0220579061e+02   5.6544148014e+01     2.524225     1.534069  47.51  0.007412905    1.884    0.469
         2 -12.4562     46.1463     18.0654   8.6929637378e+01   6.8988354043e+01     2.173531     1.285456 -55.44  0.002804986    2.072    0.517
         3 -11.3727     14.3197     36.7308   1.1195909331e+02   6.8407043216e+01     1.204234    0.5832954 -52.57  0.006179166    1.633    0.388
         4 -10.9546      6.8746     57.1327   1.1996343821e+02   6.3964063510e+01     1.233401    0.6976209 -89.35   0.00661908    1.697    0.411
         5 -11.9077     24.8520      5.2762   9.2032309812e+01   7.4222749344e+01    0.6913191    0.3813792 -41.24    0.0037031    1.507    0.337
         6 -11.2404     23.5314     30.4609   1.0490176837e+02   6.9130618718e+01     1.063575    0.3412912 -63.17   0.00398123    3.053    0.672
         7 -11.9612     29.5369     22.3715   9.8186888159e+01   7.0298074260e+01     1.550846    0.8647975 -59.94  0.007731402    1.823    0.451
         8 -12.6524     13.5620      5.8380   1.0031544133e+02   7.5266515444e+01     1.238461    0.9924874 -11.33  0.008274272    1.276    0.217
         9 -12.3788      3.2116     17.4302   1.1272366402e+02   7.3481603912e+01    0.3559918    0.2133584 -47.86 0.0004018005    1.332    0.250
        10 -12.9529      3.8647      9.6062   1.0932150559e+02   7.5171581953e+01    0.6556764    0.2584281 -54.87 0.0005867743    1.832    0.454
        11 -12.1717     38.5092     87.8855   1.1274508956e+02   5.4040304552e+01     1.907255    0.7542698 -55.44  0.006776458    2.195    0.544
        12 -12.9162     52.2200     91.8750   1.0874370567e+02   5.1562501233e+01     8.953639          nan -56.01   0.02020139    7.508    0.867
        13 -11.6795    128.8343     20.4148   6.0092282825e+01   5.0734677745e+01     1.327454    0.6390616  59.34  0.004411402    2.024    0.506
        14 -10.3894    131.4866     13.2967   5.6539086042e+01   5.0862596272e+01    0.5334488    0.2772127  55.00   0.00141384    1.821    0.451
        15 -11.9823    136.8105      4.7257   5.1980017771e+01   5.0304079938e+01     1.092176    0.8458449 -82.07  0.004026524    1.456    0.313
        16 -11.4592    164.1403      7.1621   4.9103595424e+01   4.2734213032e+01       1.4925     1.075316 -85.64  0.007339091    1.522    0.343
        17 -10.9844    181.6862      4.7943   4.6314620639e+01   3.8291580738e+01     1.096465    0.5155483 -78.50   0.00404791    2.924    0.658
        18 -11.6099     74.1800     46.9519   8.7731245578e+01   5.8688346211e+01     1.394843    0.6305079 -32.96  0.005065403    2.751    0.637
        19  -9.9206     69.2134     19.2137   7.7007276124e+01   6.4788630195e+01     1.070653    0.7220439  35.49  0.005441096    1.563    0.360
        20 -12.4958    165.1120     23.6402   5.4936666576e+01   4.0774550694e+01     1.061047    0.7606006 -83.11  0.004989325    1.660    0.397
        21 -11.9587    149.9647     16.6025   5.4668476026e+01   4.5590107122e+01     1.317897    0.9738657   1.23  0.003169129    1.480    0.325
        22 -12.1088    107.5441     33.2115   7.0815377353e+01   5.4241822471e+01     1.987535     1.096528  26.18  0.006693629    2.698    0.629
        23 -13.0161     73.1476     30.7719   8.1200901552e+01   6.2033643256e+01     2.406515     1.236305  50.87   0.01025624    2.275    0.560
        24 -11.3102     90.5608     21.4708   7.0501657994e+01   5.9954942231e+01    0.6915872    0.3597586 -16.10 0.0006102156    2.417    0.586
        25 -12.2173    113.1370     20.1482   6.3530182976e+01   5.4770189672e+01     1.177408    0.8865175  -5.08  0.005801433    1.400    0.285
        26 -12.4127    101.5448     54.7537   8.1275416706e+01   5.1763459893e+01     1.242629    0.8491099  -2.26  0.003238548    2.215    0.549
        27 -12.4720     99.8014      7.8159   6.0949309081e+01   5.9562349064e+01     1.046165    0.7071648  51.29  0.002690155    1.435    0.303
        28 -12.0704    113.0331      8.2404   5.8012317430e+01   5.6204149349e+01     1.306241    0.5800151  72.68  0.004741528    2.811    0.644
        29 -11.1181    199.2456      6.3725   4.5167757750e+01   3.3630796481e+01    0.7798985     0.726903   8.58  0.004671731    1.144    0.126
        30  -9.1824    160.4515     39.8677   6.1474645652e+01   3.9956627142e+01     1.134387    0.6231654  -7.75  0.004251873    2.441    0.590
        31 -12.4161      8.8403     26.0052   1.1192287648e+02   7.1232408904e+01    0.8571984    0.6382487 -30.96  0.004777051    1.350    0.259
        32 -12.0065     19.1180     13.5319   1.0043295114e+02   7.3195832625e+01    0.4741043    0.3729565 -10.53  0.001980528    1.339    0.253
        33 -10.9752    215.2796     23.9967   4.8964030906e+01   2.7974478314e+01    0.7108595    0.4815631 -32.67  0.001878265    1.316    0.240
        34 -11.5937    213.8406      4.6191   4.3446172821e+01   3.0175589015e+01    0.8849024    0.3764019  72.90  0.001474049    2.432    0.589
        35 -11.0103    227.2014      2.7176   4.1961965068e+01   2.7175507343e+01    0.3042214    0.2258104  89.81 0.0002564409    1.438    0.305
        36 -10.2377    221.8837     10.9833   4.4649403382e+01   2.7680314425e+01    0.4647458    0.3664496 -30.28  0.001735999    1.137    0.121
        37  -9.5752    226.0983      8.7400   4.3701644472e+01   2.6899521553e+01     0.326889    0.2185456  23.69  0.001131527    1.872    0.466
        38 -10.7659    211.2186     17.4588   4.7435559797e+01   2.9616297887e+01    0.5222317    0.3259275  52.62  0.002581205    1.717    0.418
        39 -10.4569    212.8011     11.7878   4.5624050650e+01   2.9777740817e+01    0.4076987    0.3214897 -71.54  0.001191711    1.321    0.243
        40  -9.7826    232.1738     18.7423   4.5982847415e+01   2.4565336536e+01    0.4985822     0.355761 -12.14  0.002749777    1.391    0.281
        41 -10.8588    233.0860     10.0174   4.3547362300e+01   2.5180582631e+01    0.4710775    0.3120215 -17.15  0.001231644    1.438    0.305
        42 -10.3574    243.4458     11.8407   4.3314613595e+01   2.2715130471e+01    0.5102312    0.2819645 -15.54  0.002073725    1.754    0.430
        43  -9.3341    244.0918      5.3332   4.1588548592e+01   2.3158169317e+01    0.2680586    0.1907204   3.65  0.001518615    1.622    0.383
        44 -10.7570    236.4024     31.8781   4.9170512981e+01   2.2292530077e+01    0.6631661    0.5012051 -11.35  0.003472778    1.290    0.225
        45 -10.6626    240.5189     19.5961   4.5556514259e+01   2.2623682931e+01    0.9290668    0.2363908 -31.62  0.003490308    2.769    0.639
        46 -11.4486    179.1896     27.8432   5.4369285409e+01   3.6599767990e+01    0.7735636    0.4881658  48.64   0.00233978    1.636    0.389
        47  -9.9838    176.7536     21.1410   5.2429236586e+01   3.7984841609e+01    0.4834733    0.3209583 -19.38  0.002166345    1.490    0.329
        48  -9.8840    176.8277     15.1782   5.0379813211e+01   3.8588882858e+01    0.7409076    0.2456389  59.60  0.001921472    2.739    0.635
        49 -12.0004    117.6660     49.8775   7.4744678893e+01   4.9071578766e+01     1.340582    0.8106117 -36.35   0.00406126    1.588    0.370
        50  -9.7504     82.0462     20.0487   7.2630393039e+01   6.2035509508e+01     0.545548    0.3984337 -60.27  0.002646844    1.861    0.463
        51 -10.2313    198.9141     16.5061   4.8347879110e+01   3.2757982091e+01    0.4404971    0.3042935  -0.17  0.001465672    1.627    0.385
        52 -10.1228    201.6220     19.2292   4.8911922463e+01   3.1805075804e+01    0.4074612    0.2736917  17.76  0.001711605    1.820    0.451
        53  -8.3587     83.4371     12.8704   6.8395758706e+01   6.2767332031e+01     0.307836    0.1763411  24.61 0.0009868881    2.228    0.551
        54  -9.5028     67.5374     13.5742   7.4600945785e+01   6.6005251344e+01     0.252995    0.1909297  43.03 0.0006457875    1.394    0.283
        55  -9.3423     50.1409     11.3027   8.1080724293e+01   6.9543132409e+01     0.489052    0.2783557  46.97  0.002124891    2.054    0.513
        56 -11.9759     57.4172      4.5307   7.3471999168e+01   6.9283335782e+01    0.6854444    0.5020906  28.96  0.001341337    1.380    0.276
        57  -9.4047     77.9739      8.9549   6.8083523845e+01   6.4489670213e+01    0.2924012    0.2121764 -44.24  0.001132872    1.545    0.353
        58  -8.8247     77.9120      4.5312   6.5566442782e+01   6.5057099677e+01    0.3726555    0.1984085  26.06  0.001541513    2.350    0.575
        59  -8.5286     82.4563      2.5206   6.2948926880e+01   6.4264566026e+01    0.2532213    0.1760383 -11.71 0.0007992306    1.403    0.287
        60  -8.9834    250.4015      8.2884   4.1959461748e+01   2.1544986568e+01    0.2677553    0.1225338 -30.19 0.0007101027    1.736    0.424
        61  -8.2422    238.3078      7.3053   4.2467514798e+01   2.4254020134e+01    0.1256283   0.09442473  26.66 0.0002985303    1.608    0.378
        62  -9.7691     70.1405      3.5898   6.7728841078e+01   6.6854536686e+01    0.5034896    0.4097738  29.87  0.002622314    1.188    0.158
        63  -8.5700    189.1300      4.1766   4.5389320069e+01   3.6408309029e+01    0.1989389    0.1535945 -57.01  0.001029879    1.291    0.225
        64  -9.4449    248.7442      2.0954   4.0492216403e+01   2.2437752484e+01    0.2263114    0.1743101  -9.75 0.0008175051    1.330    0.248
        65  -8.3089    123.0489      4.0000   5.4020732468e+01   5.4027711657e+01    0.2279946   0.08156709  67.34 0.0007780491    2.776    0.640
        66  -9.6433    247.8789     75.7537   5.9308484197e+01   1.4948594731e+01    0.2710264      0.13359 -43.44  0.001107406    2.162    0.537
        67  -8.8394    184.5080    250.4829   1.0211802086e+02   4.5012736026e+00    0.1037006   0.07177977  26.98 0.0008102302    1.028    0.027
        68  -8.6787    162.3188    250.3148   1.0569043421e+02   7.3401902293e+00     0.101141   0.06416681  16.81 0.0007038633    1.652    0.395
        69  -9.5623    151.0519    250.0150   1.0751648117e+02   8.8087491779e+00     0.155424    0.1027124  53.76  0.001131472    1.720    0.418
        70  -8.7237    124.7843    250.0100   1.1190649529e+02   1.2119629663e+01    0.1431194    0.1060076   0.76  0.000771954    1.958    0.489
        71  -8.6998    184.3399    236.3025   1.0047730984e+02   5.9666649176e+00    0.1085053   0.06503312  16.48 0.0007038451    1.673    0.402
        72  -9.5858     66.3079    148.2809   1.1336868891e+02   3.6819670011e+01    0.2689368    0.1737615  30.28  0.001493138    1.665    0.399
        73 -11.6180      5.3551    143.7379   1.2824280193e+02   4.3816132407e+01    0.4934031    0.3316199 -80.81  0.001497505    1.318    0.242
        74  -8.4502     70.6069    142.7707   1.1156827169e+02   3.7453024554e+01    0.1708361    0.1145646 -83.51 0.0006035166    1.556    0.358
        75  -8.6632     80.3112    140.9995   1.0882468319e+02   3.6513877825e+01    0.1778678    0.1599054 -81.65 0.0005119624    1.095    0.087
        76  -8.3513     98.0114    140.7525   1.0428982564e+02   3.3931707155e+01    0.1695302    0.1074216  39.81 0.0004614087    1.506    0.336
        77  -9.4616     49.0867    138.5961   1.1665613919e+02   4.0986835428e+01    0.3821436    0.1663512  50.39  0.001792364    2.215    0.549
        78 -10.2956     55.4865    137.0463   1.1478095904e+02   4.0599830497e+01    0.2842766    0.2210274 -70.13  0.001319209    1.245    0.197
        79  -9.4975    237.1935    135.3917   7.4651194535e+01   9.6649947780e+00    0.1639805    0.1203408  52.41 0.0009548243    1.755    0.430
        80  -9.1930     86.1828    134.3005   1.0625443840e+02   3.7114807345e+01    0.2029602    0.1728925  12.60  0.000991932    1.450    0.310
        81 -11.5824     47.2559    128.5056   1.1596879173e+02   4.3466589694e+01     1.105135     0.525604 -83.83  0.005034265    2.310    0.567
        82 -11.1530     41.2241    127.9623   1.1758053125e+02   4.4233297561e+01    0.9834778    0.4049657  56.92  0.002816457    2.720    0.632
        83 -10.6414     34.8658    109.0876   1.1715829617e+02   4.9279900946e+01    0.6354448    0.5063199  26.65  0.003393479    1.471    0.320
        84  -9.6315     41.8030    109.3496   1.1504981495e+02   4.8526177464e+01    0.2875278    0.1812144 -65.25 0.0006385958    1.421    0.296
        85 -11.0106     36.9644    118.9731   1.1775008605e+02   4.6743790785e+01    0.4531139    0.3427185 -72.44 0.0003074434    1.198    0.165
        86 -11.0058     43.0622    114.7099   1.1540703607e+02   4.7124289662e+01    0.6927963    0.4321462 -19.42  0.001643941    2.841    0.648
        87  -9.4222     34.7487    130.5115   1.1963954636e+02   4.4297964974e+01    0.3750451    0.1338074 -79.02  0.001561305    2.801    0.643
        88 -10.5967     59.5130    120.8414   1.1145430374e+02   4.3800203328e+01    0.3850487    0.2936363 -79.15  0.002245823    1.226    0.185
        89 -10.3700     63.8038    113.6283   1.0903948945e+02   4.4932397869e+01    0.7578961    0.2932338  50.06  0.002908258    2.982    0.665
        90 -11.6716     67.5780    121.9770   1.0932510474e+02   4.2500922922e+01     1.003978    0.4462569 -47.07  0.004194916    2.627    0.619
        91  -9.9797     72.9790    129.4766   1.0901188556e+02   4.0069398197e+01    0.2596542    0.1840723 -63.14 0.0003394531    1.375    0.273
        92  -8.6487     80.8508    125.1707   1.0614738834e+02   3.9918726352e+01    0.1744959    0.1582757   7.10 0.0004928891    1.341    0.254
        93  -9.0388     75.4664    124.8459   1.0758000813e+02   4.0766163390e+01    0.2761082    0.1497901  52.81 0.0007847768    1.951    0.487
        94  -9.8276     91.1937    120.6872   1.0248280588e+02   3.9338489790e+01    0.3961445    0.3190878 -83.94  0.001319621    1.322    0.243
        95  -9.4184     92.7709    115.3479   1.0098590388e+02   4.0272169100e+01    0.2901606    0.2187465 -68.32 0.0005679065    1.364    0.267
        96  -8.3981     90.6723    112.6653   1.0102447541e+02   4.1213847255e+01    0.2242712    0.1737723 -40.08 0.0007875921    1.420    0.296
        97  -8.6289    132.0820    119.4588   9.1585097117e+01   3.2339921477e+01    0.2081029    0.1372203  42.15 0.0004689705    1.482    0.325
        98  -9.6967    104.8336    117.4342   9.8116501867e+01   3.7779749372e+01    0.4361735    0.2778987  75.27    0.0018315    2.495    0.599
        99  -8.8603     50.5009    235.5148   1.2368448948e+02   2.2738542650e+01    0.1004157   0.07199217  52.55 8.242042e-05    1.016    0.015
       100  -8.5389      1.0000    117.3494   1.2796789473e+02   4.9945453779e+01    0.2445298   0.05441951 -81.15  0.000901485    3.671    0.728
       101  -8.7780    116.0147    116.7127   9.5007382720e+01   3.5932196290e+01    0.1966444    0.1817005  43.28 0.0003906025    1.071    0.066
       102  -9.9610     82.3300    114.7290   1.0382055101e+02   4.2057577598e+01    0.4144705    0.2592295  19.43   0.00146612    2.247    0.555
       103 -10.1344     56.7151    125.2200   1.1289031626e+02   4.3132277389e+01    0.2900522    0.2274101  79.34 0.0009113459    1.210    0.174
       104  -9.5949     98.8590    112.9384   9.8784943814e+01   3.9790660420e+01    0.4074172    0.2821215  -2.63  0.001768139    2.515    0.602
       105 -10.1045    107.8520    109.5139   9.5548382728e+01   3.8955956621e+01    0.5398482    0.2426638 -49.07  0.002155321    2.205    0.546
       106  -8.6248    104.3819    109.1843   9.6424275411e+01   3.9651162043e+01    0.2047974    0.1777242 -61.13 0.0005441767    1.150    0.130
       107 -10.9046     65.7001    130.8898   1.1120884461e+02   4.0720606944e+01    0.2842218     0.255758 -71.87            0    1.128    0.113
       108  -9.1802    133.1659    111.6207   8.9483810665e+01   3.3684726626e+01    0.2993191    0.2158534 -33.31  0.001465303    1.481    0.325
       109 -10.9929     77.5168    102.0094   1.0265971306e+02   4.5716193834e+01     0.814992    0.4198458  30.76  0.003523663    2.243    0.554
       110  -9.5209     75.4262    107.2807   1.0438485254e+02   4.4802520877e+01    0.6012222    0.2284755  35.17  0.002139951    2.752    0.637
       111 -10.3584     68.2453    106.3463   1.0638310063e+02   4.6042986736e+01    0.5394739    0.2497568 -41.85  0.002118058    2.831    0.647
       112  -9.4372    149.7951    105.7888   8.4073905083e+01   3.1395261209e+01    0.4119207    0.2205591 -29.49  0.001652488    2.184    0.542
       113  -9.7142    114.2768    106.9347   9.3204887597e+01   3.8319770730e+01    0.2805136    0.2195376  32.26  0.001321321    1.356    0.262
       114  -8.9756    105.4530    103.1717   9.4714617645e+01   4.0769373330e+01    0.2667289    0.1360197 -45.94 0.0008534337    1.958    0.489
       115  -9.2185    171.0996    102.6783   7.8635866493e+01   2.7384445140e+01    0.3694918    0.2241845  19.78  0.001487987    2.367    0.578
       116  -9.9550    141.7165    102.1116   8.5015319639e+01   3.3795709015e+01    0.3475006    0.2716089 -18.22  0.001128725    1.443    0.307
       117  -8.9886    133.8022    102.6238   8.7078495283e+01   3.5344641962e+01    0.2063888    0.1858119 -29.61 0.0007208885    1.120    0.107
       118 -12.5563     54.9197     37.3565   9.1827545809e+01   6.3848622454e+01     1.697945    0.6070796  34.16  0.006291147    3.293    0.696
       119 -10.7166      4.4787     99.3321   1.2568924909e+02   5.3926099942e+01    0.7027485    0.3536812 -62.67  0.003851877    1.758    0.431
       120  -9.0749      5.4369     82.4811   1.2382421737e+02   5.7899181089e+01     0.233107    0.1738759  71.03  0.001137067    1.283    0.221
       121  -9.0960      9.7005     77.6959   1.2171454908e+02   5.8816719071e+01    0.3339063    0.1098573 -68.54  0.001456656    2.275    0.560
       122  -9.2979      5.7160     77.8232   1.2321934950e+02   5.9009042676e+01    0.2967534    0.2054867  72.05  0.001820805    1.400    0.286
       123  -9.7127      3.3286     74.3159   1.2372771950e+02   5.9979560038e+01    0.2859364    0.1633531 -38.18   0.00157842    2.032    0.508
       124  -9.7818      6.1948     71.3767   1.2227227144e+02   6.0545302584e+01    0.2523377    0.2159714   2.35   0.00107177    1.489    0.329
       125 -10.4594      5.9039     86.8072   1.2409749914e+02   5.6832086603e+01    0.6450366    0.2789385 -38.72  0.002929139    3.085    0.676
       126  -9.7343      2.1610     84.3854   1.2517617105e+02   5.7612779954e+01    0.2312771    0.1798661  69.01 0.0007960087    1.239    0.193
       127 -10.5444    116.6410    100.0418   9.0858243360e+01   3.9324003308e+01    0.4044981    0.2818539   1.62  0.001710009    2.343    0.573
       128  -8.8593    110.9627    100.6433   9.2559807800e+01   4.0289721072e+01    0.1965641     0.177655  45.77  0.000464825    1.120    0.107
       129  -9.3623     63.2551     98.4464   1.0640228127e+02   4.8588386026e+01    0.3087718    0.2917771 -65.09  0.001904401    1.087    0.080
       130  -8.9551    159.9785     97.0583   7.9495158787e+01   3.0791488982e+01     0.236121    0.2024547   8.67 0.0006376083    1.227    0.185
       131  -8.9870    156.2032     94.5495   7.9640754136e+01   3.2073839267e+01     0.347101    0.2174629  57.65  0.001516657    1.817    0.450
       132 -10.9034     18.5915    120.4436   1.2320557481e+02   4.8021579503e+01    0.6843715    0.3841977 -70.71  0.003544114    1.552    0.356
       133  -9.2093    226.9491     95.5057   6.7002241309e+01   1.6645795857e+01    0.1893594    0.1337935  48.28 0.0004886085    1.537    0.350
       134  -8.8250    140.8111     94.9493   8.3315246310e+01   3.5366966123e+01    0.2673373    0.1971746  80.42 0.0006531356    1.986    0.496
       135  -9.7968    115.9484     95.5085   8.9863488375e+01   4.0415124321e+01    0.2216382    0.1457445  41.68 0.0007818227    1.552    0.356
       136 -10.0855    124.8562     93.2081   8.6855692895e+01   3.9088184772e+01    0.4784296    0.3617685 -88.62  0.002193966    1.893    0.472
       137 -10.1020    124.0154     81.9031   8.3837136129e+01   4.1551462882e+01    0.6128448    0.3174559 -56.26  0.002249848    2.543    0.607
       138  -9.8217    123.9659     87.9718   8.5624478445e+01   4.0338554161e+01    0.3725899     0.274835 -70.04  0.001685793    1.768    0.434
       139 -10.6424    118.6405     86.3466   8.6592992875e+01   4.1781160228e+01    0.4558709     0.273072  47.22  0.001670583    1.717    0.418
       140  -8.9546    112.1737     94.6877   9.0685844870e+01   4.1330342024e+01    0.2055805    0.1337341  34.24            0    1.687    0.407
       141 -10.6834    105.3547     91.0368   9.1643713465e+01   4.3429503841e+01    0.6743889     0.427051 -20.64  0.002696127    2.528    0.604
       142  -9.8312    108.8690     84.1393   8.8702003203e+01   4.4226348240e+01    0.4016921    0.2934022  -4.96  0.001266591    1.997    0.499
       143  -8.4626    187.5547     89.7583   7.1981884214e+01   2.5863490721e+01    0.1926859    0.1319387 -40.43 0.0004616315    1.473    0.321
       144  -9.6961    146.2339     84.7151   7.9120327277e+01   3.6099702637e+01    0.5675589    0.2194776 -33.60  0.001901738    2.780    0.640
       145  -8.1707     67.3358     87.2562   1.0262135409e+02   5.0681204153e+01    0.1343496    0.1067223 -22.47 0.0001874831    1.571    0.364
       146  -8.6265    224.8634     84.8758   6.4621413805e+01   1.8466408549e+01    0.1778006    0.1519237 -41.19            0    1.261    0.207
       147  -9.1266    140.5727     84.3725   8.0365714450e+01   3.7436041874e+01    0.2914974    0.2315979  85.37  0.001205891    1.684    0.406
       148  -9.0254    180.4772    234.5366   1.0090134458e+02   6.6689925521e+00    0.1080488   0.07827964  27.19 4.984056e-05    1.015    0.015
       149  -9.8467    160.3542     81.7953   7.5104914539e+01   3.3386482744e+01    0.4212357    0.3098054  55.70  0.002016605    1.448    0.309
       150 -10.1642    133.6671     80.2541   8.0838925527e+01   3.9762322980e+01    0.4886932    0.3305062  55.48  0.001676668    1.600    0.375
       151 -10.5174     91.8145     78.0635   9.2104095494e+01   4.8803209395e+01    0.5396216    0.5060684  60.09  0.001793026    1.129    0.114
       152 -11.1274    103.8952     80.1492   8.8994004204e+01   4.6059407587e+01    0.7562323    0.5201683 -10.54  0.002376991    2.287    0.563
       153 -10.4354     99.0342     77.2233   8.9592341529e+01   4.7632735754e+01    0.5070761    0.3989804  26.92   0.00222203    1.440    0.306
       154  -8.6531    216.9999     78.6970   6.4145336014e+01   2.0954135323e+01    0.1912499    0.1784651   5.65 0.0006555149    1.081    0.075
       155  -9.5553    150.2992     77.9636   7.6168014348e+01   3.6393246226e+01    0.6641861    0.3747063  38.15  0.002704049    1.967    0.492
       156 -11.5966    138.1647     68.7802   7.6117094823e+01   4.0876983315e+01    0.5680166    0.3346275  52.63 0.0004695054    1.760    0.432
       157 -11.0330    140.7268     75.0955   7.7513991385e+01   3.9129865177e+01    0.5419474    0.4190134  50.56 0.0004226121    1.331    0.249
       158  -9.5460    146.9237     74.9772   7.6020573985e+01   3.7712663752e+01    0.2227684    0.2132656  -0.98            0    1.025    0.024
       159 -12.6433    118.8644     67.6483   8.0734438197e+01   4.5492970508e+01     2.049903     1.503541  43.75  0.009806276    1.407    0.289
       160 -10.9441     97.1222     21.6110   6.8549821900e+01   5.8435437857e+01     0.311162    0.2616532 -34.67 0.0004246174    1.190    0.159
       161  -9.3996    227.2905    231.4370   9.2994701779e+01   8.5014486513e-01    0.1979562    0.1171003  20.39 0.0006264471    1.286    0.222
       162  -9.3084    135.8033    229.8495   1.0806790646e+02   1.3238805893e+01     0.195298   0.07730202 -44.02  0.001036822    3.448    0.710
       163  -9.4459    202.2257    228.9912   9.6615961730e+01   4.3442576180e+00    0.1775971    0.1141913  30.18 0.0003658993    1.165    0.142
       164  -8.8616     50.2515    227.4231   1.2330678708e+02   2.4003316755e+01    0.1449206   0.06619765  45.27 0.0003543795    1.559    0.359
       165  -8.9712     99.0027    224.0000   1.1417436540e+02   1.8864299288e+01    0.1854693   0.04842211  36.46            0    2.980    0.664
       166  -8.0649     95.3249    214.6739   1.1403250068e+02   2.0748733037e+01    0.1157114   0.06769022  58.84 0.0007049168    1.693    0.409
       167  -9.2595      3.2341    213.7992   1.3117041108e+02   3.0619895749e+01    0.1644189   0.08339446  66.01  0.001183139    1.476    0.322
       168  -9.3518     26.5034    212.0381   1.2689003059e+02   2.8874702514e+01    0.1424416   0.08621937 -89.58  0.001034954    1.596    0.373
       169  -9.4807    244.8756    204.0695   8.6232784724e+01   1.0755876680e+00    0.1797301   0.09878948  12.39  0.001118839    1.671    0.402
       170  -9.0188    233.8105    200.3666   8.7335340904e+01   2.9304152724e+00    0.1894776     0.076714 -31.00  0.001018013    2.612    0.617
       171  -8.0355    169.4977    200.5072   9.8304974020e+01   1.2318368411e+01    0.1175943    0.0953335  31.83 -0.0001127263    1.071    0.066
       172  -9.5104     11.2890    192.2037   1.2900356834e+02   3.3717133605e+01    0.1814819    0.1231841  50.36   0.00137669    1.186    0.156
       173  -9.0987    215.5056    189.4898   8.8498223771e+01   6.7234137125e+00    0.1199281   0.09058421  14.77 -5.725374e-06    1.046    0.044
       174 -11.5856     78.5018     61.0049   9.1235911897e+01   5.4938179281e+01    0.9082121    0.4552712 -43.57  0.001926836    1.879    0.468
       175  -9.9120      1.5198    188.4864   1.3079842937e+02   3.5187878672e+01    0.1982207   0.08353226 -85.75  0.001198305    2.128    0.530
       176 -11.8292     86.5317     52.4136   8.5331898739e+01   5.5275876713e+01    0.9585988    0.8277075 -29.76  0.005192898    1.114    0.102
       177 -10.2806    245.0425    187.3170   8.3427220882e+01   2.6727786917e+00    0.2217456    0.1688976  -2.58 0.0004945834    1.151    0.131
       178 -10.1858     11.4558    184.8268   1.2869057332e+02   3.5067397035e+01    0.2331405    0.1405648 -65.41  0.001151166    1.900    0.474
       179  -9.3324    164.2562     74.9207   7.2235167358e+01   3.3636524621e+01    0.3559266    0.2800265  32.28  0.001676758    1.337    0.252
       180  -9.5076     32.2031    184.9155   1.2442193844e+02   3.3178661897e+01    0.1637542    0.1122621 -52.40  0.001091908    1.967    0.492
       181  -8.5130    204.8181     75.4237   6.5100941354e+01   2.4096472058e+01    0.2044465     0.127403  41.54 0.0006941874    1.697    0.411
       182 -10.0809    189.5720     77.5961   6.8231266231e+01   2.7267070000e+01    0.3732814    0.2587722  15.77  0.001714424    1.752    0.429
       183  -8.6034     95.0822     71.7846   8.9153347498e+01   4.9562911232e+01    0.3190845    0.1980057 -73.35  0.001113156    2.742    0.635
       184 -10.2855    101.2064     69.4921   8.6500985012e+01   4.8849942260e+01    0.4651645     0.396406 -59.94  0.001279531    1.229    0.186
       185  -9.1241    179.0240     69.3603   6.7699877296e+01   3.0998765310e+01    0.5093721    0.2491777  37.26  0.001894298    2.502    0.600
       186 -10.2563    150.8224     66.5303   7.2462715345e+01   3.8261595733e+01     0.433175    0.3917631 -54.39  0.001911249    1.181    0.153
       187  -8.5977    169.7910     70.3303   6.9731475931e+01   3.3062844531e+01    0.2201166    0.1323754  45.48 0.0009421711    1.705    0.413
       188  -9.3819    163.6730     68.0121   7.0226239598e+01   3.4910426327e+01    0.4115734     0.279925 -68.96  0.001713521    2.181    0.542
       189  -9.8740     84.0398     67.9707   9.1582143992e+01   5.2434202917e+01    0.5248083    0.2625869  41.30  0.002178472    2.133    0.531
       190  -8.7256     93.4355     65.7280   8.7722196568e+01   5.1172824625e+01    0.1959148     0.136939 -36.22  0.000917663    1.426    0.299
       191 -10.3409    160.1615     51.5362   6.5554993945e+01   3.8356258668e+01    0.4646366    0.3638679  -6.61  0.001722427    1.377    0.274
       192 -10.1434    165.3827     61.8933   6.7949637684e+01   3.5467533264e+01    0.6027882    0.3464456 -39.16   0.00255288    1.690    0.408
       193  -9.4578    166.2290     53.8995   6.5191553435e+01   3.6476837049e+01    0.5094062    0.2347781 -42.39  0.001903245    2.210    0.548
       194  -9.6785    200.8005     60.4791   6.1467045673e+01   2.7080434384e+01    0.3911616     0.242775  -0.56  0.001674432    2.046    0.511
       195  -8.8835     66.8803     63.0046   9.6171280106e+01   5.6403213047e+01    0.2084328    0.1836326 -50.38 0.0003598488    1.031    0.030
       196 -12.1788     23.5519     82.0492   1.1716948692e+02   5.6804854590e+01    0.8535544    0.5372943  47.08  0.002406346    1.718    0.418
       197  -8.4855    207.3275     61.2420   6.0734237698e+01   2.5451145527e+01    0.2038414    0.1171263 -34.13 0.0003802105    1.580    0.367
       198  -8.2833    181.3344     61.2229   6.4813743163e+01   3.1656139633e+01    0.1484312    0.1081756  29.93 0.0002664291    1.522    0.343
       199  -8.7783    211.9857     59.6288   5.9624277739e+01   2.4585951730e+01    0.1870858    0.1773614  32.93 0.0004159231    1.128    0.114
       200 -10.0034    182.0061     51.6193   6.1704623354e+01   3.2855141420e+01    0.4279037     0.243115 -29.10 0.0008786999    1.646    0.393
       201  -9.0213    185.4006     60.2407   6.3823462147e+01   3.0807639385e+01    0.2578121    0.1795376 -60.68  0.000925153    1.803    0.445
       202 -10.1199    185.9589     54.5526   6.1983175195e+01   3.1471269149e+01    0.8082647    0.4068843  -3.71    0.0026172    3.513    0.715
       203  -9.9517    149.9343     59.1849   7.0234132810e+01   3.9704903093e+01     0.909904    0.3354802  62.45  0.002733515    3.676    0.728
       204 -10.4040    134.5727     51.4176   7.1010528175e+01   4.4760577948e+01     1.093928    0.5228422 -15.29  0.003293178    3.761    0.734
       205  -9.9947    140.1882     51.8935   6.9874335593e+01   4.3301185119e+01    0.4975078    0.3842028  14.56  0.002097513    1.513    0.339
       206 -10.4529      7.2526    185.4055   1.2956060012e+02   3.5304178872e+01    0.3705317          nan  37.29  0.001507575    4.315    0.768
       207 -10.2644    136.0451     41.8388   6.7118274428e+01   4.5923569827e+01     0.459876    0.3465948  75.58   0.00120323    1.576    0.365
       208 -10.9427    146.1265     43.7258   6.5632841965e+01   4.3085708401e+01    0.8704149    0.5058364 -64.53  0.003160696    2.782    0.641
       209 -10.5755    141.7131     45.0125   6.7044333778e+01   4.4009285894e+01    0.4307288    0.3019953 -45.68  0.001357353    1.484    0.326
       210  -9.8500    148.6203     41.2041   6.4203494124e+01   4.2818778430e+01    0.2454146    0.2361134   8.45 0.0002613064    1.028    0.027
       211 -10.3653    174.1600     57.0482   6.4765150849e+01   3.4032608117e+01    0.5628471    0.3232052  -4.47  0.001648194    2.519    0.603
       212 -10.1848    173.3748     48.0680   6.1997887683e+01   3.5514904940e+01    0.6362504    0.4253372  89.22  0.002734113    2.063    0.515
       213 -10.2619    152.8626     44.2604   6.4458554493e+01   4.1288068644e+01    0.6834539    0.3225301 -37.64  0.002625452    2.025    0.506
       214 -10.3641    222.7724     56.6297   5.7379677549e+01   2.2516807179e+01    0.3658287    0.2842754  45.03 0.0009885486    1.392    0.282
       215  -9.0025    143.6774     58.4357   7.1366526491e+01   4.1362308149e+01    0.2716026    0.1823356  26.83 0.0007367922    1.831    0.454
       216  -9.2205    243.2989     55.0047   5.4578630738e+01   1.8279136214e+01    0.2411796    0.1746441  25.05  0.001324811    1.578    0.366
       217  -9.2077    234.0301     54.8911   5.5570380603e+01   2.0253493073e+01    0.2391778    0.1935239  50.68  0.001383678    1.376    0.274
       218  -9.1674    197.6011     54.7984   6.0265714325e+01   2.8603186945e+01    0.2277675    0.1935967  46.06 0.0001230541    1.236    0.191
       219  -9.7917    193.6562     53.9632   6.0603374780e+01   2.9668675551e+01    0.3208997     0.265036  53.69 0.0007995394    1.276    0.216
       220  -9.4168    127.3286     51.6216   7.2861504144e+01   4.6481546425e+01    0.5362229    0.2770756 -55.74  0.001849196    2.895    0.655
       221  -9.3832    125.3910     45.2793   7.0969397494e+01   4.8015085142e+01    0.5829001    0.2207993 -45.19    0.0015399    3.000    0.667
       222  -8.2685    129.7030     46.3057   7.0293189101e+01   4.6794702266e+01     0.213299    0.1528465 -44.99 0.0005565696    1.435    0.303
       223  -9.5909    130.4527     41.2987   6.8202963353e+01   4.7406893442e+01    0.5030687     0.222087 -32.82  0.001864669    2.155    0.536
       224  99.0000     54.8246     49.6211   9.6562480290e+01   6.1203846880e+01    0.3894353    0.2464388  43.05  0.001937247    1.807    0.446
       225 -10.0260     54.4897     45.4879   9.5215988399e+01   6.2167193499e+01    0.3928095    0.2501138  49.14  0.001459686    1.932    0.482
       226 -10.5848     60.4092     51.1609   9.4770099389e+01   6.0047711452e+01    0.4142902    0.2853039 -51.54  0.001318465    1.316    0.240
       227 -10.5176     59.3676     47.1794   9.3759047681e+01   6.1079224582e+01    0.4230233    0.2502932 -55.39   0.00128422    1.638    0.389
       228  -9.1129    211.8915     50.1639   5.6938583926e+01   2.5801526797e+01    0.3648282    0.1853022 -18.25 0.0006972988    1.999    0.500
       229  -8.8795     65.9323     50.9256   9.2452053658e+01   5.9241083468e+01    0.2071337      0.17042 -25.30 0.0003462165    1.259    0.206
       230  -9.5609    224.7523     49.2073   5.5097691746e+01   2.2964397838e+01    0.3271027      0.16788 -30.22  0.001485104    1.676    0.403
       231  -8.5961    200.4875     49.4920   5.8266633423e+01   2.8598157545e+01    0.1459451    0.1349967 -20.55 6.021442e-05    1.004    0.004
       232  -9.0988    196.1489     48.9927   5.8729055882e+01   2.9715734299e+01    0.3267719    0.1888795 -57.74  0.001341273    2.245    0.554
       233  -9.7421    220.2288     43.7515   5.4098857889e+01   2.4632967952e+01    0.5222428    0.2117733 -33.37  0.001740012    2.082    0.520
       234  -9.8276    207.0485     45.9888   5.6347990732e+01   2.7460025052e+01    0.2997766    0.2299924  66.64 0.0007717017    1.436    0.303
       235  -8.3061    207.7108     41.6547   5.4986788737e+01   2.7825060584e+01    0.2150076    0.1209838   6.27 0.0008315037    2.590    0.614
       236 -10.4119     66.8239     43.3202   8.9186975624e+01   6.0711209389e+01    0.5427405    0.2386972 -43.71   0.00147858    2.068    0.516
       237 -10.4887      1.6562    177.7860   1.3043999416e+02   3.7182069235e+01    0.2659334    0.1247889  86.84  0.001649876    1.820    0.450
       238  -8.9901    179.9119     44.5444   5.9775703402e+01   3.4338916874e+01    0.2754391    0.2030635   5.22  0.001243771    1.560    0.359
       239  -9.8440    214.3632     41.5404   5.4150170570e+01   2.6256785071e+01    0.3908385    0.2356954   2.70 0.0006630967    2.121    0.529
       240  -9.0633     35.8206    185.3677   1.2369301476e+02   3.2737420994e+01    0.1364427   0.09760977  25.48  0.000352823    1.652    0.395
       241 -11.6004     88.1875     58.1149   8.6847801168e+01   5.3782711078e+01    0.8719073    0.4089645  30.36  0.001317534    3.175    0.685
       242  -9.0761    235.2588     39.0907   5.1214776630e+01   2.1773762891e+01    0.2431785    0.1566288 -30.18  0.000635125    1.329    0.247
       243  -9.8830    203.9897     27.1877   5.1090035674e+01   3.0380610561e+01     0.524267    0.2893259  -2.83  0.002169405    2.285    0.562
       244  -8.7102    198.2971     35.8276   5.4409536612e+01   3.0812675019e+01    0.3099734    0.1805667 -24.22  0.001161682    1.604    0.377
       245 -10.0246    198.5089     30.0867   5.2610911829e+01   3.1420291005e+01     0.470463    0.3110236 -67.74  0.002185439    1.816    0.449
       246  -9.3858    191.1251     39.8500   5.6613737894e+01   3.2115219657e+01    0.3218932     0.223548   8.72 0.0006532933    1.727    0.421
       247 -10.5482    192.5886     32.8144   5.4200000424e+01   3.2592778942e+01    0.4844026    0.3211886 -21.83 0.0008412016    1.444    0.307
       248  -9.2056    181.6197     34.1441   5.6120443890e+01   3.5225863219e+01    0.2369287    0.1948639  23.22 0.0003301784    1.317    0.241
       249 -10.0592    180.4271     38.1594   5.7614166314e+01   3.5034193518e+01    0.5399402    0.3338464 -61.65  0.002286665    2.056    0.514
       250  -9.8639    174.4957     38.7286   5.8715269663e+01   3.6482467572e+01     0.413442    0.2325948  44.67  0.001189303    1.888    0.470
       251 -12.4589    147.3994     53.4187   6.8811536470e+01   4.1266068346e+01    0.5476782    0.5183971 -53.36 0.0002981574    1.110    0.099
       252  -8.8739    202.6715     38.7728   5.4755275969e+01   2.9388149990e+01    0.2251847    0.1771727  -1.50  0.001166684    1.342    0.255
       253 -10.4719    219.7058     34.4226   5.1513182288e+01   2.5811638887e+01    0.4708254    0.3799589  59.35  0.001119761    1.353    0.261
       254 -10.6954    210.6938     32.4280   5.1912639968e+01   2.8170386937e+01     0.525754    0.4373873  26.00  0.001630316    1.321    0.243
       255  -8.8499     36.9091    179.4662   1.2308994175e+02   3.3755298725e+01    0.1675011   0.09321231  38.14  0.001030523    1.598    0.374
       256  -8.5328     80.3006    176.3412   1.1331203164e+02   2.9331934146e+01    0.1101564   0.09328276 -21.48 0.0007036958    1.671    0.402
       257  -9.6980      7.4862    174.5059   1.2910833949e+02   3.7361513743e+01    0.1986696    0.1461338  73.90 0.0005775085    1.069    0.064
       258  -9.5159    245.8443    171.5558   8.0500704729e+01   4.1775182103e+00     0.180919    0.1524078 -52.04    0.0011886    2.192    0.544
       259 -10.0442     18.2015    165.2628   1.2635017507e+02   3.8312390353e+01    0.2651781    0.1497466  51.54  0.001321113    1.454    0.312
       260  -9.7171     12.3280    164.6835   1.2763380048e+02   3.8919319705e+01    0.1905479    0.1059447  69.01  0.001200422    1.478    0.323
       261 -10.1920      8.9849    163.0315   1.2830300350e+02   3.9520055886e+01    0.3507796    0.1449347  78.72  0.001871842    2.192    0.544
       262 -10.2384    147.9570     34.6426   6.1911241263e+01   4.3910960872e+01    0.5856759    0.3045875  70.57  0.001779694    2.302    0.566
       263  -9.5347    143.3801     34.1773   6.2639246566e+01   4.5161960774e+01    0.3098012    0.2154409 -42.83 0.0004702405    1.467    0.318
       264  -9.0775    123.6640     35.9596   6.7725587089e+01   4.9914197665e+01     0.270724    0.2155533  51.10  0.001340888    1.273    0.215
       265 -10.3556    134.8604     33.7855   6.4270458964e+01   4.7410485242e+01    0.3061948    0.2774606  19.56 0.0004415069    1.116    0.104
       266  -9.1783    138.8535     31.3677   6.2475909248e+01   4.6718139608e+01    0.2812814    0.2492464  23.47 0.0004997379    1.152    0.132
       267 -10.7172      2.7658    159.7608   1.2955701468e+02   4.0655083591e+01    0.4494048    0.2036016 -84.86  0.002625211    1.894    0.472
       268 -10.2766     15.3583    159.7824   1.2670126854e+02   3.9670506111e+01    0.2089121    0.1715062 -56.82 0.0009884879    1.537    0.350
       269  -9.3480      9.4772    158.4492   1.2798051065e+02   4.0416922081e+01    0.2237228    0.1332803 -47.95 0.0009430663    2.355    0.575
       270 -11.6188     13.7731    151.5208   1.2662074613e+02   4.1522331725e+01    0.5027918    0.3424598  50.31   0.00343466    1.297    0.229
       271 -10.2035    247.7995     32.4992   4.8334287349e+01   1.9772541478e+01    0.5383522    0.2784311  41.50  0.002532012    2.415    0.586
       272 -11.8881     20.8137    147.4047   1.2466265663e+02   4.1818652498e+01      0.48393    0.3949513  60.89  0.002034581    1.117    0.105
       273  -9.2808     15.4888    142.5295   1.2566615334e+02   4.3312280256e+01    0.1648506    0.1276124  76.69 7.863247e-05    1.029    0.028
       274 -10.4189    247.1129     19.2599   4.4977287227e+01   2.1230340905e+01    0.4423056    0.2413236  69.60  0.001383705    2.069    0.517
       275  -9.3097    172.0005     31.9977   5.6821812854e+01   3.7975454856e+01    0.3947749    0.2161425  34.27   0.00155531    2.261    0.558
       276 -12.3227     84.1034     86.0014   9.6781870350e+01   4.8366616484e+01      2.25624     1.363152 -65.98  0.009991268    1.885    0.469
       277 -10.9051     14.1857     88.1730   1.2135604093e+02   5.5995306308e+01    0.5198583    0.3479468 -67.19  0.003124884    1.270    0.213
       278  -9.1785    235.2010    249.3747   9.4197437380e+01  -1.6261727533e+00     0.134867   0.06986147  37.38 0.0009475721    1.679    0.404
       279  -9.7161    188.7789     19.8698   5.0521360220e+01   3.4995802665e+01    0.3450508    0.2138139  43.25 0.0006863244    1.760    0.432
       280  -9.6765    185.3743     18.1784   5.0365679022e+01   3.6050094877e+01     0.206052    0.1963934  41.62 0.0001805038    1.094    0.086
       281  -9.2442    155.7203     32.2666   5.9594615480e+01   4.2199710248e+01    0.2584079    0.2129787 -20.62 0.0007642434    1.193    0.161
       282  -9.9499    227.9157     30.2570   4.9519254269e+01   2.4366055480e+01    0.4788728    0.2326829 -41.01  0.001425444    1.857    0.461
       283  -8.7731    128.1591     31.9223   6.5021139837e+01   4.9381606747e+01    0.2193972    0.1987432 -70.91 0.0004907866    1.240    0.194
       284 -13.0555     10.6835    129.6930   1.2608137612e+02   4.6512989877e+01     1.752396     1.170419  54.01  0.009854164    1.358    0.264
       285  -9.5819    248.8356     25.9814   4.6574971280e+01   2.0210855259e+01    0.3134955    0.2271515  27.94  0.001782783    1.667    0.400
       286 -12.0049     30.3832     62.4368   1.1077636521e+02   6.1011464470e+01     1.527784     0.606866 -31.39  0.004690712    5.562    0.820
       287  -9.9907    107.6117    248.4011   1.1467720244e+02   1.4430827009e+01    0.2625003    0.1061627  49.79   0.00153601    2.154    0.536
       288  -9.4682      3.3476    246.3418   1.3188685504e+02   2.5542311824e+01    0.1539468    0.1113479 -63.93  0.001363949    2.046    0.511
       289  -9.7309    204.7860     16.4152   4.7735294078e+01   3.1299480184e+01    0.2936519    0.2478832  20.88 0.0009278136    1.309    0.236
       290  -8.1836     86.2775     16.1921   6.9216579037e+01   6.1676820452e+01    0.3392531    0.1864512  61.29  0.001231002    2.163    0.538
       291  -8.9115     91.6516    245.3231   1.1716971764e+02   1.6745262135e+01    0.1079069   0.05609757  55.47  0.000600139    1.745    0.427
       292  -9.0258    185.1747     23.7727   5.2230897022e+01   3.5507459916e+01    0.2840813    0.1932708 -20.84 0.0006002468    1.428    0.300
       293 -11.6076     28.7007     73.1893   1.1370046606e+02   5.8544629850e+01    0.8256168    0.6173219  12.61  0.004871139    1.670    0.401
       294 -11.8504     19.2218     58.8318   1.1481677901e+02   6.2792118564e+01    0.6256841    0.4504655 -36.14  0.003723877    1.495    0.331
       295 -11.0434     22.2025     52.2513   1.1202075085e+02   6.4156643039e+01    0.8564617    0.6815286  30.85  0.005355586    1.484    0.326
       296 -11.4874     13.0581    109.3724   1.2387143618e+02   5.1010912025e+01    0.9384471    0.4472783  23.32  0.004789988    2.426    0.588
       297 -12.2458     20.0869     99.5163   1.2068067229e+02   5.2838939474e+01     2.080933    0.8140049 -48.26  0.008997593    2.903    0.656
       298 -10.0698    142.4144    243.4773   1.0831366909e+02   1.0671145526e+01    0.2865636    0.1427209  27.34  0.001619029    1.934    0.483
       299  -9.0281    167.6780    241.3297   1.0383057964e+02   7.6228442672e+00   0.09910018    0.0696464  52.06 0.0006524314    1.695    0.410
       300  -8.6361    211.3763    240.2122   9.6628193535e+01   2.0705990809e+00    0.1147488   0.09280089 -27.05 0.0009467463    1.696    0.410
       301 -11.5547     42.0340     50.3189   1.0239610681e+02   6.2690609919e+01    0.8479157    0.5071945  21.20  0.003703961    2.055    0.513
       302 -11.4379     32.5120     42.8932   1.0448125293e+02   6.5443543000e+01    0.8256639    0.6358292  23.45   0.00491278    1.514    0.339
       303 -10.2222     12.6181    231.9074   1.3003257970e+02   2.6917963066e+01    0.2846207     0.113499  65.37  0.001884857    1.991    0.498
       304  -8.0149    220.3040    237.3149   9.4864732196e+01   1.2057612277e+00    0.1058292   0.05951976  14.18 0.0004622455    1.620    0.383
