#   1 NUMBER                 Running object number                                     
#   2 MAG_AUTO               Kron-like elliptical aperture magnitude                    [mag]
#   3 X_IMAGE                Object position along x                                    [pixel]
#   4 Y_IMAGE                Object position along y                                    [pixel]
#   5 X_WORLD                Barycenter position along world x axis                     [deg]
#   6 Y_WORLD                Barycenter position along world y axis                     [deg]
#   7 A_WORLD                Profile RMS along major axis (world units)                 [deg]
#   8 B_WORLD                Profile RMS along minor axis (world units)                 [deg]
#   9 THETA_WORLD            Position angle (CCW/world-x)                               [deg]
#  10 FWHM_WORLD             FWHM assuming a gaussian core                              [deg]
#  11 ELONGATION             A_IMAGE/B_IMAGE                                           
#  12 ELLIPTICITY            1 - B_IMAGE/A_IMAGE                                       
         1 -13.2439    236.3873     25.7618   7.4281131619e-02   2.5260370425e+01    0.7807097    0.6087918 -46.66  0.004008216    1.103    0.093
         2 -10.7171    249.8628     10.8231   3.5644432385e+02   2.4497212321e+01    0.2320455    0.1082741 -41.71 0.0007690194    1.500    0.333
         3 -10.5772     16.4997     10.9829   4.7364194225e+01   7.6318572900e+01    0.2338977    0.1651644  39.60 0.0005814569    1.509    0.337
         4  -8.4751    189.3467     15.2918   7.3925230411e-01   3.5627428274e+01     0.113412   0.09089614  44.99 0.0006337583    1.664    0.399
         5 -10.6149    101.0793    247.5093   6.6340100634e+01   1.0542203954e+01    0.4403519    0.2725241 -76.00  0.002493717    2.575    0.612
         6 -10.2591     76.0204    245.0356   7.1782022251e+01   1.3737504451e+01    0.2588938    0.1674856 -59.83  0.000620018    1.922    0.480
         7 -16.0402     69.9794    148.5472   6.2338406056e+01   3.5692416157e+01     15.00008     8.033961  81.34   0.03771546    3.562    0.719
         8  -9.4295    188.0000    213.9772   4.3823575792e+01   5.6383401790e+00    0.1780089   0.06080534 -41.66 0.0007988839    2.918    0.657
         9  -8.7026     81.2815    214.6584   6.7707352874e+01   1.8898297210e+01    0.1341893   0.08880065  53.86 0.0004542416    1.630    0.387
        10 -15.5050     54.9114    221.3966   7.4959080357e+01   2.0538206052e+01     2.892931     1.657038 -72.32   0.01551173    2.056    0.514
        11  -9.9676    211.0087    198.8044   3.7328842546e+01   5.1412620492e+00    0.1870595    0.1376071 -18.34 0.0005198713    1.108    0.098
        12 -10.1804    192.8175    194.5620   3.9825024107e+01   7.9460341879e+00     0.546308    0.2912229 -59.77  0.001764526    7.314    0.863
        13 -11.8086     68.6045    193.2314   6.8741277562e+01   2.5040902409e+01      0.39737    0.2686401  74.72   0.00141502    1.822    0.451
        14 -16.1778      4.7316    243.8941   8.7952964930e+01   2.0757783297e+01     1.258946    0.3672583  44.61  0.006176525    2.230    0.552
        15 -12.0238     71.5752    185.1141   6.6974328513e+01   2.6526253053e+01    0.3542084    0.2849028  62.84 0.0007263568    1.319    0.242
        16 -18.2963      5.7258    220.7508   8.7090637671e+01   2.5265163141e+01     5.728883     2.964054 -82.40   0.02133746    2.078    0.519
        17  -9.2197     78.2255    184.1746   6.4983673171e+01   2.5876326038e+01    0.1985136    0.1762059  11.45 0.0007019787    1.134    0.118
        18 -10.5574     62.3525    181.2966   6.9168296315e+01   2.8581044948e+01    0.5278127    0.2289187  35.62  0.001371586    1.956    0.489
        19  -9.6990    174.8373    179.8998   4.0738133897e+01   1.2701060298e+01    0.2566164    0.1843867 -24.41 0.0008484574    1.294    0.227
        20 -10.8480    180.1069    166.6460   3.7282377361e+01   1.4192557005e+01    0.6308414    0.3135519 -53.13  0.002709397    2.836    0.647
        21 -10.7676    177.2768    169.9803   3.8456199075e+01   1.4040863119e+01    0.3178667    0.2224344 -33.11   0.00131516    1.326    0.246
        22 -10.8769    172.1134    175.5015   4.0496834060e+01   1.3846185022e+01    0.3406486     0.286388  23.97 0.0009585739    1.202    0.168
        23 -10.5455    173.9819    171.7941   3.9444761926e+01   1.4214305712e+01    0.3041875    0.2468463  81.55  0.001424894    2.254    0.556
        24 -11.6586     98.1034    226.7645   6.4891290951e+01   1.4521298996e+01     1.025579    0.4698988  28.75  0.004968954    1.757    0.431
        25 -10.4152    116.0275    181.9882   5.4491828330e+01   2.0996414608e+01    0.2201463    0.1957528   8.07 0.0007159542    1.056    0.053
        26 -10.1031    110.9345    166.9511   5.3320395608e+01   2.5016803150e+01    0.2954012    0.2048142  89.43  0.001286195    2.363    0.577
        27 -10.5803    231.3559    165.6864   2.8453508275e+01   7.3730278303e+00    0.2036789    0.1023378  39.97  0.001154545    2.395    0.582
        28 -10.8392    238.2007    162.3257   2.6880242473e+01   7.0071839109e+00    0.2052152   0.09433745  29.48  0.001100607    2.665    0.625
        29  -9.9018    110.1591    223.0807   6.1628674236e+01   1.3724232998e+01    0.2997079    0.1646647 -37.19 0.0009131409    2.170    0.539
        30  -9.2841    231.2953    160.3131   2.7502524233e+01   8.1340713360e+00    0.1168966   0.07484961 -10.71 0.0002578087    1.598    0.374
        31  -9.1151     45.5656    157.5271   7.1581717750e+01   3.6503090246e+01    0.3060131    0.1425833 -72.24  0.001221849    2.246    0.555
        32  -9.3074    114.3775    153.8319   4.9993491565e+01   2.7384305576e+01    0.2458817    0.1914032  43.88  0.001238997    1.294    0.227
        33 -11.4134     88.8758    222.7428   6.6676270669e+01   1.6388403866e+01     0.622405    0.3859334  58.18  0.001590283    2.015    0.504
        34 -11.0679     81.3527    151.1929   5.9159056520e+01   3.3346970294e+01    0.4767274    0.2862658 -68.93  0.001298211    1.921    0.479
        35 -11.3256    134.0000    147.9974   4.3724154511e+01   2.5274658558e+01     1.301229    0.2865053 -52.45  0.003073919    6.512    0.846
        36 -11.2079    132.1877    144.4048   4.3432503564e+01   2.6355248156e+01    0.6299109    0.2937811 -45.68    0.0025168    2.147    0.534
        37 -11.8017     88.1558    144.5364   5.5850505214e+01   3.3927660348e+01    0.6857233    0.4798909 -25.61  0.002692345    1.799    0.444
        38  -8.9080     39.8304    147.2043   7.2283254247e+01   3.9851767069e+01    0.1962157    0.1691701 -33.53 0.0009116164    1.296    0.228
        39 -10.9354    108.9370    145.2723   4.9824068209e+01   3.0263197070e+01    0.3137284    0.2980982  16.20 0.0006748625    1.016    0.016
        40  -9.5412    146.8940    143.1780   3.9627279337e+01   2.3987776681e+01     0.203284    0.1652845  -7.26 0.0007515749    1.328    0.247
        41  -9.4639    108.5375    137.2575   4.8285874549e+01   3.2192139139e+01    0.3805295    0.2280525 -71.46  0.001459633    2.506    0.601
        42  -9.3343    127.1171    136.9180   4.3129608651e+01   2.8884784183e+01    0.2192187    0.2007814  82.80 0.0003737921    1.278    0.218
        43 -10.6669     82.5976    221.9887   6.8132735313e+01   1.7283371733e+01    0.5170265    0.2699815  54.06    0.0024318    2.305    0.566
        44 -11.1967     43.5166    129.9982   6.8652234620e+01   4.4065739770e+01    0.5199932    0.4619087  44.96  0.002714528    1.094    0.086
        45 -10.5703    102.9275    237.7973   6.4945967047e+01   1.1977654191e+01     0.252735    0.1742083 -51.63 0.0005207661    1.758    0.431
        46 -11.8504    104.2094    131.4780   4.8306174563e+01   3.4327624139e+01    0.6777214    0.5419378  -7.22  0.002564739    1.509    0.337
        47 -11.4402     89.6844    131.8506   5.2860125725e+01   3.6806429577e+01    0.2922482    0.2821556 -28.09 0.0003708544    1.069    0.065
        48  -9.2971     26.5174    129.4906   7.4997869171e+01   4.5969205555e+01     0.287292    0.1410862  20.93 0.0009192674    2.052    0.513
        49  -9.6560     22.7703    129.3647   7.6407403389e+01   4.6333039383e+01    0.3085611    0.1833112  43.42 0.0007082691    1.633    0.388
        50  -9.3112    161.8860    127.5602   3.2916803425e+01   2.4309056078e+01    0.3424826    0.1379658  46.75  0.001309648    2.689    0.628
        51 -10.8396    136.0000    128.5407   3.9007367952e+01   2.9008050699e+01    0.5966812    0.1416036 -47.13  0.001657031    4.248    0.765
        52 -10.6838    111.0566    125.6822   4.5001641160e+01   3.4408894087e+01    0.4660036    0.2813713  35.20  0.001988229    1.661    0.398
        53 -10.2043     76.0049    122.2420   5.5395614270e+01   4.1530906214e+01    0.4590219    0.3430388 -85.76  0.002086017    1.632    0.387
        54 -10.8005    116.9091    121.7085   4.2413764631e+01   3.4187865821e+01    0.2707849    0.2106271 -33.69 0.0008079017    1.366    0.268
        55 -10.3339     98.4840    121.3107   4.7753858220e+01   3.7800986720e+01    0.2961046      0.25161  -2.19  0.000742488    1.355    0.262
        56 -11.5259    110.3604    229.6560   6.2351441293e+01   1.2521254112e+01    0.3960156    0.3574005  16.32   0.00170795    1.133    0.117
        57  -9.3245     28.6310    121.8248   7.3225098975e+01   4.7875956555e+01    0.3957026    0.1479953  50.58   0.00130849    3.126    0.680
        58 -11.1416    114.8133    228.5716   6.1203388855e+01   1.2173050276e+01    0.3070351    0.2670303 -60.45   0.00076948    1.488    0.328
        59 -10.0739     71.9457    224.6620   7.1005137675e+01   1.7996821523e+01    0.3125875    0.1847436 -66.41   0.00112109    2.034    0.508
        60  -9.8099    107.7202    116.0317   4.3682348147e+01   3.7277105487e+01    0.2491081    0.2172096  37.18 0.0003108261    1.133    0.117
        61  -9.8300    243.4710    114.4547   1.7337570847e+01   1.2920620781e+01    0.1156769   0.08935013 -34.86 0.0001054477    1.036    0.035
        62  -9.5624    134.5721    112.2605   3.5465610257e+01   3.2690676314e+01    0.2993044     0.142589 -48.67  0.001148337    2.143    0.533
        63 -10.3907     39.7794    113.0832   6.7393540963e+01   4.9106762200e+01    0.3758893    0.2025806  32.19 0.0009624516    1.783    0.439
        64  -9.1947     69.2512    111.9003   5.5557445738e+01   4.5299956794e+01    0.2886915    0.2026263  56.38  0.001194288    1.592    0.372
        65  -9.0522     96.7691    111.0238   4.5810169527e+01   4.0582929771e+01    0.3180555    0.1852787  48.85  0.001283531    1.797    0.444
        66 -11.1955    159.8186    225.1232   5.0975696518e+01   7.2888603288e+00    0.2715575    0.2140922 -26.86  0.001495811    1.310    0.237
        67 -11.6263    115.2586    108.3991   3.9576337097e+01   3.7489111646e+01    0.4278807    0.3148592  53.02  0.001565038    1.421    0.296
        68  -9.4388    134.5026    106.0393   3.3904637632e+01   3.3984931242e+01    0.2346298    0.1452216 -45.56  0.001009451    1.595    0.373
        69  -9.4514    194.7344    224.6359   4.4192307469e+01   3.3804132689e+00    0.2018263    0.1338014 -28.39  0.001167082    1.407    0.289
        70 -10.3894    174.7435    223.3244   4.7744391659e+01   5.8086989567e+00    0.1935179    0.1624582  13.48 0.0007359794    1.228    0.186
        71  -8.9544    194.4104    219.0354   4.3416382884e+01   4.1886372267e+00    0.1613585   0.09826133 -33.41 0.0007661563    1.569    0.363
        72  -9.9340    106.2350    215.3429   6.1623878310e+01   1.5656645974e+01    0.2612403    0.2078349  11.25  0.001088898    1.158    0.137
        73 -11.1555     36.4598    101.7048   6.6746415075e+01   5.2583884573e+01    0.3554212    0.2816355  85.31  0.001368236    1.371    0.270
        74  -9.8161    126.8382    102.1457   3.4808397840e+01   3.6408019560e+01    0.2085129     0.181874  -4.50 0.0004042746    1.328    0.247
        75 -10.8140     63.5729     98.5102   5.4562027727e+01   4.9673779784e+01    0.4457754    0.2203809  53.46  0.001347054    2.670    0.626
        76  -9.0214     87.4989     95.9525   4.4916656684e+01   4.5969805849e+01    0.2215876    0.1551109 -50.10 0.0003178309    1.453    0.312
        77  -9.6185    102.9687     91.9361   3.8706427977e+01   4.3706691616e+01    0.4041926    0.2599744  79.02   0.00145995    2.796    0.642
        78 -10.6006     60.9404     92.0625   5.3978015639e+01   5.1746336906e+01     0.487902    0.2858025 -38.97  0.001976428    1.945    0.486
        79 -11.4004     51.4253     81.8346   5.5346262956e+01   5.5835799748e+01    0.7396879    0.3268836  49.70  0.002503227    2.923    0.658
        80  -9.1519     96.9156     83.6864   3.8163834386e+01   4.6810124276e+01    0.2218562    0.1938722  57.08  0.000681294    1.147    0.128
        81 -12.7239    132.7365    228.3446   5.7154441626e+01   1.0033196442e+01    0.8270957    0.2999231  29.99  0.003708949    2.247    0.555
        82  -9.3955    115.7810     78.5390   3.0987084735e+01   4.3663936287e+01    0.4028485    0.2496012  85.49  0.001400092    3.139    0.681
        83  -9.9789    184.1632     77.0797   1.6874529534e+01   2.8670972532e+01    0.2013316     0.181277  -5.06 0.0009327754    1.316    0.240
        84 -10.0824     52.4034     74.4557   5.2730563894e+01   5.7509847420e+01    0.2980121    0.2405687  57.70 0.0006626538    1.386    0.279
        85  -9.4536    179.6813     74.3059   1.6841475243e+01   3.0030265524e+01    0.1398701   0.09587431 -65.77 0.0002963283    1.632    0.387
        86  -9.2748     85.7631     73.9062   3.8824018637e+01   5.1319338884e+01    0.2930157    0.1995503  70.29 0.0006949123    2.012    0.503
        87 -10.9180     30.5191     72.1027   6.3057584162e+01   6.1096330917e+01    0.3610289    0.2513822 -70.42  0.001216276    1.516    0.340
        88 -12.3260    188.0930     63.6794   1.3017828643e+01   2.9858470499e+01    0.4481379    0.4288557 -58.28 0.0007371814    1.124    0.111
        89  -9.4487     78.8186     68.3532   3.9485380131e+01   5.3977626753e+01     0.330535    0.1344218  50.36  0.001106282    2.666    0.625
        90  -8.9194     71.4289    232.4689   7.1813125966e+01   1.6546306328e+01    0.1257786    0.1031633  28.02 0.0002043086    1.035    0.034
        91 -13.7583    204.5272     52.1931   8.3674823974e+00   2.8092204242e+01     1.051997    0.9130111  24.32  0.004512408    1.573    0.364
        92 -12.7804    210.9559     47.4197   6.6442164154e+00   2.7443659106e+01     0.566511    0.4398986 -39.35  0.001151457    1.166    0.142
        93  -9.1785     67.5081     60.5312   4.1196597465e+01   5.7959677505e+01    0.1502814    0.1442647  35.75 9.399201e-05    1.011    0.010
        94 -10.0828     34.0659     48.7811   5.3610873362e+01   6.6294489449e+01    0.2407468    0.2348148  48.62  0.000444176    1.146    0.127
        95  -9.9295     29.0492     47.0148   5.6019701288e+01   6.7363869214e+01    0.2109409    0.1938349  -4.54 0.0003772623    1.019    0.019
        96 -11.6525     18.8074     44.0084   6.1682940263e+01   6.9222541341e+01     0.397307    0.3133338  54.72  0.002058574    1.548    0.354
        97 -11.2644      7.4056     42.0642   6.9223277170e+01   7.0626281171e+01    0.3020952    0.2343537 -54.74  0.001730303    1.210    0.173
        98  -9.5206     35.0118     38.3413   4.8670619583e+01   6.8410328892e+01    0.2071463    0.1661453  27.86 0.0008146896    1.189    0.159
        99 -15.3891     10.0619    206.4510   8.5522378009e+01   2.7992736224e+01    0.7649608    0.4146006   7.65  0.002559833    2.181    0.542
       100  -9.8078     60.7113     21.4055   2.6520591666e+01   6.6387040654e+01    0.2598085    0.2217137  70.21 0.0006779549    1.273    0.214
       101 -10.7030     68.6876    244.1478   7.3397092369e+01   1.4685208200e+01    0.3308628     0.245416 -29.55  0.002095232    1.719    0.418
       102  -9.2071    125.1292    243.5585   6.0645645406e+01   8.4565481310e+00    0.1799021    0.1294738 -39.52 0.0009560988    1.609    0.379
