#   1 NUMBER                 Running object number                                     
#   2 MAG_AUTO               Kron-like elliptical aperture magnitude                    [mag]
#   3 X_IMAGE                Object position along x                                    [pixel]
#   4 Y_IMAGE                Object position along y                                    [pixel]
#   5 X_WORLD                Barycenter position along world x axis                     [deg]
#   6 Y_WORLD                Barycenter position along world y axis                     [deg]
#   7 A_WORLD                Profile RMS along major axis (world units)                 [deg]
#   8 B_WORLD                Profile RMS along minor axis (world units)                 [deg]
#   9 THETA_WORLD            Position angle (CCW/world-x)                               [deg]
#  10 FWHM_WORLD             FWHM assuming a gaussian core                              [deg]
#  11 ELONGATION             A_IMAGE/B_IMAGE                                           
#  12 ELLIPTICITY            1 - B_IMAGE/A_IMAGE                                       
         1 -13.6380    245.0270    110.2577   3.0291420593e+01   8.8940940057e+00     2.399575     1.065376 -43.00   0.01004041    2.032    0.508
         2 -10.9377     39.7286      7.8534   4.8198264429e+01   6.9137630537e+01     0.533632    0.2155156 -34.41  0.002693918    2.325    0.570
         3 -13.1593     44.4776     23.3031   5.3304385460e+01   6.6392484181e+01    0.9493746    0.7391668 -43.57  0.006123957    1.566    0.362
         4 -11.1360    226.9499     16.2821   1.0471784829e+01   2.6837974911e+01    0.5082682    0.3277257  89.30  0.002806612    1.463    0.317
         5 -10.2815    116.7798     17.2750   2.7058930903e+01   5.3694199402e+01    0.2794661    0.1840134 -41.78  0.001444027    1.762    0.432
         6 -11.9778     78.1067     13.8895   3.6283202759e+01   6.2208931111e+01    0.4944925    0.2772462  -4.27  0.002408703    2.173    0.540
         7 -12.5838    156.1508     11.6877   1.7689169233e+01   4.4724612787e+01    0.6588255    0.4104279  72.04  0.003335244    1.493    0.330
         8 -12.6587    177.5992      3.4447   1.2359341257e+01   4.0150484594e+01      1.02087    0.6047562 -77.88  0.005016193    1.873    0.466
         9 -13.0860    169.4383      5.2945   1.3891641279e+01   4.2012691105e+01     1.030116    0.7022799 -46.68  0.005654337    1.554    0.356
        10 -12.5492    158.4877      4.0385   1.4988592857e+01   4.4857817822e+01    0.9686939    0.4298018  61.75  0.004381391    1.875    0.467
        11 -11.1630    232.3294      9.5451   8.4670799412e+00   2.6368083713e+01    0.4464383    0.2530523  88.12  0.002367993    1.684    0.406
        12 -11.7059    145.1830      4.3489   1.7065290804e+01   4.8124126942e+01    0.4896397    0.3707774  62.26  0.002835886    1.146    0.127
        13 -10.2414    141.3359      1.6759   1.6800242849e+01   4.9293603340e+01     0.210703    0.1757027  82.95  0.001271825    1.191    0.160
        14 -10.6310    223.7994      5.3015   8.2195232637e+00   2.8786946583e+01    0.3242531    0.1193429 -47.01  0.001426599    2.423    0.587
        15 -11.7787    165.0299     12.0171   1.6471468749e+01   4.2467729744e+01    0.4716777    0.3304981 -51.08  0.002195934    1.532    0.347
        16 -10.8350    121.8426      4.4570   2.1229817321e+01   5.3736524644e+01    0.4114684    0.3856328  80.84  0.002672271    1.174    0.148
        17 -10.6675    107.3262      5.3904   2.4677484760e+01   5.6983958546e+01    0.3939874    0.2365512  87.74  0.001751048    2.818    0.645
        18 -11.0646     71.4392      5.8650   3.4849243418e+01   6.4295305604e+01    0.4147151    0.1889818  50.71  0.002032121    2.124    0.529
        19 -11.4181    206.9229      4.6200   9.5655115314e+00   3.2843917912e+01    0.5522446    0.1795139  71.08  0.002207004    2.694    0.629
        20 -11.8598     83.7498      3.6445   3.0027741444e+01   6.2142013566e+01    0.7901734    0.3207872  55.60  0.003583235    2.339    0.572
        21 -10.5681     61.5198      2.1420   3.6513372613e+01   6.6427447507e+01    0.3674091    0.1667092  34.95  0.001851682    2.015    0.504
        22 -11.1759    131.5495      3.6964   1.9136348884e+01   5.1495989305e+01    0.7107462    0.1939012  54.33  0.002673022    2.738    0.635
        23  -8.9429     17.6796      1.6886   5.5924708659e+01   7.2508595820e+01    0.1160913   0.06664897  -9.74 0.0007036853    1.648    0.393
        24 -10.6854    162.6723    152.1133   5.5968717628e+01   1.8488477998e+01    0.3114307    0.2742417  67.01  0.001602744    1.233    0.189
        25  -9.6231     53.9385    143.5065   8.1992012676e+01   3.9516943321e+01    0.2230281    0.1599367 -70.09  0.001234307    1.220    0.180
        26 -12.2292     10.9781    139.8034   9.2634989863e+01   4.4559066469e+01       0.4637    0.2556444  79.33   0.00252254    1.823    0.452
        27 -13.4326    241.0048    125.2131   3.4327707080e+01   7.1643397047e+00     1.372059     1.098752  62.11  0.007572482    1.495    0.331
        28 -10.9836    160.4721    231.7902   7.0831945056e+01   3.6528725473e+00    0.3213993    0.1684019  35.75  0.001603299    1.691    0.409
        29 -11.7885     10.8662    122.0997   9.0721305128e+01   4.8702328751e+01     0.341825    0.1720975  52.16  0.001788122    2.310    0.567
        30 -11.5584    189.6882    115.7276   4.1366400496e+01   1.9990003486e+01    0.8339356    0.4825575 -15.74   0.00284323    3.095    0.677
        31 -10.9034    212.7760    112.6814   3.6181280347e+01   1.5326985069e+01    0.5495219    0.3156838 -36.60  0.002381045    1.656    0.396
        32 -11.0633    222.6234    108.4621   3.3438930575e+01   1.3914886252e+01    0.6118193    0.4731362 -61.17  0.003104831    1.429    0.300
        33 -10.3035    148.4279    110.5641   4.9280384385e+01   3.0582371272e+01    0.4589748    0.2325426 -55.97  0.001608415    2.468    0.595
        34 -10.5878     16.6949    103.7936   8.6551107214e+01   5.2579830970e+01    0.2858338    0.1707895  56.10  0.001565021    2.083    0.520
        35  -9.7525     30.5045    102.0055   8.1941922266e+01   5.1920455175e+01    0.2077148    0.1048787 -62.37  0.001032127    1.600    0.375
        36  -9.5243    209.1247     94.1186   3.2195220858e+01   1.9519263909e+01     0.228088    0.2069135  -4.21 0.0007889197    1.240    0.194
        37  -9.8783    178.7844     92.4840   3.7496637621e+01   2.7062383992e+01    0.3054121    0.2207471 -40.66  0.001404883    1.357    0.263
        38 -10.5948     12.8583     89.8983   8.5527061756e+01   5.6034488334e+01    0.1990002    0.1361805 -49.47  0.001243099    1.253    0.202
        39 -12.9649     14.8205     73.3239   8.1706579214e+01   5.9615365972e+01    0.7291946    0.5989571  37.98  0.005009288    1.534    0.348
        40 -12.5489      4.5502     75.3967   8.5823526913e+01   5.9747061704e+01    0.7232147    0.4293133  87.65  0.003999257    2.140    0.533
        41 -10.9469      2.4940     88.5179   8.8704515662e+01   5.6932541225e+01    0.3194693    0.2267721 -75.82  0.002103361    1.211    0.174
        42 -10.9965      2.7827     83.2922   8.7789422079e+01   5.8088507700e+01    0.4069357    0.1684871 -62.43  0.001777874    1.734    0.423
        43 -10.4323    192.1618     86.9148   3.3368188847e+01   2.4844014022e+01    0.5946255    0.2586094  56.65  0.002168882    2.388    0.581
        44 -12.1666     42.8838     81.0251   7.3321160633e+01   5.5571314991e+01    0.9683523    0.6409488 -15.32  0.005130392    1.884    0.469
        45  -9.2819    145.4830     81.4763   4.1789624115e+01   3.7198532044e+01     0.153826    0.1512394  13.55 0.0008098182    1.027    0.026
        46  -9.4734    215.5098     80.0278   2.7563087818e+01   2.0461435657e+01    0.2288369    0.1357669 -39.25 0.0007126516    1.575    0.365
        47 -10.5187    220.9792     77.9852   2.6208326213e+01   1.9527276089e+01    0.4030465    0.2323672 -68.19  0.001604823    2.494    0.599
        48 -10.9682      4.1790    124.4780   9.2792281161e+01   4.8587891647e+01    0.2748192    0.1553788  58.00  0.001566668    1.974    0.494
        49 -10.0305    169.7782     76.4959   3.4872107051e+01   3.2210437140e+01    0.3505534    0.2927216 -62.06  0.001733448    1.271    0.213
        50 -10.1310     74.8840     69.1789   5.8621043024e+01   5.3940131442e+01    0.3330548    0.1942168  23.72  0.001513078    2.068    0.517
        51 -11.5526    214.3738     66.7263   2.4357131068e+01   2.2898719514e+01    0.3546085     0.244769  26.47  0.001602464    2.154    0.536
        52 -10.6456     25.4680     64.7824   7.5689972607e+01   6.0696958980e+01    0.3019998    0.2051029 -64.59  0.001794765    1.445    0.308
        53 -10.7510    233.3596     64.3313   2.1139302797e+01   1.8860301430e+01    0.2883431    0.2312566  21.89  0.001538523    1.731    0.422
        54  -9.1542    132.4822     63.5102   3.9423218134e+01   4.3543924985e+01    0.1487663    0.1452265  24.90 0.0007097931    1.007    0.007
        55  -9.5130    179.1837     66.3956   3.0126228057e+01   3.1601545658e+01     0.220039    0.1439315  72.02 0.0009568564    1.713    0.416
        56  -9.5335    200.3696     63.7592   2.5736328411e+01   2.6760589257e+01    0.2035296    0.1404805 -24.53 0.0009454992    1.648    0.393
        57 -11.0918    199.0188     51.6111   2.2692772354e+01   2.8953602115e+01    0.4502423    0.2856591 -25.90  0.002087475    1.783    0.439
        58 -10.0956    164.6781     53.8691   2.9214771362e+01   3.7249140712e+01    0.2696045    0.1990967  47.15  0.001312841    1.356    0.262
        59  -9.8565    220.9648     53.5345   2.0116010783e+01   2.3348037581e+01    0.2124501    0.1345784  68.48  0.001035034    1.606    0.377
        60 -10.0729     34.9107     52.8621   6.8509850828e+01   6.2305832488e+01    0.2068092    0.1702371  16.81  0.001357603    1.353    0.261
        61 -11.2819    215.2237     50.8631   2.0204078510e+01   2.5105740031e+01    0.3970811     0.255518  42.80  0.001885003    1.919    0.479
        62 -10.9348     85.3649     48.0417   4.7741542599e+01   5.6082903751e+01    0.4286747    0.3416109  35.65  0.002095994    1.259    0.206
        63  -9.3902     96.9913     47.0032   4.3626709315e+01   5.4030325876e+01    0.2298143    0.1625279  10.17  0.000998773    1.674    0.403
        64 -11.5140      3.4224     41.3295   7.8617299141e+01   6.6898416117e+01    0.3988591    0.3425583 -58.61  0.002551292    1.272    0.214
        65 -10.9692      5.9894     35.2820   7.5672407826e+01   6.7918854070e+01    0.3272803    0.2175674  30.60  0.002177581    1.945    0.486
        66 -11.5928     81.6980     40.0366   4.5940221331e+01   5.8044174520e+01    0.7574341    0.3086966 -39.77  0.003138763    2.464    0.594
        67 -11.7370    240.5859    228.9343   5.5295102407e+01  -8.7544998132e+00    0.3715554    0.2431577  39.69  0.002275076    1.601    0.375
        68 -11.8350     40.0876     29.6020   5.7892967951e+01   6.5955809873e+01    0.4675583    0.2510918 -41.04  0.002393673    1.685    0.406
        69 -10.5259      4.2009    230.4418   1.0023557318e+02   2.5721569683e+01    0.1773264   0.09673413  34.05  0.001155557    2.149    0.535
        70 -11.0384    184.9939     39.4060   2.1463095910e+01   3.4192465767e+01    0.4096397    0.1860764 -51.65  0.001570389    2.548    0.608
        71 -10.8950    191.0089     37.2152   1.9960673556e+01   3.2971250893e+01    0.3644808    0.1559251 -47.74  0.001420189    2.455    0.593
        72  -9.5459    197.9869     34.0123   1.8126259704e+01   3.1647653141e+01     0.172934    0.1562624 -83.87   0.00100922    1.001    0.001
        73 -10.6181     85.9923     31.3039   4.1061806835e+01   5.8532918022e+01    0.1932566    0.1627231  26.04  0.001155583    1.095    0.087
        74  -9.2222    229.3051     29.6576   1.3362879105e+01   2.4666319440e+01    0.1444095   0.08510536 -63.08 0.0007041324    1.685    0.406
        75 -10.2673    145.5245     27.7594   2.4688619118e+01   4.5626943829e+01    0.4563283    0.2588266 -77.05  0.001696377    3.233    0.691
        76  -9.9531     90.2507     28.3111   3.8510603566e+01   5.8108519392e+01    0.2530327    0.2199537 -18.89  0.001543242    1.171    0.146
        77 -10.0257     67.1800     28.9679   4.6619771701e+01   6.2213034630e+01    0.2171312    0.1330868  -7.52  0.001082785    1.927    0.481
        78 -11.1849     75.3904     25.8214   4.2347987211e+01   6.1242744516e+01    0.3273039    0.2226076  -4.55  0.001461368    1.549    0.354
        79  -9.2008    102.6009     26.1662   3.4049347369e+01   5.5833114647e+01    0.1852504     0.124875  -9.29 0.0009424969    1.647    0.393
        80 -11.7394    178.3349     23.5531   1.7945672803e+01   3.7866766042e+01    0.4571177     0.323267  50.98   0.00240318    1.418    0.295
        81 -11.5720    173.4855     20.7798   1.7840987756e+01   3.9407629796e+01    0.4040693     0.230382  73.91  0.001525997    1.696    0.411
        82  -9.8728    224.5160     22.7964   1.2230755778e+01   2.6633028267e+01    0.2511077    0.1742137  79.17  0.001406319    1.354    0.261
        83  -9.9570    187.4761     19.0649   1.5458626353e+01   3.6081016061e+01    0.2765428    0.1688023  54.97  0.001377304    1.596    0.373
        84 -10.2709    128.3327     18.4679   2.4959737260e+01   5.0860452956e+01    0.3078736    0.2393567  66.15  0.001679044    1.261    0.207
        85  -9.4260    111.4987    228.5147   8.0153887076e+01   1.2306853030e+01    0.1277768     0.106736  55.69 1.546024e-05    1.018    0.018
        86 -11.5767    248.5973    224.6233   5.3156722672e+01  -9.3600594318e+00    0.4598193    0.3076587 -21.80  0.002922033    1.408    0.290
        87  -9.9419     94.0884     16.9086   3.2720908778e+01   5.8708537199e+01    0.2613021    0.1927249  77.66  0.001198176    1.974    0.493
        88  -9.8163     31.7884    227.3891   9.5304596203e+01   2.3442059034e+01    0.1387701    0.1007369  36.54 0.0008598824    1.650    0.394
        89 -10.1846    247.5692     15.7450   8.5836918502e+00   2.2267344678e+01    0.2246452    0.1164368 -30.55  0.001142161    2.046    0.511
        90  -9.7662     20.1773     15.3914   6.1205562711e+01   7.0301116274e+01    0.2849685    0.1347141  -4.27  0.001193449    3.331    0.700
        91 -10.9465    158.5065    225.5656   7.0310713197e+01   5.0212447232e+00    0.2400757    0.1312781 -48.50  0.001204106    2.141    0.533
        92 -12.4676    209.6565    215.9270   5.8691312132e+01  -2.1412625530e+00    0.7448246    0.4902984   4.74  0.003946447    1.800    0.444
        93 -13.0316    183.6919    216.1213   6.3778321623e+01   2.2473935285e+00    0.7198851    0.4304312  26.68  0.003603315    1.723    0.419
        94 -10.9136     50.2006    218.0415   9.1192558427e+01   2.3127434490e+01    0.2681236    0.2135498  45.08  0.001835948    1.362    0.266
        95  -9.8333    129.8791     12.8477   2.2656337592e+01   5.1064029767e+01    0.2233726    0.1649289  37.38 0.0009628984    1.313    0.238
        96  -8.5475    220.3102     11.3004   9.9206363012e+00   2.8951359640e+01     0.121646   0.09487315  45.39 0.0002951001    1.603    0.376
        97  -9.9149     67.4915    217.5302   8.7760678796e+01   2.0984064583e+01    0.1247076   0.09952396  69.71  4.04191e-05    1.002    0.002
        98  -9.6971    141.3388    206.4875   7.0955360378e+01   1.1469575052e+01    0.2241738     0.129581 -52.84  0.001079454    1.932    0.482
        99 -12.4175    247.3687    184.5704   4.5909271237e+01  -3.6341447092e+00     1.147999    0.4415949 -42.70  0.004725799    2.867    0.651
       100 -12.4174    244.4674    200.7984   4.9550452974e+01  -5.5453391471e+00    0.8177893    0.6150792 -27.96  0.004186132    1.302    0.232
       101 -11.2543    247.3648    192.8870   4.7535373936e+01  -4.8609595753e+00    0.4069034    0.3914851 -29.58  0.002331271    1.411    0.291
       102  -9.3534    203.6618    205.3104   5.7954081148e+01   5.2753366194e-01    0.1250198    0.1064637  71.05 0.0006158073    1.687    0.407
       103 -10.7581    202.4995    196.9782   5.6643798961e+01   2.0971906645e+00    0.2871552    0.1319887 -40.72  0.001172725    2.294    0.564
       104 -11.5835    196.0215    185.5950   5.5754392651e+01   5.2454272080e+00    0.4086003    0.3784239 -67.36  0.002398603    1.342    0.255
       105 -10.0467     37.3010    185.4234   9.0965404387e+01   3.1614299076e+01    0.2041598    0.1205597  29.89   0.00112766    2.059    0.514
       106  -9.8801     26.4846    180.4820   9.2842671614e+01   3.3860150471e+01    0.1231916   0.09506806  83.55 0.0008101334    1.020    0.020
       107 -10.7681    219.3920    156.0023   4.5009417904e+01   6.0375609947e+00    0.4696662    0.2896925  63.00  0.002001061    2.486    0.598
       108  -9.7736     20.5179    155.4865   9.1883614514e+01   4.0131466319e+01    0.1241932   0.09793457 -86.29  7.73334e-05    1.005    0.005
