#   1 NUMBER                 Running object number                                     
#   2 MAG_AUTO               Kron-like elliptical aperture magnitude                    [mag]
#   3 X_IMAGE                Object position along x                                    [pixel]
#   4 Y_IMAGE                Object position along y                                    [pixel]
#   5 X_WORLD                Barycenter position along world x axis                     [deg]
#   6 Y_WORLD                Barycenter position along world y axis                     [deg]
#   7 A_WORLD                Profile RMS along major axis (world units)                 [deg]
#   8 B_WORLD                Profile RMS along minor axis (world units)                 [deg]
#   9 THETA_WORLD            Position angle (CCW/world-x)                               [deg]
#  10 FWHM_WORLD             FWHM assuming a gaussian core                              [deg]
#  11 ELONGATION             A_IMAGE/B_IMAGE                                           
#  12 ELLIPTICITY            1 - B_IMAGE/A_IMAGE                                       
         1 -14.7044     68.4226    144.2718   1.0294699072e+02   3.7584990272e+01      5.16352     2.562838  67.58   0.00645689    3.879    0.742
         2 -14.3326    205.9975     37.4170   4.2463718507e+01   2.9287714334e+01     1.883028      1.44271  11.78  0.008855581    2.002    0.500
         3 -13.6673    196.3717     43.9337   4.5347064571e+01   3.0715638179e+01     1.107811    0.8851735  70.16  0.001720064    1.198    0.165
         4 -14.0425    220.5515     22.8358   3.7438279797e+01   2.7734217664e+01     1.171108    0.9153901  54.80  0.004670325    1.492    0.330
         5 -12.2948    245.4460      2.7128   3.1194191232e+01   2.4600722828e+01    0.5580663     0.298043  66.79  0.002832351    1.894    0.472
         6 -11.7676    241.0086      2.0000   3.1341566001e+01   2.5599626405e+01    0.3725666    0.1583718  75.15  0.001462406    2.156    0.536
         7 -10.6029     47.4454      2.2257   6.5999050575e+01   6.9012117208e+01    0.2334462    0.1758414  46.36 0.0007069826    1.559    0.359
         8  -9.2113    113.4603    206.4843   1.0118158140e+02   1.5968029547e+01    0.1389433    0.1230682  54.31 6.787546e-05    1.023    0.022
         9 -14.5767      5.4094    186.7126   1.2367648705e+02   3.4165935709e+01     2.765148    0.8220902 -69.88   0.01245634    2.694    0.629
        10 -13.9488     20.6785    221.3530   1.2270359210e+02   2.5294368348e+01     1.095935    0.5094236  68.84  0.004158464    1.966    0.491
        11 -15.2789      9.8344    207.4052   1.2401293870e+02   2.9268406892e+01     2.568576     1.291336 -48.63  0.009951912    3.008    0.668
        12 -16.6966      8.4263    240.5204   1.2596952730e+02   2.2731668944e+01     9.016016      5.11171 -80.72   0.06067092    1.616    0.381
        13 -15.9079     42.5982    249.5110   1.2031761075e+02   1.7334589533e+01     10.47077     3.227462  26.24   0.02241544   15.714    0.936
        14 -10.9154    109.7404    200.8357   1.0122587771e+02   1.7781432112e+01    0.4764238    0.2571856 -47.43  0.001648247    2.121    0.529
        15  -8.4954     72.2828    188.6212   1.0846520896e+02   2.6285242752e+01    0.1459998   0.09300179  72.02 0.0007011693    1.720    0.418
        16  -9.3180     79.5050    183.0115   1.0596115451e+02   2.6554387178e+01    0.2021047    0.1319637 -67.98 0.0004287677    1.523    0.343
        17  -9.8570     99.5093    180.5817   1.0062309913e+02   2.4005059300e+01    0.2453908    0.2263535  75.16 0.0005728159    1.030    0.029
        18  -9.1814    151.3695    180.6771   8.8028385952e+01   1.4692186149e+01    0.1536628    0.1152008  72.18 0.0007034978    1.803    0.445
        19 -10.2138    143.9553    178.7253   8.9403794125e+01   1.6505762456e+01    0.2689667    0.2109075 -17.15   0.00111073    1.569    0.363
        20  -9.7154     72.7757    172.6219   1.0620129669e+02   2.9998143479e+01     0.220682    0.1779794 -82.95  0.001222784    1.187    0.158
        21 -12.1605     63.6623    176.3677   1.0902379548e+02   3.0351735040e+01     0.435482    0.3143521 -33.58  0.001130984    1.904    0.475
        22 -11.9929     68.5018    171.2035   1.0709990491e+02   3.0938100856e+01     0.324671    0.2743605 -22.37  0.001564162    1.557    0.358
        23  -9.3127    149.5374    177.1210   8.7776956816e+01   1.5791233676e+01    0.2093188    0.1478632 -49.91 0.0004660437    1.496    0.332
        24  -9.3445    203.7628    175.9926   7.5685272917e+01   5.7554279835e+00    0.1838196    0.1136026 -37.99 0.0005765154    1.588    0.370
        25  -9.7164    196.9228    175.3467   7.6940682159e+01   7.1296608246e+00     0.251024    0.2033847 -48.96  0.001345729    1.384    0.278
        26 -12.8381     85.1289    155.2144   1.0016491172e+02   3.2401512044e+01     1.424625    0.7283133 -58.98   0.00250145    1.888    0.470
        27 -12.3339     78.0774    161.7202   1.0316547902e+02   3.1878301925e+01     0.575523    0.4262088  45.30 0.0004132921    1.338    0.253
        28 -13.5683     65.3752    157.7678   1.0597563637e+02   3.4648772102e+01    0.5586494    0.4179985 -48.19  0.001408516    1.424    0.298
        29 -10.2095    139.7011    249.1893   1.0127154017e+02   3.7634257047e+00    0.1842859    0.1534203  70.97  0.001101652    1.439    0.305
        30 -11.4875    194.6429    196.9357   8.1635350238e+01   3.6384385144e+00     1.078299    0.6782092 -72.85  0.003656851    5.044    0.802
        31 -10.4011    137.1101    167.7757   8.8946440976e+01   2.0210420908e+01    0.4435733    0.3162557  88.25  0.001910684    2.103    0.525
        32  -9.8485    230.3153    166.3007   6.8650963005e+01   2.7402002550e+00    0.1387458    0.0981438  -1.21 -0.0001541599    1.614    0.380
        33 -11.3087    204.1236    199.1279   8.0131532582e+01   1.6416531149e+00    0.2990796    0.1820653  32.62   0.00151294    1.551    0.355
        34 -11.2212     32.0294    155.6631   1.1463967157e+02   3.9044957203e+01    0.3667079    0.2298294  23.89  0.001847372    1.913    0.477
        35 -10.1971    174.5724    149.0338   7.6084634048e+01   1.6715058694e+01    0.2810902    0.2661764  61.26 0.0008964706    1.144    0.126
        36 -10.5696    134.0000    146.5201   8.5291815208e+01   2.5656777005e+01    0.7519827    0.1944053 -50.95  0.002030919    4.116    0.757
        37 -10.5002    133.0000    140.4778   8.4195871269e+01   2.7251252908e+01     0.666221    0.1922039 -51.69  0.001860293    3.799    0.737
        38 -11.7863     55.6596    145.9119   1.0685774636e+02   3.8846889039e+01    0.5307857    0.4623673 -37.52  0.003091193    1.301    0.231
        39 -10.4982     31.1451    143.9698   1.1348239379e+02   4.1994231650e+01     0.325866    0.1975584  26.55  0.001720358    1.905    0.475
        40 -10.7779    100.1163    140.2999   9.3118400224e+01   3.3573416030e+01    0.5761829    0.3732718 -18.45  0.002228298    2.620    0.618
        41 -12.3815     87.1801    140.1846   9.6788602902e+01   3.5785753913e+01    0.3161367    0.2673993 -48.10 0.0004629044    1.188    0.158
        42 -10.4104    106.0054    130.8283   8.9374693432e+01   3.4806710428e+01    0.3792554    0.3114595 -61.67  0.001583731    1.232    0.188
        43 -10.3098    109.9676    130.5295   8.8177812176e+01   3.4136189061e+01    0.3609232    0.2624834   7.36 0.0009465171    1.935    0.483
        44 -11.2911     96.9686    126.7883   9.1082585297e+01   3.7418093118e+01    0.3064204     0.271437 -13.99 0.0004891509    1.277    0.217
        45 -13.4224     36.5363    203.3195   1.1817823803e+02   2.7439917250e+01    0.5259156    0.4866275 -64.69  0.001235677    1.354    0.262
        46 -11.3750     45.3421    124.3395   1.0641082874e+02   4.5422349615e+01    0.3062595    0.1990042 -71.00  0.001559707    1.434    0.302
        47 -10.5625    135.6383    128.5176   8.0687345764e+01   2.9444329834e+01    0.4310806    0.1891966 -52.10  0.001481824    2.455    0.593
        48  -9.9738    106.9090    119.1389   8.6346884288e+01   3.7425808017e+01    0.2178577    0.2147088 -45.52 0.0003179188    1.006    0.006
        49 -10.1881     23.0313    119.4837   1.1258298472e+02   4.8714338760e+01    0.1752859     0.131083  20.58   0.00103512    1.598    0.374
        50  -9.5791     83.7154    117.8141   9.3045204587e+01   4.1843484579e+01    0.2837553    0.1823504  61.81  0.001020038    2.091    0.522
        51  -8.9718    168.5079    113.0182   6.8756704099e+01   2.5503484385e+01    0.2269646    0.1318187 -62.45 0.0008102071    2.526    0.604
        52  -9.5047    187.4845    172.9960   7.8429215244e+01   9.3460127800e+00    0.2006868    0.1291488 -65.62 0.0008103551    2.594    0.614
        53 -10.0440    205.4618    110.1576   6.0585664958e+01   1.7722897860e+01    0.3067927    0.2126073  41.82 0.0009887514    1.578    0.366
        54 -10.4183     60.1417    197.7577   1.1238739723e+02   2.5835177866e+01    0.2189859    0.1868357 -89.73 0.0003251197    1.096    0.088
        55  -9.8295    134.6805    105.5449   7.5018130644e+01   3.4754855426e+01      0.29261    0.1446089 -44.21   0.00108834    2.023    0.506
        56 -10.2928     39.0024    101.9683   1.0434202117e+02   5.1556083142e+01    0.2087233    0.1547016  70.73 0.0005910449    1.694    0.410
        57 -11.2322    241.6816     98.9721   5.2207045516e+01   1.2092986963e+01    0.1979642    0.1640228 -42.88  0.000591675    1.057    0.054
        58 -11.0408      6.0801     98.0762   1.1497697088e+02   5.4977369289e+01    0.2700121    0.1636646 -47.10  0.001563801    1.468    0.319
        59 -10.1139     41.8903     91.6774   1.0111737686e+02   5.3705206997e+01    0.2572362     0.188741 -43.09 0.0006978257    1.225    0.184
        60 -10.4832     53.0769     90.8224   9.6855749293e+01   5.2642407027e+01    0.2637267    0.1872407 -42.10 0.0009286503    1.289    0.224
        61 -10.1974     72.2416     83.1124   8.7888195131e+01   5.1731231642e+01    0.3740982    0.2417296  61.54  0.001607217    2.449    0.592
        62  -9.1721    151.0042     82.9460   6.4558116968e+01   3.5545430499e+01    0.2371284    0.1853435 -80.81 0.0005101988    1.615    0.381
        63  -9.0664    159.9592     82.0406   6.2273689344e+01   3.3558081466e+01    0.1829634    0.1788542 -64.30 0.0004889144    1.025    0.024
        64 -10.9713    243.2012     77.1944   4.7178076257e+01   1.5264282133e+01    0.1922275    0.1398933 -61.33 0.0009184427    1.330    0.248
        65 -15.0069     46.9438    192.9358   1.1492355707e+02   2.8573532581e+01     2.245675     1.390026  81.60  0.008865466    1.595    0.373
        66  -8.7566     48.9781     62.7744   9.0562988496e+01   5.9276202208e+01    0.1582335    0.1071087  23.74 0.0003117496    1.553    0.356
        67 -10.6112     13.5220     60.0259   1.0483500338e+02   6.3135848954e+01    0.2279785    0.1816535 -52.80 0.0004784556    1.119    0.106
        68 -10.0176    173.0587    242.2698   9.3617347013e+01  -3.2282807944e-01     0.210886    0.1712227 -70.61 0.0009470861    1.874    0.466
        69 -12.5297    214.6668     29.0521   3.9467607553e+01   2.8326099965e+01    0.4591678    0.3728022  56.64  0.001111338    1.386    0.279
        70  -9.8243     72.5412    225.7859   1.1252670020e+02   1.8142838875e+01    0.2196427    0.1303765  46.80 0.0007695144    1.422    0.297
        71  -9.5310      2.6966     49.7449   1.0711429987e+02   6.5876295794e+01    0.1608837   0.08351645  28.51 0.0008957574    2.342    0.573
        72  -9.0767    137.1545     43.3650   5.5525041594e+01   4.5441836233e+01    0.2028439    0.1314797  70.67 0.0004380853    1.703    0.413
        73 -10.6210    138.9651     37.0100   5.3066554793e+01   4.5857141961e+01    0.4958894    0.2969197 -77.88  0.001489505    2.910    0.656
        74 -10.5920     64.7889    224.0087   1.1398279114e+02   1.9552565969e+01     0.256562    0.1520538  87.73  0.001380658    1.820    0.451
        75 -10.2970    170.0134     16.5052   4.1565284566e+01   4.0533648384e+01    0.2159645    0.1189044  69.94  0.001040612    1.613    0.380
        76  -9.9110    189.8038     15.1312   3.8763956675e+01   3.5828196451e+01    0.2049985     0.158397 -71.78 0.0005707047    1.210    0.173
        77 -10.7189     59.3402    220.5258   1.1480645909e+02   2.0987411933e+01    0.2957973    0.2194622  28.00  0.001303897    1.593    0.372
        78 -13.7356     58.0782    241.8113   1.1684860948e+02   1.6888134780e+01    0.8157528    0.5429394 -84.31  0.002916192    1.510    0.338
