#   1 NUMBER                 Running object number                                     
#   2 MAG_AUTO               Kron-like elliptical aperture magnitude                    [mag]
#   3 X_IMAGE                Object position along x                                    [pixel]
#   4 Y_IMAGE                Object position along y                                    [pixel]
#   5 X_WORLD                Barycenter position along world x axis                     [deg]
#   6 Y_WORLD                Barycenter position along world y axis                     [deg]
#   7 A_WORLD                Profile RMS along major axis (world units)                 [deg]
#   8 B_WORLD                Profile RMS along minor axis (world units)                 [deg]
#   9 THETA_WORLD            Position angle (CCW/world-x)                               [deg]
#  10 FWHM_WORLD             FWHM assuming a gaussian core                              [deg]
#  11 ELONGATION             A_IMAGE/B_IMAGE                                           
#  12 ELLIPTICITY            1 - B_IMAGE/A_IMAGE                                       
         1 -12.3994     56.4943     36.6348   4.4219323420e+01   6.4317997593e+01     1.042058     0.438371 -30.40  0.003980848    2.946    0.661
         2 -12.3489      3.3328     13.8126   6.5242150053e+01   7.6475615357e+01    0.5047319    0.4239168 -38.54   0.00286507    1.286    0.223
         3 -11.0587     11.0179     24.3203   6.4641502910e+01   7.3747588237e+01      1.62884    0.6748921 -20.59  0.004462697    6.857    0.854
         4 -11.9319      5.9815     24.1376   6.8540665309e+01   7.4299966620e+01    0.8305125     0.438262 -72.50  0.003327927    3.954    0.747
         5 -10.5274      9.5590      9.7206   5.7204637040e+01   7.6444251843e+01    0.6149789    0.3522734  48.25  0.003035886    2.619    0.618
         6 -10.9266     14.5002     17.5225   5.8176647813e+01   7.4532793145e+01    0.3620687    0.2411019 -61.09  0.001703824    2.384    0.581
         7 -10.9057     11.7625     14.2882   5.8349586469e+01   7.5425234450e+01    0.3499166    0.1743711 -28.87 0.0009523039    2.225    0.550
         8 -10.7397     82.1514     19.8981   2.7631714127e+01   6.0855062439e+01    0.5646808    0.2034405 -33.45  0.002271119    2.867    0.651
         9 -10.0907    125.1215     13.8887   1.7039938822e+01   5.1044325887e+01    0.3506757    0.1743206 -63.33   0.00148953    2.408    0.585
        10 -11.2460    137.1344     14.9282   1.5831422279e+01   4.8062827033e+01    0.2650938    0.1693217 -52.75 0.0004568421    1.528    0.346
        11 -10.8236    138.7913     10.7766   1.4348511672e+01   4.8059617654e+01    0.2189814    0.1627806  85.29  0.001004813    1.197    0.164
        12 -11.6897    132.9707     18.3186   1.7434171997e+01   4.8723000181e+01     0.403576    0.2485107 -56.40 0.0004606389    1.646    0.392
        13 -10.8501    129.1181     11.8229   1.5828349542e+01   5.0272896498e+01    0.2874333    0.2022243 -45.85 0.0008477853    1.423    0.297
        14 -11.0693     56.1078     18.7556   3.5500003750e+01   6.6904046250e+01    0.3569837    0.2516799   3.42  0.001052368    1.713    0.416
        15 -10.2143     54.2239     13.2849   3.3295884031e+01   6.7939876508e+01    0.4292008    0.2227875 -19.56  0.002025466    2.306    0.566
        16 -10.6411     60.8636     13.1325   3.0793770889e+01   6.6492590033e+01    0.5213684    0.2330644 -29.12  0.001593592    2.434    0.589
        17 -11.6663     65.2948     11.8591   2.8678703990e+01   6.5619567864e+01    0.3289307    0.2379874 -18.70 0.0002900324    1.560    0.359
        18 -10.2072    121.5465     19.6313   1.9513480561e+01   5.1346096312e+01    0.3816926    0.3196778 -77.50  0.001003866    1.146    0.128
        19 -12.6242    239.2937     16.2059   8.3296131092e+00   2.6824814485e+01    0.3852046    0.2819784   4.77  0.002551077    2.548    0.607
        20 -11.3550    166.7913     13.0842   1.2279954705e+01   4.1400643594e+01    0.4252779    0.2204003 -85.47  0.001458082    1.949    0.487
        21 -11.5633     82.0657      6.9266   2.1843117280e+01   6.2126427241e+01     0.248517    0.2182551  69.74 0.0003740018    1.048    0.046
        22 -12.3002     75.3515     11.7034   2.5692194902e+01   6.3297677814e+01    0.7181883     0.445792  29.33  0.002386799    1.870    0.465
        23  -9.9600     50.0986     16.4777   3.6731166225e+01   6.8451587469e+01     0.319528    0.2011006 -47.53  0.001624443    2.064    0.515
        24 -11.2235    174.4828     12.9937   1.1622762007e+01   3.9718944250e+01    0.5852032    0.2238958 -16.21  0.002147705    4.823    0.793
        25 -10.0995    177.7455     11.9957   1.1117374408e+01   3.9111098591e+01    0.2114151     0.154512  77.28            0    1.331    0.249
        26 -12.2812    242.9550      3.1899   5.6990097683e+00   2.7487582603e+01    0.4044432    0.2360709 -64.59  0.002437524    1.351    0.260
        27 -11.6152    236.6392      3.3045   5.9640719282e+00   2.8547771376e+01    0.3395785     0.185927 -44.83  0.002359853    1.347    0.258
        28 -10.5497    232.4746     13.4459   8.1211422356e+00   2.8280282207e+01    0.2681374   0.09420799 -41.81 0.0009579689    1.979    0.495
        29 -12.1993    235.4363      9.6776   7.2445948590e+00   2.8140128970e+01    0.3460013    0.2077203 -76.71  0.002017426    1.512    0.338
        30 -10.5322    145.6834     12.1422   1.4017567382e+01   4.6310606072e+01    0.3170357    0.1514795 -43.37  0.001430885    1.956    0.489
        31 -10.9137    145.4471      8.0337   1.2821597434e+01   4.6741728380e+01    0.3116722    0.1752788  68.96 0.0009922038    1.615    0.381
        32 -11.4956    159.7406      8.8306   1.1735849097e+01   4.3383776159e+01    0.3382762    0.1989487 -80.89  0.001157318    1.611    0.379
        33 -10.6499    154.1423      8.1192   1.2028823491e+01   4.4722630792e+01    0.2365436     0.199771 -81.25 0.0004156791    1.022    0.021
        34 -10.0876    119.8825     10.1153   1.6472354906e+01   5.2658554286e+01    0.2627683    0.1808753  -7.30  0.001083992    1.886    0.470
        35 -10.0836     28.2365     10.7857   4.4444236343e+01   7.3403425689e+01    0.2903374    0.2355723  64.76  0.001736058    1.735    0.424
        36  -9.8244    100.3493      9.7362   1.9390048177e+01   5.7453164324e+01    0.2470979    0.1774459 -83.84 0.0008540566    1.450    0.310
        37  -9.8012    102.3119      7.6727   1.8242145667e+01   5.7151231174e+01    0.2801943    0.1680648 -45.54 0.0009137232    1.792    0.442
        38 -10.0264     36.2095      7.9393   3.8136436404e+01   7.2259823493e+01    0.3360884    0.2561333   5.10  0.002038697    1.357    0.263
        39 -10.0217     90.1018      8.4111   2.0787882783e+01   6.0061033569e+01    0.2769203    0.1752727  33.58  0.001440458    1.809    0.447
        40 -10.2793     16.4661      7.4891   5.0157142915e+01   7.5798082044e+01     0.605311    0.2081791 -29.84  0.002295152    3.853    0.740
        41  -9.7229     19.9644      8.2853   4.8172872857e+01   7.5137478294e+01    0.1691886    0.1542295  10.59  0.000442783    1.186    0.157
        42  -8.8093     20.2981      4.6919   4.5396503948e+01   7.5553410236e+01    0.2912182    0.2400197  57.72  0.001803152    1.642    0.391
        43 -11.0264     27.0655      2.4693   3.9462109375e+01   7.4615467978e+01    0.3917183    0.2458545  46.22   0.00224244    1.431    0.301
        44  -9.9258     22.4819      1.5027   4.1591919349e+01   7.5557579519e+01    0.2073622    0.1308411  36.62 0.0005895792    1.353    0.261
        45  -8.9437    114.2737      8.6714   1.6754909888e+01   5.4148307938e+01     0.131622   0.08724297 -63.19 0.0004214901    1.588    0.370
        46 -10.8060    126.5239      3.5428   1.3413894777e+01   5.1610071026e+01    0.3951923    0.2116637 -43.23  0.001933303    1.854    0.461
        47 -10.1776    228.6861      5.9561   6.8132688887e+00   2.9684838617e+01    0.1551742    0.1064113 -49.83 0.0008423815    1.118    0.105
        48 -10.5124    223.2575      4.9633   6.8562721747e+00   3.0754961024e+01    0.2459597     0.148521 -26.73  0.001413858    1.800    0.444
        49 -11.3382    164.6125      4.8090   1.0256136909e+01   4.2654289004e+01      0.24454     0.169531 -61.68 0.0003617952    1.252    0.201
        50 -11.5455    179.2670      3.7288   8.9537094202e+00   3.9558762683e+01    0.2779066     0.192058  72.29 0.0001948396    1.450    0.310
        51  -9.8983     68.3484      5.3162   2.4461155501e+01   6.5514467303e+01    0.2232126    0.1265696  55.22 0.0006905491    1.474    0.322
        52 -10.0681     58.5611      5.3240   2.7383485374e+01   6.7765608234e+01    0.3147534    0.1146551  65.30  0.001229577    2.795    0.642
        53  -9.9787    134.3165      4.5236   1.2880295151e+01   4.9667504875e+01    0.3188997    0.1027787  71.72  0.001311192    2.630    0.620
        54 -10.4668     97.8813      3.2667   1.7235785389e+01   5.8586704609e+01    0.2302233    0.1848953  -6.50 0.0007256606    1.502    0.334
        55 -10.4192    119.1117      2.2824   1.3857053843e+01   5.3496724533e+01    0.5324396    0.1513712  63.35  0.001848655    2.745    0.636
        56 -10.5203     91.1180      2.2907   1.7998742691e+01   6.0306816509e+01    0.2038693     0.178585 -41.80 0.0003119183    1.278    0.218
        57 -10.4403    230.3197      1.5399   5.8734496307e+00   2.9813770810e+01    0.1728719    0.1088499  89.00   0.00062503    1.552    0.356
        58  -9.8344    173.8953      1.6217   8.7764703558e+00   4.0898052461e+01     0.172323    0.1269851  71.21 0.0005629526    1.384    0.277
        59 -10.5644     73.6784      1.6482   2.1291256099e+01   6.4551440227e+01    0.2386026    0.1543372  69.78 0.0006382868    1.385    0.278
        60  -9.8988     34.7345      1.7078   3.4767354233e+01   7.3210850573e+01    0.2231743    0.1177193  45.18  0.000426698    1.586    0.369
        61  -9.7806     14.2849      1.9938   4.7778523195e+01   7.6874175668e+01    0.1619509    0.1338184  -5.73 0.0001666553    1.149    0.130
        62  -9.6882      8.7539      2.0144   5.2328556186e+01   7.7696567688e+01    0.1962638    0.1344891  64.18 0.0009122819    3.612    0.723
        63 -10.2660    226.0065    188.3036   4.3283026317e+01   5.0976902067e+00    0.1633917    0.1259638 -11.84 0.0005236024    1.081    0.075
        64 -12.0800    247.8282    248.0603   4.9335783120e+01  -4.8617742691e+00    0.5375633    0.2805025 -14.10  0.003739006    1.520    0.342
        65 -12.2983    226.2823    246.2031   5.2421243989e+01  -2.8333052027e+00    0.5637331    0.2677319 -20.36  0.003438407    1.853    0.460
        66  -9.6969    109.8816    250.1824   7.5594473846e+01   8.6774177004e+00    0.1838849     0.143003  32.39 0.0005957906    1.205    0.170
        67  -9.3296     38.3168    250.6378   9.1805782220e+01   1.6130530764e+01     0.131085    0.0684656  51.90 0.0007041778    1.765    0.433
        68 -11.4906     21.8661    248.7272   9.5386235116e+01   1.7995300292e+01    0.4809993    0.1816131  37.54  0.002227611    1.934    0.483
        69 -10.8657      8.3156    248.7768   9.8370937139e+01   1.9126824195e+01    0.3774656    0.2300826  10.92  0.001608629    1.843    0.457
        70  -9.3390     13.3063    249.6816   9.7315488177e+01   1.8541067201e+01    0.1833289   0.08126306  39.89 0.0005417846    1.688    0.407
        71  -9.7767     61.9004    184.6725   7.9992727045e+01   2.8120248000e+01    0.2387466    0.1898365 -51.64 0.0009588358    1.317    0.241
        72 -10.9277     22.8654    179.9976   9.0926341126e+01   3.3364950517e+01    0.4552915    0.1709131  52.69  0.001460433    2.837    0.648
        73 -10.8688    249.3591    179.9201   3.8414408177e+01   3.7143790816e+00    0.2281208     0.080495 -42.32  0.001109059    2.567    0.610
        74 -11.2031    186.8824    191.7112   5.0644972167e+01   9.3518759844e+00    0.4574924    0.1556008 -33.90  0.001772715    3.095    0.677
        75 -11.2287      3.0075    179.7481   9.6670312467e+01   3.4965445872e+01    0.4139843    0.2043102 -13.06  0.001706173    3.104    0.678
        76 -10.5719     54.0150    175.5694   8.1176895619e+01   3.1324261226e+01    0.2769153     0.208933 -61.66 0.0007867226    1.346    0.257
        77  -9.5612    171.9861    175.2528   5.0566436943e+01   1.4306544317e+01    0.1663917    0.1104567  30.52 0.0008816691    1.553    0.356
        78 -11.8181      8.1297    172.7182   9.4758475232e+01   3.6390613074e+01    0.3354248    0.2389535 -55.83  0.001348739    1.465    0.317
        79 -10.6197     17.6577    172.7480   9.1900996189e+01   3.5656049725e+01    0.3171521     0.171425  64.04  0.001431347    1.944    0.486
        80 -10.9372      1.5821    164.9782   9.6251774960e+01   3.8828701895e+01    0.4773672    0.1464376 -80.74  0.001717674    3.058    0.673
        81 -10.0595    186.0142    166.0029   4.6053342697e+01   1.3913133228e+01    0.1647109    0.1389553 -19.90  0.001014974    1.000    0.000
        82  -9.1400     93.3104    166.7364   6.8223602657e+01   2.8254815149e+01    0.1465541    0.1118061  58.43 0.0002183649    1.535    0.348
        83 -10.1979     67.5975    165.6435   7.5679760930e+01   3.2163537126e+01    0.2920976    0.2269352  84.10 0.0008227071    1.495    0.331
        84 -10.8637      7.7210    163.6001   9.4268129438e+01   3.8781824444e+01    0.3419297    0.2149289 -19.23  0.001651778    2.027    0.507
        85  -9.9795     51.4072    160.2507   7.9972748260e+01   3.5584367919e+01    0.2083669    0.1405903 -84.05 0.0008377584    1.650    0.394
        86  -9.5751     54.6968    159.6652   7.8836404269e+01   3.5344265508e+01    0.1549051    0.1079442 -32.12 0.0005204192    1.662    0.398
        87 -10.9794    248.2979    156.1077   3.4396004683e+01   7.1779626008e+00    0.2586812     0.176983 -15.39  0.001170563    1.391    0.281
        88  -9.5800     19.8964    157.6119   8.9896875223e+01   3.9445038105e+01    0.1992251    0.1367915  12.60 0.0009912717    1.591    0.372
        89  -9.5857      7.4422    157.2332   9.3897647366e+01   4.0477165571e+01     0.192597    0.1203853  82.21  0.000343648    1.571    0.363
        90 -10.4903      2.6647    157.1740   9.5422486484e+01   4.0802788432e+01     0.239014    0.1979862  -4.42 0.0007994814    1.390    0.280
        91 -10.0162    215.8624    154.0029   3.8614722194e+01   1.1659821940e+01    0.2786941    0.2022137  27.62  0.001752081    1.580    0.367
        92 -10.2569    158.8726    153.6223   4.9025672870e+01   2.0482645140e+01    0.3304277     0.229509  20.68  0.001073905    1.608    0.378
        93 -10.2932     11.1433    153.0594   9.2363437538e+01   4.1331494751e+01    0.4008097    0.1842722  41.38  0.001716023    2.095    0.523
        94  -9.9950     40.8622    152.0608   8.2314655346e+01   3.8947716362e+01    0.2192413    0.2046975 -62.83 0.0005013078    1.064    0.060
        95 -10.2157    144.2566    149.2896   5.1393431820e+01   2.3841068450e+01    0.4524476    0.2256858 -58.62  0.001420192    2.831    0.647
        96 -11.5733     13.8389    147.5986   9.0977109288e+01   4.2603967763e+01    0.3678405     0.226179 -88.02 0.0002464567    1.605    0.377
        97 -11.9692     17.4763    143.5829   8.9326430232e+01   4.3416225649e+01    0.5006083    0.2594011  52.25  0.001387214    2.057    0.514
        98 -10.5216     13.9972    140.0165   9.0186262146e+01   4.4648086889e+01      0.22506    0.1501946 -42.27 0.0003209203    1.579    0.367
        99 -10.8478    217.5913    145.0560   3.6616649282e+01   1.2842883473e+01    0.3038819    0.1690416  27.73  0.001452424    2.384    0.580
       100 -10.6563      6.6477    145.2177   9.3223567982e+01   4.3741142775e+01    0.4743424    0.1576579  20.22  0.001765469    2.966    0.663
       101 -13.5221     37.5777    134.8206   8.1004076293e+01   4.3962462352e+01    0.7267731    0.4917303 -72.55  0.002254696    1.462    0.316
       102 -10.0771    189.0739    139.6596   4.0169451168e+01   1.8101308760e+01    0.2210046    0.1645524 -44.31 0.0004665328    1.265    0.209
       103 -10.6704     41.5784    146.6137   8.1321216572e+01   4.0334161692e+01    0.3765568    0.1881241  49.96 0.0009959565    2.231    0.552
       104 -10.0397    236.0295    138.0228   3.2666474659e+01   1.1367789495e+01    0.1723765    0.1253661 -53.54 0.0004851166    1.588    0.370
       105  -9.6356    144.1612    136.8513   4.8685629592e+01   2.6448968421e+01    0.2036439    0.1652058 -13.83 0.0003726733    1.335    0.251
       106 -10.7836     20.5444    135.0173   8.7272064023e+01   4.5508087490e+01    0.2734105     0.199876  80.01 0.0009172213    1.423    0.297
       107 -11.5690     17.4380    130.8468   8.7924978265e+01   4.6896342764e+01    0.4655938    0.3175447   9.71  0.002296155    1.620    0.383
       108 -11.4416     53.3264    132.6696   7.4934837886e+01   4.2691448838e+01    0.3498857    0.3187326 -80.99 0.0004386136    1.121    0.108
       109 -11.6888     74.2158    128.7423   6.6827781310e+01   4.0731696587e+01    0.4444915    0.3665015 -12.19  0.001319363    1.368    0.269
       110 -12.6379     81.5919    125.1147   6.3540085503e+01   4.0459297106e+01    0.9409416    0.5892496 -53.36  0.002723611    1.573    0.364
       111 -11.1157      4.7134    130.2545   9.2607961617e+01   4.7917525904e+01    0.2650017    0.2233424 -81.20  0.000286499    1.089    0.082
       112  -9.6662      4.2912    126.3784   9.2401640597e+01   4.8998439329e+01    0.2624193    0.1346412 -39.20  0.001131864    2.098    0.523
       113 -11.4032     24.7430    127.6466   8.4750198628e+01   4.7172117215e+01    0.3880602    0.3081658 -71.87  0.001803572    1.194    0.162
       114  -9.4560    217.3044    129.3222   3.3531273346e+01   1.5383890544e+01    0.1234578   0.08732305 -12.21 0.0002926824    1.636    0.389
       115 -11.0303     59.7488    131.1107   7.2349117784e+01   4.2249313898e+01    0.3577013    0.2294735   6.32  0.001483537    1.977    0.494
       116 -10.3103    229.5777    125.2196   3.1035381662e+01   1.4195688164e+01    0.2337969   0.09219186 -40.87  0.001117446    2.010    0.503
       117 -10.6080    117.4976    123.9269   5.2367984417e+01   3.4243935880e+01    0.3522858    0.1379476 -41.96  0.001191442    2.636    0.621
       118 -11.3028     46.9410    124.2776   7.5738311511e+01   4.5749590750e+01    0.3642826    0.2657753  34.70 0.0004539185    1.387    0.279
       119  -9.9661     30.4708    124.0562   8.2016315064e+01   4.7624933307e+01    0.2221844    0.1390343 -68.33 0.0004751215    1.519    0.342
       120  -9.6139    225.8787    123.1285   3.1106489879e+01   1.5058414270e+01    0.1790515     0.144106 -51.30 0.0007065825    1.284    0.221
       121  -9.7318     20.0019    122.9303   8.5936568691e+01   4.8865279212e+01    0.2530932    0.1754414 -70.23 0.0004935726    1.345    0.257
       122 -10.5148     23.5808    119.2676   8.3997379172e+01   4.9569245013e+01    0.4773071    0.2972687 -15.00  0.001928683    1.963    0.491
       123 -11.4810     11.0503    121.4411   8.9265303105e+01   4.9931990644e+01    0.5256221    0.2620052 -59.03  0.002299178    1.778    0.437
       124  -9.8576      7.1756    118.7866   9.0495501898e+01   5.0903154094e+01    0.2343112    0.1754712 -52.78 0.0006953555    1.258    0.205
       125 -11.2655     61.1205    121.6472   6.9929585083e+01   4.4551388865e+01    0.2956007    0.2340158 -40.97 0.0006538409    1.274    0.215
       126 -11.3828     69.3586    121.5080   6.6929043048e+01   4.3351465054e+01     0.456918    0.2836167  24.98  0.001591957    1.713    0.416
       127 -10.3708     65.2159    119.7679   6.8027269486e+01   4.4436145231e+01    0.2913429    0.2219285  17.46 0.0006223067    1.411    0.291
       128 -11.0129      2.3076    118.0670   9.2356005467e+01   5.1372847151e+01    0.4380197    0.2458057 -49.24  0.001269147    1.690    0.408
       129 -10.4566     24.7973     99.7275   8.0166353806e+01   5.4755574510e+01    0.4238928    0.3541073  59.22  0.001695906    1.334    0.250
       130 -11.7060     16.7259     97.9102   8.3478962446e+01   5.5924267453e+01    0.6992308    0.5896167  77.39  0.003489556    1.297    0.229
       131 -12.1633     16.4068    115.5473   8.6361401685e+01   5.1167236274e+01    0.4481284    0.3710994  43.41 0.0007517122    1.277    0.217
       132 -12.1147     13.9805    109.9651   8.6584572891e+01   5.2867677032e+01    0.5214044    0.3966341 -54.87 0.0004283093    1.210    0.174
       133 -11.2601     19.3988    109.1931   8.4172379976e+01   5.2667937133e+01    0.4485588    0.2750903 -32.38  0.001208133    1.768    0.434
       134 -10.7085    249.5803    116.8549   2.7019162717e+01   1.2599780324e+01    0.2281392     0.087428 -34.68  0.001136908    2.069    0.517
       135 -10.8001     71.3629    115.1406   6.4743468471e+01   4.4661487607e+01     0.363695    0.3152952  63.61  0.001834479    1.287    0.223
       136 -10.4961     75.5626    112.3650   6.2573913925e+01   4.4665246512e+01    0.3276069    0.2462218  33.22 0.0008708008    1.340    0.254
       137  -9.6559     86.0045    116.2621   5.9967733688e+01   4.1894767607e+01    0.2122131    0.1976869  27.58 0.0001934101    1.080    0.074
       138 -10.9246    182.0992    114.6715   3.5912980786e+01   2.3713050973e+01    0.4405349    0.2253053  39.08  0.001690598    2.388    0.581
       139  -9.9144    107.0555    113.7361   5.2760032464e+01   3.8561735536e+01    0.2151942    0.1985811  33.36 0.0004726594    1.097    0.089
       140 -11.5495     55.2585    109.7417   6.9507243613e+01   4.8504143790e+01    0.3311478    0.2980436  -8.10 0.0006475069    1.156    0.135
       141 -10.0878     66.9822     97.9503   6.1980044423e+01   4.9670053217e+01    0.2287851    0.2014199  -6.70  0.001169585    1.206    0.171
       142 -11.5077     61.8387     99.5649   6.4409844458e+01   5.0109534760e+01    0.7177469    0.3741687 -37.52    0.0027331    2.229    0.551
       143 -10.7670     62.9338    106.7477   6.5821434752e+01   4.8130597493e+01    0.2838263    0.2497721  48.77 0.0001823868    1.200    0.167
       144 -11.2597     59.0085    105.9919   6.7151182266e+01   4.8923274857e+01    0.2589354    0.2368314  26.69  0.001365663    1.108    0.097
       145 -11.4879     31.1674    107.3168   7.8844927042e+01   5.2102180914e+01    0.4391214    0.3540671  84.40   0.00189694    1.379    0.275
       146  -9.8982      3.3312    107.7010   9.0809209887e+01   5.4138773070e+01    0.2653223    0.1909023  53.47 0.0007294503    1.510    0.338
       147 -10.2621      4.0368    105.0000   9.0181474831e+01   5.4833537870e+01    0.3781178    0.1976661  16.09  0.001705835    2.049    0.512
       148  -9.4607     97.0727    107.0067   5.4003862404e+01   4.2039256613e+01    0.1781368    0.1719514  27.12 0.0003739158    1.041    0.040
       149 -12.1146     51.0289    103.7008   6.9779122710e+01   5.0665430104e+01    0.3373134    0.3216015 -39.26  0.000641648    1.013    0.013
       150  -9.9450     74.9910    104.0005   6.0630894430e+01   4.6826500909e+01     0.218552    0.2084642 -35.07 0.0003666632    1.032    0.031
       151 -11.1317     76.4350     98.2788   5.8550380553e+01   4.7949996560e+01     0.538864    0.3357297 -27.86  0.001437423    2.086    0.521
       152 -10.2066     40.8585     98.6323   7.2852798725e+01   5.3314142366e+01    0.4622265    0.1505583 -57.30  0.001556321    2.712    0.631
       153 -10.7828     38.3732    102.8406   7.4865937620e+01   5.2508114292e+01    0.2971352    0.2165827 -50.43  0.001449629    1.296    0.229
       154 -10.1713    112.0021    102.2619   4.8276165686e+01   4.0114361026e+01    0.2351198     0.164852  42.86  0.001080878    1.448    0.309
       155  -9.4892      9.6660     98.9324   8.6855568848e+01   5.6144367395e+01    0.1906864    0.1239082 -87.86 0.0003353808    1.629    0.386
       156  -9.1124    245.6861     98.6852   2.3968436167e+01   1.5689093632e+01    0.1078366   0.08044841 -12.99 0.0007034435    1.641    0.391
       157  -9.7325    225.9404     98.1316   2.6025545035e+01   1.8799874893e+01    0.1745627    0.1341873 -52.87 0.0003023401    1.216    0.178
       158 -10.2987     90.6366     98.1978   5.3630510526e+01   4.5305197193e+01    0.2152765    0.1404151 -39.22 0.0003321564    1.589    0.370
       159  -9.7870     86.1787     97.9862   5.5056679802e+01   4.6212815386e+01    0.3006341    0.2077581   1.76  0.001223299    2.175    0.540
       160  -9.5303     81.9573     97.3818   5.6336177245e+01   4.7149517085e+01    0.2059222    0.1869652  27.29 0.0003851951    1.108    0.097
       161  -9.5910     80.5229    104.0245   5.8673560106e+01   4.5841138563e+01    0.2213552    0.1405614 -79.15 0.0008102443    2.623    0.619
       162  -9.5761    241.2895     96.6732   2.4032594117e+01   1.6620796996e+01    0.1173249   0.07201446 -54.73 0.0003910825    1.615    0.381
       163 -10.1807    102.0455     95.7974   4.9350635502e+01   4.3554975462e+01    0.2577438    0.1816048  74.32  0.001080322    2.075    0.518
       164 -10.5301    226.2308     93.1595   2.4966754638e+01   1.9476601749e+01    0.2060675    0.1659429 -60.89 0.0004389151    1.265    0.210
       165 -10.0549     52.2124     93.6505   6.6755195123e+01   5.3055885278e+01    0.2502994    0.1774628  33.15 0.0002694618    1.423    0.297
       166  -9.4134     26.8821     93.8481   7.8031446059e+01   5.6115863895e+01    0.1915331    0.1648463  58.37  0.001024879    1.303    0.233
       167 -10.9183     23.4869     90.4269   7.8891132532e+01   5.7336720670e+01    0.4004392    0.2654618  17.71  0.001942923    1.577    0.366
       168 -10.0081     31.7920     92.5531   7.5487485461e+01   5.5947794499e+01    0.2205472    0.1931479  80.00 0.0002822247    1.296    0.228
       169 -11.5651     57.3147     90.3678   6.3723284214e+01   5.3091379299e+01    0.4183228    0.3262518 -13.22 0.0006051501    1.468    0.319
       170 -10.3788     35.7862     90.6418   7.3205998649e+01   5.5991214342e+01    0.4309883    0.2498009  65.33  0.001635468    2.808    0.644
       171 -11.8099     10.6521     90.9881   8.5119203767e+01   5.8202849201e+01     0.265831    0.2386928  34.80 0.0004131334    1.218    0.179
       172  -9.9198    231.5256     91.4771   2.4034553605e+01   1.8864317914e+01    0.1196331   0.09406407 -41.94 1.860783e-06    1.010    0.010
       173  -9.2914    105.7648     91.5770   4.7018125061e+01   4.3682533715e+01    0.2155594     0.144359  56.29 0.0009477628    1.652    0.395
       174 -10.8298     97.3450     90.0917   4.9113676577e+01   4.5750572507e+01     0.365473    0.2626549 -24.31   0.00164989    1.681    0.405
       175  -9.6526    109.3344     90.2960   4.5616478928e+01   4.3193847104e+01    0.1528724    0.1205519   5.41 0.0002697637    1.645    0.392
       176 -10.1304    177.5729     89.0470   3.0604397817e+01   2.8947227976e+01    0.1834571    0.1745896 -52.63 0.0003510452    1.070    0.066
       177  -9.0576     87.3453     89.2744   5.2107777580e+01   4.7951854030e+01    0.1544231    0.1203778   1.86 0.0006985493    1.624    0.384
       178  -9.1286     73.7325     89.2854   5.6941990256e+01   5.0548083760e+01    0.1446524    0.1209942  80.05 0.0006899143    1.496    0.332
       179  -9.5723     83.1897     88.5675   5.3316347717e+01   4.8924947023e+01    0.2037342    0.1453562  25.13 0.0003370001    1.569    0.363
       180  -9.4388     46.6454     87.8358   6.7585325564e+01   5.5302506082e+01    0.2003304    0.1407996 -70.88 0.0002903664    1.644    0.392
       181 -11.6925    107.5437     84.9028   4.4508430057e+01   4.4674588685e+01    0.3722183    0.2812183  71.68 0.0004880343    1.629    0.386
       182  -9.5237     42.2924     87.0343   6.9316954840e+01   5.6094554252e+01    0.2006754    0.1842341 -50.56 0.0002849241    1.077    0.071
       183 -11.0598     65.1535     84.8245   5.8901067368e+01   5.3111231218e+01    0.3881892    0.2700392 -59.96   0.00102084    1.580    0.367
       184 -10.2087     29.6536     85.3120   7.4779256319e+01   5.8045096568e+01    0.2688452    0.1321418  29.46 0.0009582799    2.034    0.508
       185 -10.6316     30.3931     81.5340   7.3470641613e+01   5.8921980283e+01    0.3435473    0.2478784 -48.74  0.000820542    1.292    0.226
       186 -10.3003    117.0208     83.3485   4.1460419746e+01   4.2915476802e+01    0.2126994    0.1934222  54.63 0.0006806999    1.107    0.097
       187 -10.5399     43.0076     82.9811   6.7873757837e+01   5.7003012276e+01    0.2978771    0.2402828  48.08 0.0006299858    1.380    0.275
       188  -9.9906     41.3716     79.5221   6.7642142333e+01   5.8069232043e+01    0.3943326    0.2068531  23.42  0.001635557    2.018    0.504
       189 -12.8498     88.3442     77.4476   4.8048689282e+01   5.0268139935e+01    0.4003929    0.3539165 -18.50 0.0004303184    1.212    0.175
       190 -10.6481     75.9153     81.8272   5.3826811228e+01   5.1821807348e+01    0.3606251    0.2429444  54.17 0.0009916226    1.696    0.410
       191  -8.9315    184.7175     85.2938   2.8595603922e+01   2.8137433599e+01    0.1319877   0.09295131 -63.19 0.0002198417    1.536    0.349
       192 -10.0272     21.1583     82.0427   7.8173210173e+01   5.9721916802e+01    0.2363972    0.1722396 -37.14  0.001143026    1.312    0.238
       193 -10.1051      7.5572     80.9534   8.4863560813e+01   6.1032020833e+01    0.3476321    0.1549676 -48.84  0.001086287    1.946    0.486
       194  -9.7561     44.7856     74.6156   6.4551455253e+01   5.8761693192e+01    0.2005328    0.1312357  40.06  0.000440046    1.595    0.373
       195 -10.5625     11.6098     74.9363   8.1520376063e+01   6.2309480549e+01    0.4605979    0.2461481 -63.08  0.002120594    1.699    0.411
       196 -14.0207     16.5718     67.3741   7.6972272912e+01   6.3804686714e+01    0.5004952    0.3961422 -39.50   0.00106955    1.147    0.128
       197 -10.3726     18.6679     78.1406   7.8534786467e+01   6.0937734463e+01     0.276743    0.2120412 -34.83 0.0006132688    1.236    0.191
       198 -11.0382     21.9642     75.0153   7.6054119027e+01   6.1425207576e+01    0.4994945    0.3585706  52.40  0.002507241    1.694    0.410
       199  -9.8825    203.4825     77.9379   2.4354455287e+01   2.5663656631e+01    0.1726791     0.152135 -54.88 0.0003655151    1.062    0.058
       200  -9.5813    112.6856     77.8856   4.0933390334e+01   4.4917681644e+01    0.2442099    0.1633214   7.06 0.0009414286    2.720    0.632
       201 -11.6730    167.8307     73.5182   2.8240117227e+01   3.3454777851e+01    0.3535716     0.213877 -48.12 0.0003601788    1.542    0.351
       202  -9.5742    149.6938     77.4348   3.2443292956e+01   3.6743980307e+01    0.1905916    0.1309901  44.64 0.0007634782    1.607    0.378
       203  -8.9230    122.2628     76.3827   3.8035634206e+01   4.3054090811e+01    0.1469546    0.1162701  -0.57   0.00069804    1.683    0.406
       204 -10.3094     99.2737     75.7159   4.4033584897e+01   4.8286933725e+01    0.2667197    0.2353973 -82.64  0.001396737    1.287    0.223
       205 -10.3741     38.0842     75.5159   6.8034598525e+01   5.9474347460e+01    0.3532929     0.222932 -14.75  0.001169037    2.041    0.510
       206 -11.2898     58.0960     73.4686   5.8189490895e+01   5.6912332425e+01    0.6654335    0.3361368  18.56  0.002269425    3.192    0.687
       207 -10.5685    108.2055     73.3925   4.0723086901e+01   4.6759174562e+01    0.3239899     0.242842 -82.85  0.001504408    1.797    0.443
       208  -9.6712     76.2219     74.2554   5.1228718410e+01   5.3389573776e+01    0.2695688    0.1753827  37.43 0.0008555558    1.531    0.347
       209 -10.3468      6.4510     73.5700   8.4013615587e+01   6.2996306798e+01    0.3612533    0.1592052  11.44  0.001473652    2.418    0.586
       210  -9.4107    206.8216     73.2411   2.2900986600e+01   2.5721456540e+01     0.153456    0.1323724 -25.06 0.0003547284    1.283    0.221
       211  -9.5513    246.2981     72.3154   1.8791429469e+01   1.9134904896e+01     0.101176   0.08088057 -13.54 0.0002433753    1.609    0.378
       212 -11.2558    103.3609     69.1928   4.0699391567e+01   4.8618790423e+01    0.5537698    0.3216141 -23.66  0.001343098    2.415    0.586
       213 -10.0678     93.6941     70.7095   4.4081837971e+01   5.0467778988e+01    0.2260829    0.2107591  19.32 0.0005234032    1.111    0.100
       214 -10.9549     93.2473     66.8790   4.2912340473e+01   5.1289486381e+01    0.4177821    0.2570338 -24.06  0.001749084    2.145    0.534
       215 -11.2580     45.7819     60.8814   5.9393233215e+01   6.1695624651e+01    0.5284531    0.2824992  27.19  0.000458038    1.966    0.491
       216 -10.6406     58.5585     59.2823   5.2908514090e+01   5.9835024681e+01    0.8249574    0.4386192  20.34  0.002998962    2.962    0.662
       217 -11.5392     50.3336     68.1176   5.9820901909e+01   5.9391872310e+01    0.3742339    0.2804658 -34.07 0.0004771972    1.350    0.259
       218 -10.6809     51.7544     62.8581   5.7293772952e+01   6.0297067536e+01    0.3765861    0.2455419  -3.94  0.001594878    2.247    0.555
       219 -11.4604     44.1914     67.5544   6.2526831344e+01   6.0473743331e+01    0.5244586    0.3309747 -57.63  0.002430269    1.709    0.415
       220 -11.1344    122.7411     67.4605   3.5166007632e+01   4.4515385536e+01    0.2797583    0.2388355 -51.30  0.000483121    1.170    0.145
       221 -10.8471      6.5359     68.0067   8.2784725141e+01   6.4393513336e+01    0.2490562    0.2317735 -81.94 0.0003975532    1.187    0.157
       222 -11.6669      2.6808     63.7139   8.4063277888e+01   6.5683900705e+01    0.8127137     0.300359 -57.74  0.003387445    2.163    0.538
       223 -13.2959     12.4774     47.6811   7.3482510104e+01   6.8782824065e+01    0.6909535    0.4261542   5.28 0.0005870131    1.673    0.402
       224 -11.9189     11.8683     56.0230   7.6538319680e+01   6.6921622490e+01    0.9880453     0.360457 -48.21  0.003268638    2.324    0.570
       225 -12.1385      7.4057     40.5735   7.4407853193e+01   7.0784676791e+01    0.3990352    0.2380818 -39.75  0.002091074    1.497    0.332
       226 -11.0200      2.5173     52.9543   8.1571562367e+01   6.8299076364e+01    0.3830549    0.2418885 -28.50  0.001283607    1.483    0.326
       227 -11.2708      7.8889     51.6575   7.7740217732e+01   6.8249460411e+01     0.317616    0.2909918  69.89 0.0008666814    1.353    0.261
       228 -11.2444      3.3056     48.1222   7.9707344982e+01   6.9381932911e+01    0.3787441    0.3233692 -12.57  0.002347795    1.105    0.095
       229 -11.9110    147.0621     65.6855   2.9628770678e+01   3.9245750927e+01    0.3028857    0.2191304 -49.39   0.00125982    1.331    0.249
       230 -10.5218    132.4974     67.4066   3.2990061929e+01   4.2285211144e+01    0.3729108    0.2302743 -55.81  0.001200918    1.799    0.444
       231  -9.5175     76.7619     67.8305   4.8807901123e+01   5.4596144693e+01    0.1996729    0.1770478  86.05 0.0006208155    1.350    0.259
       232 -12.6900     30.2405     63.2816   6.8222027881e+01   6.3350711554e+01     0.473606    0.4577714  -2.94  0.001190769    1.100    0.091
       233 -10.5548    109.9605     64.1075   3.7219710761e+01   4.8026077080e+01    0.4584481    0.2826417 -62.89  0.001925353    2.213    0.548
       234 -11.5291    202.1507     62.4266   2.0972939271e+01   2.8112670757e+01    0.3187377     0.186854 -28.63  0.000682142    1.775    0.437
       235 -10.3425    159.8280     64.6148   2.7148737565e+01   3.6561018501e+01    0.2263673    0.1752114 -41.39 0.0002222064    1.224    0.183
       236 -10.6140     81.4254     64.9661   4.6123694022e+01   5.4192896194e+01    0.2720579    0.2056333  38.67  0.001352408    1.301    0.231
       237 -10.6589    209.9945     63.1277   2.0294864356e+01   2.6535298019e+01    0.1945854    0.1463833 -44.73 0.0003413096    1.106    0.096
       238  -9.3959    186.6729     64.3092   2.3242460905e+01   3.0909884021e+01     0.135797   0.08683296 -64.07 0.0004301405    1.658    0.397
       239  -9.4756    179.6139     63.7896   2.4032403990e+01   3.2437060030e+01    0.1842149    0.1050992 -45.90 0.0004728569    1.557    0.358
       240 -10.8526    155.3355     62.6874   2.7349526176e+01   3.7849266648e+01    0.2779854    0.2309692  16.26  0.001541059    1.597    0.374
       241  -9.4871    193.5190     62.5152   2.1974891416e+01   2.9787000977e+01    0.1270805    0.1082122 -54.33 6.050395e-05    1.006    0.006
       242 -10.1331    151.4538     60.3191   2.7331131374e+01   3.9077597791e+01    0.3464631    0.2085491  37.19  0.001563001    2.284    0.562
       243  -9.2689    123.4802     61.4541   3.3100437056e+01   4.5342014247e+01    0.1404981    0.1367796  66.75 0.0002900616    1.051    0.048
       244 -10.7598    119.2688     61.0051   3.3914533014e+01   4.6394421790e+01    0.2501458    0.2379694  72.82 0.0002598159    1.022    0.022
       245 -11.8719    114.9004     55.6664   3.3175560935e+01   4.8271168932e+01    0.5882161    0.2851605  53.72  0.001340424    1.971    0.493
       246 -10.1861     90.0597     61.0598   4.1858202344e+01   5.3055121474e+01    0.2173234    0.2098985  61.88 0.0003983207    1.047    0.045
       247 -10.7577    135.9018     58.7844   2.9686562188e+01   4.2874902216e+01    0.6715674    0.3507421  89.39   0.00213444    4.388    0.772
       248  -9.9105    127.4374     58.5525   3.1323214579e+01   4.4881495962e+01    0.2800084    0.1355976  57.96 0.0006384812    2.027    0.507
       249 -10.4317    133.5609     54.4932   2.8820822422e+01   4.4068825985e+01    0.2969195    0.2501051  59.15 0.0009492466    1.182    0.154
       250 -10.6837    133.4541     50.4671   2.7588322394e+01   4.4682427735e+01    0.3824614    0.2329078 -79.70  0.001655626    2.310    0.567
       251  -9.9247    163.6441     57.8902   2.4739011615e+01   3.6712166406e+01    0.2248066    0.1832341  33.48 0.0008777626    1.559    0.359
       252  -9.8386     93.4252     58.1747   3.9782063466e+01   5.2812742622e+01     0.243645    0.1843276  88.57 0.0006197499    1.771    0.436
       253 -10.4881     89.2360     55.7510   4.0177823033e+01   5.4168588581e+01    0.3959424    0.2901408   5.82  0.001852417    1.899    0.474
       254 -10.9770     89.3121     52.0195   3.8758097528e+01   5.4778241190e+01    0.3621244    0.2493913  -2.27  0.001605439    2.190    0.543
       255 -10.1770    170.9260     57.3424   2.3557777463e+01   3.5201334667e+01    0.2094288    0.1511222 -84.26  0.001152071    1.502    0.334
       256  -9.9656     79.5852     56.9399   4.3804245290e+01   5.6073482039e+01    0.3165959     0.246096  -9.06 0.0009532167    1.573    0.364
       257 -11.0045     82.1952     52.7846   4.1326009827e+01   5.6235267800e+01    0.4130662    0.2607585 -43.06   0.00194008    1.670    0.401
       258 -11.0718     74.2603     56.7382   4.5633515734e+01   5.7234758221e+01    0.2403111    0.2198038  19.71 0.0002387805    1.084    0.077
       259  -9.2942     38.7034     57.7067   6.1776324033e+01   6.3457454312e+01    0.1443268    0.1038004 -14.99 0.0002703473    1.562    0.360
       260  -9.3791    176.8522     56.1745   2.2467489581e+01   3.4095205359e+01    0.1622401     0.153958  28.64 0.0004908054    1.307    0.235
       261 -11.2925    104.4685     52.3987   3.4624253099e+01   5.1228937134e+01    0.4180578    0.3460606  20.90 0.0009429589    1.423    0.297
       262 -10.3618    145.6954     54.0917   2.6507254301e+01   4.1308537006e+01    0.2522471    0.2114395  45.39 0.0005056214    1.331    0.249
       263 -10.2431    149.2349     51.7514   2.5239989502e+01   4.0828724934e+01    0.2954784    0.2159507 -73.56   0.00157873    1.460    0.315
       264 -11.6735     61.9832     41.5431   4.4140151686e+01   6.2413100344e+01    0.4412895    0.3302012  41.47   0.00211544    1.248    0.199
       265 -11.9415     39.2589     50.4735   5.8668634486e+01   6.4886647389e+01    0.6432694    0.5154352  16.12  0.003048975    1.210    0.174
       266 -11.6643     54.6996     48.8177   5.0417088872e+01   6.2566301342e+01    0.5373418    0.2705472  38.43 0.0004896778    1.915    0.478
       267 -10.7729     50.4528     43.5248   5.0088422622e+01   6.4315295003e+01     0.445899    0.2904882 -44.35  0.001773525    1.640    0.390
       268 -10.0880    181.9893    250.0000   6.0711998163e+01   8.7211344621e-01    0.1828478   0.05415561  26.75 0.0008050816    2.961    0.662
       269 -11.1990     45.0693     44.7562   5.3252100459e+01   6.5049803192e+01    0.5579002    0.3962951 -69.52  0.002183096    2.250    0.555
       270 -10.7264     44.9591     38.3613   5.0406886966e+01   6.6221730716e+01    0.3090728    0.2357179 -46.39  0.001688253    1.470    0.320
       271 -10.9719    126.8424     51.0710   2.9061148469e+01   4.6154175971e+01    0.3660053    0.2398544 -27.55  0.001786541    1.707    0.414
       272  -9.4681    159.8723     51.8599   2.3645076032e+01   3.8400655066e+01    0.1808933    0.1385333 -64.48 0.0002477358    1.265    0.210
       273  -9.6283     73.4435     49.7469   4.3179858710e+01   5.8645875194e+01    0.2628956    0.1387288 -42.84  0.001128156    2.009    0.502
       274 -10.4712    182.6379     49.1284   1.9982853307e+01   3.3822426238e+01    0.3710468    0.1973038 -89.70  0.001723868    2.465    0.594
       275 -10.6842    141.8023     49.0192   2.5659522077e+01   4.2931223316e+01    0.2220355    0.1870108  82.47 0.0002525868    1.153    0.133
       276 -11.0229    142.4866     45.3578   2.4443249096e+01   4.3273431466e+01    0.3683922    0.2163087  74.82  0.001761192    1.802    0.445
       277  -9.7747    164.1240     48.2185   2.2052920266e+01   3.7946781695e+01     0.186832    0.1611021 -85.73 0.0004246339    1.103    0.094
       278 -10.3437    163.5733     44.1637   2.1023182750e+01   3.8603033611e+01    0.2260943    0.1880412 -76.34 0.0004360109    1.119    0.106
       279 -10.0889     78.8478     47.8197   4.0500775242e+01   5.7800645520e+01    0.2190926    0.1859857  24.45  0.000562669    1.226    0.184
       280  -9.8719     62.2796     47.3707   4.6532955762e+01   6.1362181349e+01    0.1973627    0.1290106  52.12 0.0003541264    1.606    0.377
       281 -10.0738    104.0390     46.2065   3.2512197421e+01   5.2273646360e+01    0.2169227    0.1808004 -89.29 0.0005237379    1.315    0.239
       282  -9.3745     62.3501     52.8211   4.8753451513e+01   6.0363550513e+01    0.1932891    0.1320482 -31.49 0.0004200009    1.570    0.363
       283 -10.3483    120.9309     41.4702   2.7079227011e+01   4.8910850305e+01     0.261665    0.1323239  68.34 0.0007524732    2.040    0.510
       284 -10.0034    115.9325     42.5568   2.8476080436e+01   4.9960773955e+01    0.2412501    0.1639712  56.58 0.0005575163    1.393    0.282
       285 -10.0669    112.4840     45.4547   3.0237297920e+01   5.0378196031e+01    0.2315327    0.1950055  61.83 0.0001350457    1.127    0.112
       286 -10.9290    109.5847     41.2624   2.9410528465e+01   5.1658643475e+01    0.4900817     0.278322  84.78   0.00135862    2.631    0.620
       287 -11.3042     96.5415     42.3500   3.3013205212e+01   5.4603598846e+01    0.4151306    0.3112447  10.63  0.001145117    1.766    0.434
       288  -9.9496    153.1467     45.0000   2.2695569589e+01   4.0853267696e+01    0.3640635   0.07289819  64.63  0.001055186    4.969    0.799
       289 -10.1736    130.8385     42.6367   2.5590904660e+01   4.6387395029e+01    0.3021967     0.178089 -35.21  0.001194791    1.722    0.419
       290 -10.8094     72.5837     42.4113   4.0458711425e+01   6.0038587469e+01    0.3259769    0.2520129 -62.26  0.001121868    1.643    0.391
       291 -10.8154     97.3743     36.2502   3.0456655155e+01   5.5253393008e+01    0.2426807    0.2226015 -73.21 0.0003213368    1.150    0.130
       292 -10.4184     98.5220     32.6285   2.8772278588e+01   5.5450264622e+01    0.5262595     0.278331  74.37  0.002211493    2.291    0.564
       293 -10.8676     89.1726     40.8218   3.4460937921e+01   5.6545764133e+01     0.327502    0.2846898 -50.99  0.001047201    1.245    0.197
       294  -9.8684     92.9548     35.2890   3.1218933767e+01   5.6429908564e+01    0.2863626    0.2135007  39.86 0.0009845212    1.369    0.270
       295  -8.0927     23.7838     41.6171   6.3874147244e+01   6.8861553953e+01    0.5368418    0.3872146  78.73 0.0006914226    2.645    0.622
       296 -12.6837     27.6432     37.6562   5.9723029692e+01   6.9129099532e+01    0.2814032    0.2586576  -4.58 0.0003471189    1.084    0.077
       297 -11.3502     24.2571     34.9962   6.0604462756e+01   7.0103892415e+01    0.2869898     0.215748  -5.00 0.0004303586    1.325    0.245
       298 -11.9461     84.1481     36.4990   3.4183572013e+01   5.8323714392e+01    0.7665344    0.4934303   8.62   0.00281897    2.467    0.595
       299 -11.6559     65.0072     36.7284   4.0789864427e+01   6.2546058511e+01    0.4134316    0.2199271  52.12 0.0002434422    1.819    0.450
       300 -11.8041     74.7382     35.7411   3.6845283700e+01   6.0570043406e+01    0.4568793    0.3656654  66.93 0.0007991513    1.337    0.252
       301  -9.8429     73.5372     31.4988   3.5376807264e+01   6.1432189067e+01    0.2454474    0.1926337  48.02  0.000721971    1.160    0.138
       302 -10.2945    234.2581     39.6581   1.3250526093e+01   2.5130114993e+01    0.3022915    0.1507486 -88.63  0.001077272    2.461    0.594
       303 -11.1800    226.2732     39.7074   1.3823625750e+01   2.6519204391e+01    0.2743427    0.1476538 -48.19   0.00111236    1.438    0.305
       304 -10.2746    142.0455     40.0129   2.2897241022e+01   4.4079429405e+01    0.2007963    0.1566822  30.50  0.000536063    1.649    0.394
       305  -9.6715    154.8538     37.8170   2.0405289325e+01   4.1381336252e+01    0.1927699      0.13477 -60.70  0.001039067    1.384    0.277
       306 -11.3221    248.0112     36.2943   1.1714179328e+01   2.3222609305e+01    0.1965014    0.1410299 -56.91 0.0003179355    1.093    0.085
       307 -10.9885    201.5121     37.0813   1.5208964716e+01   3.1474417342e+01    0.2844473    0.1524559  75.86  0.001230573    1.975    0.494
       308  -9.5473      1.1626     36.8042   7.7603095448e+01   7.2064736678e+01    0.2363785   0.09025674 -64.09 0.0009790944    2.657    0.624
       309 -10.7330    193.7741     34.7257   1.5338588226e+01   3.3303369906e+01    0.3912306    0.1364897 -43.90  0.001625967    2.293    0.564
       310 -10.2972    129.3061     35.9015   2.3685636245e+01   4.7623844153e+01    0.2330487    0.1775085  59.82 0.0002640363    1.268    0.211
       311 -10.4168    148.0727     39.8107   2.1928826062e+01   4.2696808540e+01      0.24682    0.1717802 -47.08 0.0004271462    1.371    0.270
       312 -10.3215    241.0629     34.3587   1.1759585565e+01   2.4581790023e+01    0.1965909    0.1192534 -44.54 0.0003880958    1.233    0.189
       313 -11.1917    111.2013     34.7342   2.6716134435e+01   5.2131834789e+01    0.2967098    0.2226043  63.18 0.0008727749    1.237    0.191
       314  -9.8321     34.0638     33.7420   5.4035421475e+01   6.8881568739e+01    0.1836003    0.1628782   7.91 0.0007247532    1.013    0.013
       315 -10.1186     83.9287    248.5002   8.1257304751e+01   1.1854726284e+01    0.1911913    0.1004597  27.86 0.0005739924    1.542    0.351
       316  -9.2833    168.6840    250.6558   6.3348687742e+01   2.1498427658e+00    0.1237749   0.07231324  -8.90 0.0007048246    1.715    0.417
       317 -12.4104     74.8260    239.8865   8.2558372773e+01   1.4473489829e+01    0.7177777    0.4484703 -46.78  0.004048053    1.856    0.461
       318 -10.3467      1.2741     23.7388   7.2251071736e+01   7.4788589274e+01     0.339597    0.1097975 -56.37  0.001150379    2.913    0.657
       319  -9.7213     45.7429    244.5483   8.9729466712e+01   1.6594962376e+01    0.1843476   0.08679431  36.28 0.0009489747    1.670    0.401
       320  -9.2969    102.4654    243.4918   7.6522023092e+01   1.0693094727e+01    0.1256359    0.1040277  20.00  9.07688e-05    1.014    0.014
       321 -10.5921     88.9967    240.9963   7.9352723443e+01   1.2682421516e+01     0.198491     0.138951 -16.33  0.001129676    1.689    0.408
       322  -9.6192      3.3152     33.4864   7.4746757756e+01   7.2627767112e+01    0.2069448    0.1596071  87.99  0.001169721    1.893    0.472
       323  -9.1592    122.5095     33.4976   2.4084350740e+01   4.9555035485e+01    0.1353161     0.124251  83.23 0.0008106077    1.007    0.007
       324  -9.6265    117.2943     33.3535   2.5006177238e+01   5.0832135027e+01    0.3099394    0.1304882  50.25   0.00126033    2.354    0.575
       325 -10.3824     19.6687     31.0848   6.1759758205e+01   7.1447121590e+01    0.2855217    0.2182554  15.54 0.0006069129    1.211    0.174
       326  -9.9256     15.7020     31.6889   6.4807645610e+01   7.1812325498e+01    0.2234334    0.1639204 -27.29 0.0007191967    1.269    0.212
       327 -11.3138    196.8778     28.0289   1.3500486546e+01   3.3440351473e+01    0.4632755    0.1908712  84.91  0.002130473    2.874    0.652
       328  -9.9707    101.8068     28.6867   2.6493151396e+01   5.5144002906e+01     0.270626    0.1579732 -57.90  0.001229159    2.142    0.533
       329  -9.7002     12.1779     29.3329   6.6245694055e+01   7.2663866397e+01    0.1736003    0.1393455   8.91 0.0005050253    1.147    0.128
       330 -12.2215    232.2468     26.8588   1.0805607869e+01   2.6916420539e+01    0.3584118    0.2025675  88.27  0.002309687    1.881    0.468
       331  -8.8092    145.0000     27.8861   1.8808459121e+01   4.4845164087e+01     0.209152   0.07234615 -28.91 0.0008108172    3.001    0.667
       332 -10.8727    112.4340     27.2145   2.3758913477e+01   5.2739602376e+01    0.6612202    0.3282216  44.21  0.002888786    2.253    0.556
       333 -11.2608    119.5928     27.4548   2.2535236328e+01   5.0974582811e+01    0.3351631       0.2655  69.37 0.0001670191    1.159    0.137
       334  -9.8322    123.0000     26.0379   2.1469144942e+01   5.0308867123e+01     0.236994    0.1493734 -38.48 0.0007695196    1.618    0.382
       335 -10.0872     80.0222     27.2494   3.1465339147e+01   6.0499446631e+01    0.3442443      0.21052 -23.18  0.001685089    1.886    0.470
       336 -10.5785     91.3509    249.5124   7.9670325567e+01   1.0856398856e+01    0.1963202     0.184754  38.33 0.0006300081    1.200    0.166
       337 -10.9181     60.9802     27.3852   3.7965616196e+01   6.4751737775e+01    0.2825927    0.2286435 -37.87  0.001622605    1.370    0.270
       338  -9.9731    163.2968     27.9968   1.6640727986e+01   4.0621182079e+01    0.1781005    0.1490417 -50.37 0.0007183878    1.135    0.119
       339 -12.0200    216.1450     25.5804   1.1549150337e+01   2.9966097574e+01    0.3018398    0.2175055  82.26 0.0006760291    1.442    0.307
       340 -11.1818    176.2810     26.2323   1.4853871495e+01   3.7949610448e+01    0.3423544    0.1816264 -58.89  0.001183513    1.794    0.443
       341  -9.6841     16.1088     26.3665   6.1890374341e+01   7.2772205005e+01    0.2022837    0.1594176 -57.83 0.0006192427    1.610    0.379
       342 -10.3813    160.0736     24.5115   1.6032203207e+01   4.1735173555e+01    0.2770964    0.1805551 -45.96 0.0009290393    1.414    0.293
       343 -10.4111    161.8049     19.6204   1.4504271433e+01   4.1862240487e+01    0.2454666    0.1790291  -5.85  0.001071886    1.911    0.477
       344  -9.2864    165.2849     17.2905   1.3538024233e+01   4.1318967796e+01    0.1953304    0.0977831  64.72 0.0001927122    1.931    0.482
       345 -10.3492    195.6935    238.4400   5.6533433763e+01   1.1006542654e+00    0.2232354    0.1673612  -9.56 0.0008960767    1.056    0.053
       346 -10.7815    140.6670     17.6431   1.6245865504e+01   4.6957764086e+01    0.4174185    0.1972827  57.50   0.00198871    2.042    0.510
       347 -11.4850    129.0121     23.9491   1.9823097271e+01   4.9086499611e+01    0.2786652    0.2551633  14.53 0.0004148357    1.329    0.247
       348  -9.8649    127.1657     19.5957   1.8658052576e+01   4.9989732555e+01     0.256271    0.1774103 -61.76 0.0007270824    1.473    0.321
       349 -10.9563     35.1156    237.8741   9.1774689881e+01   1.8952062391e+01    0.2497985    0.1311834  42.67  0.001349256    1.575    0.365
       350 -10.8558     30.9489    234.8120   9.2571819261e+01   1.9968868149e+01    0.2948768    0.2276042  72.58  0.001137164    1.312    0.238
       351  -9.3482      3.5613    237.5099   9.9027215915e+01   2.1747300461e+01    0.1172538   0.09533763  49.68  0.000186028    1.013    0.013
       352  -9.7451    191.2182    236.1045   5.7007527229e+01   1.8956500296e+00    0.1781073    0.1210148 -10.12 0.0006551513    1.211    0.174
       353 -10.3270     53.8745     23.1515   3.8705914242e+01   6.6821103029e+01    0.2746809    0.2133069  42.60  0.001277239    1.153    0.133
       354 -10.9783     59.5215     21.4910   3.5594208509e+01   6.5832508212e+01    0.4959497    0.2309839  34.65  0.002024923    2.559    0.609
       355 -11.1487    160.7630    234.4058   6.2676634125e+01   5.4959728856e+00    0.3673173      0.23319 -30.94   0.00220458    1.521    0.343
       356 -10.1201     67.2496    236.2367   8.4021419088e+01   1.6016642781e+01     0.286281     0.163018  19.23  0.001491852    1.648    0.393
       357 -11.0099    182.8440    234.1051   5.8279851073e+01   3.0806445353e+00    0.2687209    0.1965111  15.40  0.001067119    1.222    0.181
       358 -11.8031    185.2081    227.8384   5.6891049111e+01   3.7631700917e+00    0.4995281    0.2583402 -20.22  0.002630446    2.041    0.510
       359 -10.2680     21.6906     24.0227   5.6709631586e+01   7.2447160838e+01     0.299853    0.1739874  31.73  0.001528391    1.613    0.380
       360 -12.0365     34.2276     22.6363   4.8086093384e+01   7.0678004580e+01    0.2673389    0.2151097  13.76 0.0001936858    1.155    0.134
       361 -10.3013     24.3338     19.9603   5.2624015447e+01   7.2724721866e+01    0.2389085    0.1969422 -15.69 0.0006762941    1.165    0.142
       362 -11.8130     28.8955     19.7328   4.9579300314e+01   7.2027036665e+01     0.331383    0.2149218  21.23 0.0003656433    1.552    0.356
       363 -10.8087     32.4707     15.2726   4.4775882640e+01   7.2049624922e+01    0.3318773    0.2007805  32.47  0.001404221    1.525    0.344
       364 -11.6115    249.0877     20.8402   8.7376101170e+00   2.4719605483e+01    0.2226119    0.1416761 -54.28 0.0003404017    1.144    0.126
       365 -10.5231    224.4823     21.6694   1.0208379360e+01   2.8853055434e+01    0.1840893    0.1539604 -55.05 0.0004070021    1.142    0.124
       366 -10.4062    155.9345     21.7851   1.5717203233e+01   4.2971817628e+01    0.1870336    0.1760535 -28.41  0.000633619    1.258    0.205
       367  -9.5174    155.1636     17.8420   1.4682337670e+01   4.3556577358e+01    0.1572407    0.1429746  54.60 0.0004141355    1.288    0.223
       368 -10.7956     69.6513     21.4737   3.2024792369e+01   6.3582248266e+01    0.3064333    0.2131656  72.94  0.001091336    1.634    0.388
       369  -9.8532    242.9660     21.7563   9.2145367831e+00   2.5631725985e+01    0.1206143   0.08071108  87.68 0.0006527195    1.574    0.365
       370 -10.4652    193.2684     20.9184   1.2115375698e+01   3.4946303003e+01    0.1900723    0.1530547  88.60 0.0002612729    1.213    0.175
       371  -9.9778     54.8286    231.7382   8.6626574254e+01   1.8251539579e+01    0.2226238     0.148636  84.87  0.001195724    1.810    0.448
       372  -9.4602    102.5709     21.5128   2.3569129115e+01   5.5768376443e+01    0.1330619    0.1207098  67.79 6.756589e-05    1.021    0.021
       373  -9.6997     46.3948     20.5653   4.0638436189e+01   6.8690363250e+01    0.2362602    0.1648666  76.24  0.001136343    2.375    0.579
       374 -10.7407     39.6282    229.3095   9.0136780434e+01   2.0294239956e+01    0.2797039    0.1587524  50.86  0.001174781    1.633    0.388
       375 -10.3639    169.5055     17.5205   1.3215327339e+01   4.0357675134e+01     0.222691    0.1518236 -29.34 0.0008552686    1.561    0.359
       376 -10.3452    248.6735    228.4995   4.6333368788e+01  -2.5959852036e+00    0.1907724   0.07383636 -35.31  0.001106448    2.064    0.516
       377  -9.8163    108.7947     16.7175   2.0575559702e+01   5.4743235151e+01    0.1912691    0.1617173  55.96 0.0005999591    1.150    0.130
       378  -9.9689     58.4912    229.1662   8.5518223979e+01   1.8397540080e+01    0.3494977    0.1041549  39.27  0.001379676    2.686    0.628
       379 -10.1836     59.5051    240.9828   8.6258157965e+01   1.5900984446e+01    0.2072453    0.1446504  26.86 0.0008785388    1.217    0.178
       380  -9.8823     76.5443     15.5854   2.7188142140e+01   6.2633646287e+01    0.2208261    0.1653045  52.54 5.550584e-05    1.176    0.149
       381  -9.9741      4.0125    225.8427   9.8500167989e+01   2.4149385778e+01     0.209708    0.1646784  -9.10  0.001341026    1.616    0.381
       382 -10.2217    216.8322     16.1747   9.5060687808e+00   3.0831403034e+01    0.3532405   0.08487818  62.64  0.001494807    4.337    0.769
       383  -9.7158    193.4690     16.4371   1.1048445225e+01   3.5371213702e+01     0.194726   0.09499729 -84.73 0.0009366288    2.137    0.532
       384  -9.1634    188.3198     15.3189   1.1150529880e+01   3.6545569238e+01    0.1074478   0.08844412  41.42 0.0007042511    1.664    0.399
       385 -10.4285      5.1788    244.3236   9.8901827461e+01   2.0251504969e+01    0.2254624    0.1499456  47.71 0.0007774245    1.197    0.165
       386  -9.6150     16.4662    222.1197   9.5350311384e+01   2.3950384362e+01    0.1704527    0.1164072 -84.77 0.0006593742    1.520    0.342
       387  -9.2440     99.0000     14.9858   2.1722795691e+01   5.7299959927e+01    0.1959523   0.07652751 -24.52 0.0007933952    2.880    0.653
       388 -10.0334    123.6498    221.7247   6.8956239473e+01   1.2175865911e+01    0.1976763    0.1056349   3.29 0.0004388289    2.601    0.615
       389 -11.7640     48.6336    218.5083   8.7070631996e+01   2.1714941960e+01    0.5956601    0.2593864  18.54  0.002549445    2.382    0.580
       390  -9.5904    136.1310    216.8770   6.5412326337e+01   1.1498993351e+01    0.1948902    0.1726316  33.95  0.001230187    1.283    0.221
       391 -10.2993     70.0029    217.7540   8.1562324395e+01   1.9538348602e+01    0.1813424    0.1014753  26.34 0.0006488731    1.586    0.369
       392 -10.3190    155.6797     13.9540   1.3531586691e+01   4.3823603526e+01    0.1718475    0.1480618 -61.54 0.0005647641    1.088    0.081
       393  -9.6838    211.8525    219.0888   5.0722189378e+01   2.1708190791e+00    0.1643928    0.1369596 -13.72 0.0006958892    1.255    0.203
       394 -10.1854     14.8896    215.4803   9.5397467701e+01   2.5550770466e+01    0.2332475    0.1012984  28.51 0.0007001251    1.962    0.490
       395  -9.3850    152.2917     11.6797   1.3214658146e+01   4.4819335275e+01    0.1266399    0.1126116  88.78 0.0004464583    1.098    0.090
       396 -11.7576     11.5932    209.9133   9.5941463677e+01   2.7079756837e+01    0.4168878    0.2676138  66.73   0.00125581    1.466    0.318
       397 -11.3954      7.4153    216.2872   9.7288932358e+01   2.5971888921e+01    0.2815522    0.2585469 -75.88  0.001945325    1.226    0.185
       398  -9.8475     89.7607     25.4409   2.8042751149e+01   5.8420754986e+01    0.2500009    0.1270887  66.26  0.001072746    1.938    0.484
       399 -11.8575      5.4649    210.9838   9.7538396026e+01   2.7314406177e+01    0.5032219    0.2467141 -77.67  0.002305926    2.043    0.511
       400 -11.3201      3.6022    205.1974   9.7753924146e+01   2.8780327451e+01    0.3449617    0.2633052  26.10  0.002133939    1.291    0.226
       401  -8.9673    107.6553     10.2874   1.8362539120e+01   5.5621377244e+01    0.1354324   0.08980702 -70.86 0.0004247448    1.650    0.394
       402 -11.0549     29.3612    215.3094   9.1736657983e+01   2.4320373037e+01    0.2649021     0.228324   5.72  0.001413221    1.288    0.224
       403  -9.8464     23.8366    215.9059   9.3174768424e+01   2.4687166221e+01    0.1800418    0.1259458  55.76  0.000419155    1.298    0.230
       404  -9.7312    110.3892    211.8036   7.0726863247e+01   1.5809487058e+01    0.1868503     0.117169 -40.43 0.0009458517    1.692    0.409
       405  -9.9587     20.3913    212.1652   9.3824566431e+01   2.5833276557e+01    0.1824204    0.1082899  78.59 0.0009498961    1.751    0.429
       406 -10.0512    217.0889    209.3516   4.8269633992e+01   3.0121853786e+00    0.2082509    0.1238591 -26.41 0.0008975708    1.364    0.267
       407  -8.9974    132.3008    209.3216   6.5153325705e+01   1.3421618615e+01    0.1381955   0.09359253 -12.72  0.000702609    1.628    0.386
       408 -10.3555     72.7221    208.8030   7.9890276362e+01   2.1177649108e+01    0.2761438    0.1552541   8.37  0.001214591    2.187    0.543
       409 -12.0223     20.1265    202.0704   9.3274158546e+01   2.8194660129e+01    0.7870086    0.2651303 -57.45  0.003129473    3.079    0.675
       410  -9.9225    148.0470    205.8157   6.1040942872e+01   1.1993777830e+01    0.2602569    0.1703597   4.32   0.00135844    1.619    0.382
       411  -8.9482    124.0162    206.0368   6.6599707811e+01   1.5169449259e+01      0.15844    0.1358334  11.66  0.000936993    1.038    0.036
       412 -11.0446     27.9514    205.5146   9.1430601581e+01   2.6692120271e+01      0.23992    0.1795391  81.15 0.0005852243    1.349    0.259
       413 -10.1487     67.5681    203.1304   8.0610356504e+01   2.3068288757e+01    0.2449907    0.1641922  36.27 0.0005830333    1.350    0.259
       414 -10.4892    175.2317    202.0944   5.4706294012e+01   9.0980240744e+00    0.2132336    0.1669647  17.68  0.000400151    1.223    0.182
       415  -9.3286    113.1621    201.8744   6.8612218948e+01   1.7484494941e+01    0.1917779    0.1508189 -13.67 0.0004789757    1.321    0.243
       416  -8.8937    238.3158    200.7340   4.3492799253e+01   1.9971259513e+00   0.09214833   0.08157911 -29.72 0.0002502709    1.549    0.354
       417  -9.1821    120.3171    200.3287   6.6617016626e+01   1.6827478873e+01    0.1443656   0.09888071 -14.14 0.0007046138    1.680    0.405
       418 -10.3401     41.1270    198.0919   8.7282842719e+01   2.7171472162e+01    0.3487513    0.1980468  77.32  0.001598505    2.119    0.528
       419  -9.9622    134.8810    196.3595   6.2495928579e+01   1.5607336317e+01    0.2063927    0.1802771 -42.25 0.0004998709    1.239    0.193
       420  -9.1886     56.4719    197.4832   8.2999861904e+01   2.5666957323e+01    0.1356463    0.1277383  31.70 0.0001824325    1.035    0.034
       421  -9.3501    215.4586    194.4644   4.6046790308e+01   5.3931131066e+00    0.1204055   0.09204964 -16.66 0.0001076699    1.001    0.001
       422 -12.1826     15.7935    191.8374   9.3794215511e+01   3.1013556608e+01    0.5214257    0.4041073 -32.50  0.002555345    1.555    0.357
       423 -11.9307     15.7794    182.2264   9.3156173458e+01   3.3394643209e+01    0.5058094    0.2777815  61.78   0.00194256    1.830    0.454
       424  -9.6024     60.1953    192.3756   8.1399190037e+01   2.6455443548e+01    0.2103315    0.1117236  36.84 0.0007597319    1.704    0.413
       425  -9.8191    145.1896    190.1077   5.9054473688e+01   1.5380227720e+01    0.2135052    0.1662403 -11.58 0.0005772447    1.252    0.202
       426  -9.1699     90.6633    190.3319   7.2726556646e+01   2.3073872378e+01    0.1491543    0.1043945  58.59 0.0007052096    1.737    0.424
       427 -10.3200    244.9144    188.2804   4.0452415200e+01   3.0299758425e+00    0.1844197    0.1344684 -39.41 0.0006949311    1.485    0.326
