#   1 NUMBER                 Running object number                                     
#   2 MAG_AUTO               Kron-like elliptical aperture magnitude                    [mag]
#   3 X_IMAGE                Object position along x                                    [pixel]
#   4 Y_IMAGE                Object position along y                                    [pixel]
#   5 X_WORLD                Barycenter position along world x axis                     [deg]
#   6 Y_WORLD                Barycenter position along world y axis                     [deg]
#   7 A_WORLD                Profile RMS along major axis (world units)                 [deg]
#   8 B_WORLD                Profile RMS along minor axis (world units)                 [deg]
#   9 THETA_WORLD            Position angle (CCW/world-x)                               [deg]
#  10 FWHM_WORLD             FWHM assuming a gaussian core                              [deg]
#  11 ELONGATION             A_IMAGE/B_IMAGE                                           
#  12 ELLIPTICITY            1 - B_IMAGE/A_IMAGE                                       
         1 -13.4599    155.4531     54.2547   8.3854858892e+01   3.9199515149e+01     1.229094     1.009619  38.18  0.002629224    1.231    0.187
         2 -13.9052    167.4353     39.2739   7.6668166404e+01   3.8313156781e+01     1.254003     1.001105   4.57  0.004074807    1.381    0.276
         3 -13.5706    184.4651      9.4550   6.4794753060e+01   3.7298629044e+01     1.158445    0.6688232  56.40  0.004993896    1.721    0.419
         4 -13.0007    183.2799      3.2595   6.2996027468e+01   3.8142535082e+01     1.106004    0.4321645  65.29  0.004574165    2.359    0.576
         5 -12.1249    167.4760    231.9672   1.2023143581e+02   7.5972865434e+00    0.3303213    0.2371498  -1.19   0.00104471    1.458    0.314
         6  -9.4840    168.0128    250.5157   1.2238472726e+02   5.2932029777e+00    0.1627612   0.07947977  31.34 0.0003813635    1.505    0.336
         7 -10.5679    150.5363    249.6557   1.2541365780e+02   7.5739151550e+00      0.19584    0.1523275  30.88  0.000567569    1.121    0.108
         8 -19.9142     64.9612    170.2952   1.3475857913e+02   3.1816158724e+01     17.09453     4.561213 -68.88   0.06079622    4.228    0.763
         9 -10.7534    175.0781    193.3507   1.1319370506e+02   1.1776407813e+01    0.2087499    0.1798706 -34.73 0.0006666604    1.413    0.292
        10  -9.9684    179.9967    192.4994   1.1208854864e+02   1.1155378488e+01    0.1976858     0.181981 -48.59 0.0007762599    1.552    0.355
        11 -12.0177    167.1597    189.2307   1.1410738443e+02   1.3599498896e+01    0.4530153    0.2703929  26.53  0.001960864    1.504    0.335
        12 -11.1166    154.7343    190.0189   1.1679161677e+02   1.5386334944e+01    0.2137816    0.2052726  -4.91   0.00147052    1.227    0.185
        13 -10.8935    153.6465    185.1950   1.1625105362e+02   1.6330832229e+01    0.2033096     0.192135 -56.93  0.001164359    1.369    0.269
        14 -11.3868    176.0519    187.3804   1.1201277002e+02   1.2505372097e+01    0.3456638    0.2526088 -59.79  0.001923991    2.271    0.560
        15 -11.2142     16.8042    217.1814   1.4848710117e+02   2.7542652184e+01    0.1431635    0.1232993 -77.34 0.0006012839    1.407    0.289
        16 -11.5993     27.8612    183.9758   1.4463853101e+02   3.2818393232e+01    0.1914714    0.1533687  33.37 0.0002960769    1.293    0.226
        17 -11.2525    205.6647    179.6904   1.0499277561e+02   9.0243830638e+00    0.3376285    0.2934192  19.14  0.002276369    1.254    0.203
        18  -9.8288    209.9968    176.0122   1.0352854036e+02   8.8550764539e+00     0.336096    0.2125879  -9.46  0.001466142    1.584    0.369
        19  -9.8470    153.9667    213.1488   1.2033375854e+02   1.1986863176e+01    0.1965935    0.1210515  51.80  0.001086769    2.067    0.516
        20 -10.8440    146.0807    189.2402   1.1849400665e+02   1.6835366121e+01     0.270412    0.1393601  18.18   0.00116014    2.660    0.624
        21 -10.3895    194.3058    165.6561   1.0449107511e+02   1.2815124931e+01    0.2758885    0.2236031  24.72 0.0008697006    1.151    0.131
        22 -10.3701    195.6946    174.3281   1.0586825002e+02   1.1326722344e+01    0.2157238    0.1924076 -11.42 0.0007587494    1.241    0.194
        23 -11.6623    195.7616    170.5444   1.0514696509e+02   1.1861593240e+01    0.3878382    0.3415374  15.99  0.001875546    1.182    0.154
        24 -11.9381    143.1939    167.8558   1.1561752498e+02   2.0972572534e+01    0.4478125    0.3093696  71.24   0.00204536    2.590    0.614
        25 -10.0671    136.4575    211.5424   1.2363464273e+02   1.4685938653e+01     0.206549    0.1198717 -49.46  0.001075924    2.102    0.524
        26 -11.0260     23.6081    230.8819   1.4772210182e+02   2.4622998595e+01    0.2507462    0.1147084  43.80  0.001243857    1.564    0.361
        27 -13.6131    137.7767    171.3090   1.1743539654e+02   2.1231254175e+01    0.7247074    0.5939537  52.68   0.00428608    1.356    0.262
        28  -9.1490    203.2810    172.3292   1.0406929130e+02   1.0406516045e+01    0.1317795   0.08529697   2.67 0.0003690839    1.603    0.376
        29  -9.3904    222.5581    162.0684   9.8638133510e+01   8.7631149170e+00    0.1702985    0.1016728 -48.54  0.000806576    2.788    0.641
        30 -10.9714    121.3354    157.0414   1.1885757502e+02   2.6600579323e+01    0.1875667    0.1795858 -42.50 0.0008525252    1.129    0.115
        31  -9.3835     14.7153    157.0742   1.4616096070e+02   3.9550048005e+01    0.1544166    0.1312161  80.25 0.0004350993    1.055    0.052
        32 -11.2320    162.9706    154.9478   1.0880625788e+02   1.9887470184e+01    0.2742359     0.255351   1.14 0.0009180047    1.104    0.095
        33 -13.0368    133.5277    146.3061   1.1387935097e+02   2.6669724607e+01     1.118298    0.3918583 -54.45  0.003650295    3.946    0.747
        34 -11.0726    129.0095    143.7676   1.1448878541e+02   2.7962256160e+01    0.3223065    0.2403475  54.70  0.001157171    1.520    0.342
        35 -10.9850    163.4589    203.5224   1.1708076328e+02   1.2021836045e+01    0.2185237    0.1941744 -16.51 0.0009037213    1.260    0.206
        36 -10.0628    174.7177    149.1000   1.0510416660e+02   1.8798440790e+01    0.2330928    0.1841959  43.12 0.0006492026    1.355    0.262
        37 -12.3162    143.7866    144.2495   1.1100113206e+02   2.5249509939e+01    0.6151674    0.3687101 -59.28  0.002690286    2.336    0.572
        38 -12.2347     13.5013    144.1544   1.4568042225e+02   4.2511488602e+01    0.3591788    0.2601056  79.41  0.002058676    1.192    0.161
        39 -12.5986      6.6281    138.9780   1.4719537285e+02   4.4149227640e+01    0.7719607    0.5350063 -80.08   0.00249061    1.266    0.210
        40 -12.3021      3.7713    112.2947   1.4629614728e+02   5.0552857285e+01    0.5123116    0.3655611 -15.54  0.003155315    1.826    0.452
        41 -12.7327      3.5871    120.5412   1.4691830298e+02   4.8603974974e+01    0.7390912    0.3504638  46.70  0.003896036    2.046    0.511
        42 -11.0672    161.3116    197.5550   1.1661046104e+02   1.3223918685e+01    0.2542663    0.2309395  65.48  0.001710001    1.543    0.352
        43 -11.3382    135.4272    121.2117   1.0798320205e+02   3.1343587069e+01    0.4615605    0.1443531 -46.66  0.001470791    3.341    0.701
        44 -10.5310    160.4099    127.8234   1.0354534112e+02   2.5210186837e+01    0.3283209    0.2478143 -55.81  0.001632984    1.668    0.400
        45 -10.7180    114.0530    118.3186   1.1298923066e+02   3.5955769347e+01    0.2573943     0.215355 -56.66 0.0002018613    1.266    0.210
        46  -9.7479    198.9876    222.4973   1.1320821505e+02   4.5648441112e+00    0.1654148   0.08917309  31.17 0.0003336355    1.482    0.325
        47 -10.0004    167.9755    112.9787   9.8271678947e+01   2.6376211059e+01    0.2335398    0.1907883 -77.33  0.001143647    1.820    0.451
        48 -10.0180    205.4583    110.1560   9.0212878191e+01   1.9231446447e+01    0.3039786    0.1914906  34.91 0.0009797462    1.643    0.391
        49 -10.8909    114.1164    110.1622   1.1103611504e+02   3.7715841621e+01    0.2262333     0.220979  -0.80 0.0004351338    1.014    0.014
        50 -10.3720    156.8128    202.1124   1.1820375156e+02   1.3203993658e+01    0.1821215    0.1537355  41.03  0.001065289    1.283    0.221
        51 -12.2602    139.1490    200.5417   1.2161084306e+02   1.6031412150e+01    0.4862413    0.3135364  38.46  0.002860745    1.336    0.252
        52 -11.5073    135.5165    196.5031   1.2181172389e+02   1.7218819846e+01    0.3262448    0.2261045 -43.68  0.001516901    1.669    0.401
        53 -11.8303    120.0908    128.8719   1.1369900182e+02   3.2608196069e+01    0.3440087    0.2826795   0.66 0.0007129954    1.380    0.275
        54 -12.5921      3.1088    127.9298   1.4751669391e+02   4.6901540245e+01    0.6826072    0.3489928  89.23  0.003702525    1.704    0.413
        55 -10.9239    133.5483    249.3405   1.2847024313e+02   9.7250460707e+00    0.2067625    0.1887327 -19.98 0.0008963633    1.394    0.283
        56  -9.9373     13.3020    244.7682   1.5001143653e+02   2.3288067496e+01    0.1796284    0.1124669 -68.05  0.001402754    2.005    0.501
        57 -12.0587    171.2702     31.7067   7.3573873016e+01   3.8284574837e+01    0.4329861    0.3538485  -0.92  0.000934165    1.316    0.240
        58  -9.7591     20.6991    219.1660   1.4781660570e+02   2.6862920486e+01   0.09946687   0.05126622  46.94 0.0006450529    1.446    0.308
        59  -9.6011     13.6612     59.8906   1.3626257919e+02   6.2882842529e+01    0.1819715     0.141232 -68.65 0.0004074083    1.110    0.099
        60  -9.8142    138.2207     31.5083   7.9360370263e+01   4.6749397199e+01    0.3276266    0.2119787  77.16  0.001023237    1.904    0.475
        61  -9.3899     28.6535    239.1532   1.4712278720e+02   2.2828850854e+01   0.09957721   0.04572293  44.39 0.0006445626    1.533    0.348
        62 -11.1096    154.3734    196.2239   1.1782334127e+02   1.4465240769e+01    0.2614146    0.2337919 -87.83  0.001718177    1.650    0.394
