#   1 NUMBER                 Running object number                                     
#   2 MAG_AUTO               Kron-like elliptical aperture magnitude                    [mag]
#   3 X_IMAGE                Object position along x                                    [pixel]
#   4 Y_IMAGE                Object position along y                                    [pixel]
#   5 X_WORLD                Barycenter position along world x axis                     [deg]
#   6 Y_WORLD                Barycenter position along world y axis                     [deg]
#   7 A_WORLD                Profile RMS along major axis (world units)                 [deg]
#   8 B_WORLD                Profile RMS along minor axis (world units)                 [deg]
#   9 THETA_WORLD            Position angle (CCW/world-x)                               [deg]
#  10 FWHM_WORLD             FWHM assuming a gaussian core                              [deg]
#  11 ELONGATION             A_IMAGE/B_IMAGE                                           
#  12 ELLIPTICITY            1 - B_IMAGE/A_IMAGE                                       
         1 -13.0550    240.0233    128.6374   4.8051870892e+01   1.0714901545e+01     1.416622    0.9343624 -25.01   0.00883944    1.282    0.220
         2 -10.3294     39.4954      7.8467   6.0200122537e+01   7.3747827016e+01    0.4689848    0.2847264 -38.93   0.00231956    1.646    0.393
         3 -12.6115     44.4685     22.5393   6.6247914045e+01   7.0255922263e+01     1.961707     1.100645 -61.14  0.008106565    2.672    0.626
         4 -10.7587     71.3030      5.7409   4.3006011400e+01   6.7231047836e+01    0.5588023    0.4339522  73.68  0.002962876    1.409    0.290
         5 -11.6414     83.5995      3.9240   3.8005353371e+01   6.4358311181e+01     1.012699    0.5501584  64.91  0.003567456    1.740    0.425
         6 -10.5943     77.1438     21.6265   4.9907185908e+01   6.3692685617e+01    0.6449206    0.3117763 -26.81  0.002540245    2.365    0.577
         7 -11.4810     78.2023     13.9323   4.5348478765e+01   6.4532726487e+01     1.581555    0.6216416 -17.32  0.004787799    4.368    0.771
         8 -11.5911    144.4576      3.9081   2.6878907149e+01   4.7911599073e+01     1.082166    0.5476326  81.54  0.004612846    1.948    0.487
         9 -12.0655    154.8257     19.8616   3.1320291940e+01   4.3520364705e+01    0.6480819     0.509326 -61.92  0.003361235    1.251    0.201
        10 -13.3967    168.8260     12.8405   2.7300931358e+01   4.0582134137e+01     1.803614     1.560026  38.71   0.01033751    1.329    0.247
        11 -11.2908    247.9950     15.6769   2.2159931935e+01   2.2327976704e+01    0.5465514     0.182942 -39.86   0.00263297    2.125    0.529
        12 -10.5184    250.0000      5.9745   1.9867424843e+01   2.2844709123e+01    0.6162533   0.08612511 -37.02  0.002442729    3.217    0.689
        13 -11.7917    156.1606     11.6666   2.8302567377e+01   4.4028805176e+01    0.7341104    0.5415707 -58.19  0.003670571    1.317    0.241
        14  -9.8293    128.2195     18.0716   3.4775472413e+01   5.0898456151e+01    0.4133153    0.3624589 -65.19  0.001711402    1.146    0.127
        15  -9.5356    129.6821     12.6764   3.2342558198e+01   5.1092247688e+01    0.3955501     0.279698  50.48  0.001864936    1.418    0.295
        16  -9.5828    117.3783     17.7860   3.6735827348e+01   5.3871391947e+01    0.3529564     0.292551 -27.19  0.001382309    1.274    0.215
        17  -9.2492    115.3228     14.6696   3.5797927321e+01   5.4786363563e+01    0.2955177    0.2072722 -50.31  0.001382917    1.511    0.338
        18  -9.7759     94.1081     17.1711   4.2058846771e+01   6.0115662348e+01    0.5306773     0.299104  87.55  0.001966436    2.815    0.645
        19 -10.2651    225.5113     14.4993   2.3187374543e+01   2.6978294439e+01    0.2258811    0.2099252 -13.03   0.00105817    1.243    0.196
        20  -9.7627     20.5808     13.9890   7.8661441290e+01   7.5341841299e+01    0.5025594    0.2297255 -36.99  0.002191621    2.312    0.567
        21  -9.7817     69.8717     14.9751   4.9069508127e+01   6.6369030177e+01     0.423672    0.1973231 -35.48  0.001744699    2.180    0.541
        22  -9.2619    104.8714     12.7542   3.7174386330e+01   5.7816333971e+01    0.3334022     0.205688 -32.65  0.001531197    1.666    0.400
        23  -9.7737    231.3047      8.3744   2.1343962242e+01   2.6344152384e+01    0.4027725    0.1454298 -54.42  0.001783539    2.568    0.611
        24 -10.9289    131.0826      4.0613   2.8640165291e+01   5.1549161434e+01    0.8752805    0.2753273  59.87  0.003097881    2.682    0.627
        25 -11.3505    120.9505      4.2915   3.0242708825e+01   5.4308796586e+01     0.936804    0.5045813  80.01  0.004016242    1.860    0.462
        26 -10.0455    112.5034      4.8144   3.1912075158e+01   5.6572371643e+01    0.3623811    0.3372573  47.18  0.001788848    1.096    0.087
        27 -11.1009    106.7518      4.5988   3.2897202416e+01   5.8157346690e+01    0.7202341    0.4653312 -86.84  0.003314687    1.739    0.425
        28 -10.0754    223.4398      4.9894   2.0935345785e+01   2.8315743484e+01    0.4041278    0.1202164 -39.74  0.001744434    2.404    0.584
        29 -11.3702    158.9059      3.6233   2.5230212839e+01   4.4058491573e+01    0.9421756    0.3871313  64.95  0.003848905    2.226    0.551
        30 -10.1560    208.3636      4.3712   2.1638465548e+01   3.1713280073e+01    0.2297334    0.1843611  75.38  0.001022942    1.327    0.246
        31 -10.3064     95.3951      2.3564   3.4171279938e+01   6.1423006131e+01    0.4355626    0.3003257  75.83    0.0021497    1.429    0.300
        32 -10.4423     61.3203      2.2210   4.4596185996e+01   7.0006777076e+01    0.5058501    0.2365659  45.16  0.002167521    2.010    0.502
        33  -8.6712     17.5553      1.7878   7.3571316192e+01   7.8125896223e+01    0.1637201    0.1196074 -57.83 0.0005006357    1.576    0.365
        34  -8.8470    217.8544      1.8633   2.0444571723e+01   2.9811006382e+01    0.1836366    0.1208057 -58.06 0.0009446943    1.327    0.247
        35  -8.9720    102.9993     26.0122   4.3786908901e+01   5.6625860490e+01    0.2513111    0.1753623  28.45  0.001136223    1.718    0.418
        36  -9.0283    197.8124     50.5830   3.5229666279e+01   2.9070964861e+01    0.1871472    0.1304836  87.58 0.0009520497    1.686    0.407
        37 -10.8004     80.9267     36.8958   5.5966924417e+01   6.0276865235e+01    0.9723323    0.3091499 -41.27  0.003143648    3.170    0.685
        38  -9.4807     87.4765     48.5205   5.8521260426e+01   5.6620447432e+01    0.3561619    0.2643581 -44.28  0.001616334    1.372    0.271
        39 -10.3336     83.8197     48.1510   5.9725396618e+01   5.7505577611e+01    0.5219358     0.393626 -43.25  0.002539841    1.345    0.257
        40  -8.5955     96.7950     46.8148   5.4611710202e+01   5.4786438487e+01    0.2670593    0.1695999  13.68  0.000958506    2.893    0.654
        41 -10.8632      3.0047     40.8912   1.0135781989e+02   7.0201348144e+01    0.5207211    0.4604646  85.31   0.00237083    1.154    0.134
        42  -9.9418      5.6262     35.4814   9.8508232783e+01   7.1443235118e+01    0.3480699    0.2335594  19.95   0.00195456    1.635    0.388
        43 -10.1347    181.0675     39.8698   3.4288469009e+01   3.4402480293e+01    0.3375333    0.1673959 -47.30  0.001431955    1.986    0.496
        44  -8.7161    248.4877    222.4857   6.3070830022e+01  -6.6222340924e-01    0.1026826   0.06988747   5.20 0.0008103828    1.007    0.007
        45 -11.2327     40.2215     29.4485   7.2451190808e+01   6.9534891159e+01    0.5757761    0.3576781 -46.83   0.00241757    1.542    0.352
        46  -9.7707     12.0679     34.3964   9.3634739095e+01   7.1374889156e+01    0.4850389     0.178016 -69.40  0.001973051    2.476    0.596
        47  -9.0113     66.0027     35.5126   6.1574095000e+01   6.3739481208e+01    0.2305928    0.1419673  45.99  0.001040162    1.622    0.383
        48  -9.3125    184.0087    217.3370   7.2888240929e+01   7.5346112154e+00     0.178647   0.07429292  47.57  0.000705189    4.390    0.772
        49 -10.5496     86.6956     32.0136   5.1597475014e+01   5.9779266535e+01    0.2951325    0.2628638  82.42  0.001484684    1.237    0.191
        50 -10.5247     89.9771     28.6847   4.8918334828e+01   5.9519961861e+01    0.3540835    0.3284982 -14.23  0.001941759    1.129    0.114
        51  -9.9129     66.8484     29.1283   5.8065119991e+01   6.4752905967e+01    0.3388319    0.1994429 -29.50  0.001476128    1.906    0.475
        52  -9.5907    226.7264     28.5763   2.6606050264e+01   2.5293304475e+01    0.2171976    0.1157849  67.17  0.001129316    2.059    0.514
        53 -11.9320     10.9313    141.7422   1.0688723220e+02   4.4257035642e+01     0.673369      0.29411  83.21  0.003108634    2.203    0.546
        54  -9.2565     40.2186    141.9205   9.7830494541e+01   4.1622206770e+01    0.2444407    0.2275916 -23.60  0.001523489    1.310    0.236
        55 -11.6301    203.4480    222.7040   7.0219763184e+01   4.4580643714e+00    0.4033705    0.1410055  29.73  0.002046268    2.397    0.583
        56  -9.7797    188.5066    117.0017   5.3678170983e+01   2.1324626797e+01     0.212993    0.1279294 -31.72  0.001034962    1.607    0.378
        57  -8.5074    148.0000    111.0262   6.0610413364e+01   3.0598605985e+01    0.2387936   0.08367854 -41.54 0.0007979075    2.911    0.656
        58 -11.5249    178.2664     23.5610   2.9676627407e+01   3.7035967920e+01    0.4910109    0.4146478  69.22  0.002806429    1.210    0.174
        59  -9.2449     95.1989    111.4039   7.5156975321e+01   4.1120782812e+01    0.2272205    0.1323023  48.09 0.0009568293    1.714    0.417
        60  -9.8347     21.8986    108.7952   1.0079529692e+02   5.1619499650e+01     0.380064    0.1541143  66.44  0.001420617    2.970    0.663
        61  -8.3460     98.3181     26.3312   4.5243011166e+01   5.7784316150e+01    0.1574084    0.1121797  26.16 0.0004044204    1.689    0.408
        62  -9.7607     17.3630    104.1891   1.0208048152e+02   5.3145828983e+01    0.3721777    0.2678411  24.98  0.002076192    1.465    0.317
        63 -10.4966     10.0339    120.9899   1.0604393393e+02   4.9380669846e+01    0.2487271    0.1666024 -74.55  0.001391107    1.410    0.291
        64  -9.6645    187.3566     19.3823   2.7481211826e+01   3.5229488719e+01    0.2717476    0.2214978 -64.77  0.001253051    1.143    0.125
        65  -9.6296     46.3551    100.9280   9.0286482928e+01   5.1237351077e+01    0.3368224    0.1788392 -84.51  0.001374935    2.245    0.555
        66  -8.9601    135.0029     19.5077   3.4167280252e+01   4.8891996909e+01    0.2292361    0.1379298  66.81  0.001022205    1.569    0.363
        67  -9.3866     30.6810    101.9578   9.6608939315e+01   5.2632078530e+01    0.2485795    0.1921158 -29.11   0.00133755    1.550    0.355
        68 -10.1880      2.7050     88.2324   1.0670865274e+02   5.8105375703e+01     0.565001    0.2466927 -87.65  0.002518364    2.079    0.519
        69  -8.9953    111.2247     16.7605   3.7593245069e+01   5.5650420192e+01    0.3811676    0.2491372  48.83  0.001280003    1.497    0.332
        70 -11.7467      4.8165     76.2155   1.0478917125e+02   6.1112354042e+01    0.9465829    0.5714816  69.50  0.004372714    1.652    0.395
        71 -11.3749     17.4711     74.5086   9.8528469993e+01   6.0852782761e+01    0.6620815    0.4320484 -29.61   0.00337604    1.771    0.435
        72  -8.4189      6.6691     19.6484   9.3361588036e+01   7.5201250928e+01    0.1444766   0.07538702 -38.81 0.0007047197    1.775    0.437
        73 -11.6039     11.7260     71.3715   1.0090672119e+02   6.2024207492e+01    0.6351986    0.4103795 -34.66  0.003215485    1.700    0.412
        74  -9.9912    228.5064     15.5217   2.3252605544e+01   2.6247376124e+01    0.3217983    0.1712502 -43.37  0.001419324    1.529    0.346
        75  -9.3043    145.2065     80.8180   5.3103650224e+01   3.6860416456e+01    0.2148274    0.1819488  19.23  0.001013939    1.338    0.253
        76  -8.9585     14.4048     17.2039   8.5623934079e+01   7.5236868659e+01    0.1828779    0.1693313  10.69  0.001034169    1.159    0.137
        77  -9.0587     18.3212    127.6750   1.0367882430e+02   4.7127504465e+01    0.1452155   0.07974124  57.35 0.0004056069    1.681    0.405
        78  -9.0347    170.0133     76.4414   4.6735788611e+01   3.1790260562e+01     0.296403    0.1916741 -49.30  0.001365132    1.632    0.387
        79  -9.8192     64.4755     16.0718   5.1992419280e+01   6.7428642228e+01     0.230193    0.2023896  81.07 0.0007665233    1.357    0.263
        80  -8.8229    139.3088     76.3389   5.3137526733e+01   3.9071238755e+01    0.1567601    0.1210081  11.89 0.0007043607    1.685    0.406
        81  -8.0274    220.3074     11.3388   2.2718126601e+01   2.8400616552e+01    0.1194083   0.09363987  27.08 0.0005995462    1.681    0.405
        82  -9.5522     97.1508     37.1655   5.0452569020e+01   5.6389305925e+01    0.2118504     0.182156 -84.32  0.001071889    1.320    0.242
        83  -9.0641     53.5203    143.9698   9.3935941573e+01   3.9623977482e+01    0.2034418    0.1312794 -74.82  0.001033293    1.594    0.373
        84  -9.8996     75.4114     68.8800   7.0627306335e+01   5.4767917853e+01    0.4859819    0.3767549   3.22  0.002277467    1.707    0.414
        85  -9.5078     83.6012     69.1187   6.7543752674e+01   5.3121184330e+01    0.3032709    0.2323502  32.76  0.001286099    1.374    0.272
        86 -10.3350     25.2852     65.4819   9.3023224500e+01   6.2594540529e+01    0.5389095    0.2678529 -63.92  0.001826977    1.784    0.439
        87  -9.6191     44.8248     63.2494   8.2525250080e+01   6.1043558524e+01    0.5412587    0.2098366 -45.94  0.001955217    2.698    0.629
        88  -8.4484    234.3415     64.3191   3.4585905695e+01   1.9699401393e+01    0.1247654   0.09151213  14.06 0.0007049591    1.716    0.417
        89  -8.8816     76.4841     59.5144   6.6981817363e+01   5.6668159485e+01     0.148421    0.1477084  11.57  0.000107735    1.011    0.010
        90 -12.2666     42.5250     81.3630   8.8110428730e+01   5.6739128523e+01     1.113666    0.8636728 -23.45  0.005648093    1.535    0.348
        91  -8.9930    198.4929     55.5157   3.6488798119e+01   2.8276326667e+01    0.1359686    0.1258831 -36.77 -7.591287e-05    1.027    0.026
        92  -9.0575    164.3472     54.3111   4.1200102045e+01   3.6568620671e+01    0.1526298    0.1117965  26.64 0.0004806019    1.711    0.415
        93  -9.3084     34.6508     52.8702   8.4800964755e+01   6.4852511553e+01    0.3200562    0.1862372  26.41  0.001501106    1.801    0.445
        94  -9.1652    215.8067     50.3963   3.3116335587e+01   2.5125050331e+01    0.1785646     0.116425  51.93 0.0009520004    1.726    0.421
