#   1 NUMBER                 Running object number                                     
#   2 MAG_AUTO               Kron-like elliptical aperture magnitude                    [mag]
#   3 X_IMAGE                Object position along x                                    [pixel]
#   4 Y_IMAGE                Object position along y                                    [pixel]
#   5 X_WORLD                Barycenter position along world x axis                     [deg]
#   6 Y_WORLD                Barycenter position along world y axis                     [deg]
#   7 A_WORLD                Profile RMS along major axis (world units)                 [deg]
#   8 B_WORLD                Profile RMS along minor axis (world units)                 [deg]
#   9 THETA_WORLD            Position angle (CCW/world-x)                               [deg]
#  10 FWHM_WORLD             FWHM assuming a gaussian core                              [deg]
#  11 ELONGATION             A_IMAGE/B_IMAGE                                           
#  12 ELLIPTICITY            1 - B_IMAGE/A_IMAGE                                       
         1 -12.8320    190.1028     41.5318   4.8231397985e+01   3.2330462424e+01     1.238257    0.9369306  33.99  0.004432448    1.592    0.372
         2 -12.2960    214.9027     10.2794   3.7200424191e+01   2.9989895840e+01    0.8522083    0.7487231 -72.84  0.004389476    1.052    0.050
         3  -9.8930     45.2446      6.7304   7.1818727410e+01   6.8774136338e+01    0.1911171   0.08649993 -18.34 0.0008974375    2.404    0.584
         4  -9.9108     59.1951      5.3907   6.5411272210e+01   6.6655789231e+01    0.1655689    0.1119344  51.59 0.0009566898    1.735    0.424
         5  -8.6116     58.2139    227.7825   1.1834771476e+02   2.0069186796e+01    0.1068247   0.06902746  65.71 0.0002209721    1.326    0.246
         6 -11.7860    248.7653    239.9295   8.3064408463e+01  -1.0668562174e+01    0.6057647    0.2987776 -21.68  0.003411656    2.034    0.508
         7  -9.6937     62.6541    250.7274   1.1932014113e+02   1.5253709975e+01    0.1502799   0.08151076  43.84 0.0009116053    1.505    0.336
         8  -9.3383     90.1717    212.8420   1.1038090835e+02   1.8643928409e+01    0.2140318    0.1719067  64.99 0.0005643071    1.105    0.095
         9  -8.4719     37.5323    211.9846   1.2112392375e+02   2.5721798186e+01    0.1407378   0.09787013 -88.63 5.655863e-05    1.252    0.201
        10  -8.4916     56.7583    210.2328   1.1710237219e+02   2.3789609581e+01    0.2154714   0.09270331 -68.42  0.001045782    2.255    0.557
        11  99.0000     43.7109    210.2307   1.1975575849e+02   2.5376208235e+01    0.3116001    0.1413624  78.20   0.00112847    2.630    0.620
        12  -7.7121     43.6149    205.4088   1.1937368253e+02   2.6397970033e+01       0.1865    0.1292725 -50.89  0.001120437    1.863    0.463
        13 -10.2045     96.8374    202.1393   1.0760979673e+02   1.9841585300e+01    0.3057455    0.1774367 -47.60  0.001099025    2.061    0.515
        14  -9.8632     65.9589    204.7105   1.1463416794e+02   2.3757995768e+01    0.2176501     0.156328 -67.45  0.001060212    1.416    0.294
        15  -8.0367     56.7067    200.8316   1.1621479737e+02   2.5787774087e+01    0.2586833    0.1835182 -36.77  0.001438257    2.184    0.542
        16  -8.1350     70.6489    199.7069   1.1308284304e+02   2.4195970586e+01    0.1176329    0.1016068 -23.31 0.0007030483    1.677    0.404
        17  -9.8286    139.8192    197.3848   9.7319230838e+01   1.3600513512e+01    0.2065977    0.1245325  30.54 0.0009530626    1.724    0.420
        18 -10.8659     59.7139    194.0109   1.1486187967e+02   2.6890636669e+01    0.3553092    0.2520756 -51.12  0.001340085    1.681    0.405
        19  -9.2670    192.7423    194.4689   8.5449961546e+01   4.5395210493e+00     0.280275    0.1095719 -52.20 0.0008943185    4.473    0.776
        20  -8.6192     82.0200    194.5239   1.0994151065e+02   2.3712510722e+01    0.1991654    0.1198609  41.44  0.001019484    1.560    0.359
        21  -8.9601    152.3156    193.6668   9.3913583154e+01   1.2074273956e+01    0.1415259    0.1097297  73.09 0.0003684373    1.687    0.407
        22  -9.8281     94.8487    187.8139   1.0609801230e+02   2.3243157395e+01    0.4279244    0.2618001  79.27  0.001732007    2.211    0.548
        23 -10.7152     98.8490    181.6297   1.0424079279e+02   2.3983700053e+01    0.4377121    0.3171271 -21.31   0.00168325    2.161    0.537
        24 -11.2157    124.9989    187.2764   9.8999685483e+01   1.8308878884e+01    0.3808927    0.2395892 -76.24  0.001676255    2.253    0.556
        25  -9.9435     68.7618    182.1041   1.1142674478e+02   2.8365196641e+01    0.8623108    0.6636702 -38.44   0.00486349    1.710    0.415
        26 -10.0995     72.4055    180.2077   1.1032647805e+02   2.8296593061e+01    0.4423173    0.2818038 -85.38  0.002087344    1.671    0.401
        27  -9.6918    143.6601    178.8851   9.3188299269e+01   1.6666038782e+01      0.29065     0.128632 -41.98  0.001096932    2.546    0.607
        28  -9.5540    187.3221    175.7339   8.2874910327e+01   8.8914129601e+00     0.329629    0.2606724 -37.36   0.00120148    1.300    0.231
        29  -9.2358    149.0445    176.5273   9.1497546880e+01   1.6134339813e+01    0.2230824    0.1958733 -46.08 0.0005639984    1.202    0.168
        30 -11.6524    113.7218    174.3063   9.9468502089e+01   2.3126700961e+01    0.4892251    0.4579264  30.92  0.002814491    1.136    0.120
        31 -11.3146    104.6755    172.0430   1.0129055341e+02   2.5194114627e+01    0.5025044    0.3514222  52.27  0.002515214    1.411    0.291
        32  -9.5852     62.0725    246.9612   1.1914323469e+02   1.5995921276e+01    0.1652501    0.1296088  89.70 0.0008437751    1.266    0.210
        33  -8.7939     75.4507    248.1750   1.1679936795e+02   1.4024985448e+01    0.2851492   0.08384258 -57.69  0.001249929    3.893    0.743
        34  -8.6589     50.4708    224.5689   1.1957921769e+02   2.1662867968e+01    0.1830852   0.09322414  86.50 0.0006949703    2.102    0.524
        35  -9.8559     90.7971    157.0904   1.0223095127e+02   3.0977501583e+01    0.2516457     0.223749 -51.06 0.0003779447    1.176    0.149
        36 -10.8462     96.2535    150.8994   9.9672750829e+01   3.1567911802e+01    0.5685744    0.4083216 -29.35  0.001961645    1.818    0.450
        37 -10.1713    133.9155    145.9822   8.8847664526e+01   2.5765266536e+01     1.062704     0.224803 -53.41  0.002139858    7.690    0.870
        38  -9.3281    113.1768    150.9944   9.5241831786e+01   2.8587194503e+01    0.2521662    0.1748777 -87.39   0.00108062    2.008    0.502
        39  -8.9904    109.1866    147.2323   9.5524036329e+01   3.0197202291e+01    0.2067146     0.171769  75.58 0.0004464695    1.333    0.250
        40 -10.3768     79.8678    140.6452   1.0219546816e+02   3.6652856927e+01    0.2619898    0.1830576 -52.52 0.0008314494    1.371    0.271
        41 -10.5157    108.2090    137.6251   9.3760133865e+01   3.2654405613e+01    0.4535957    0.3537619 -54.23  0.002244944    1.253    0.202
        42 -10.6580     96.1754    136.7400   9.6883062427e+01   3.4989409864e+01     0.318383    0.2845978 -56.11 0.0005972678    1.080    0.074
        43 -10.0465    105.5639    131.1044   9.3043339968e+01   3.4689259632e+01    0.4620786    0.3982188   0.73  0.002356964    1.381    0.276
        44  -9.8190    115.1873    128.4409   8.9766053624e+01   3.3513923977e+01    0.2966847     0.239237 -20.62 0.0007114366    1.469    0.319
        45  -9.4530    102.6151    124.2353   9.2294175696e+01   3.6860817475e+01    0.2758786    0.2390739  -3.01 0.0008667266    1.352    0.260
        46  -8.5158    110.1710    118.1699   8.8671245688e+01   3.6882480297e+01    0.2033514    0.1804763 -88.16 0.0003483924    1.268    0.211
        47  -8.8196    231.0587    113.9505   6.0500249376e+01   1.1257106207e+01    0.2203206    0.2022908 -27.99  0.001141197    1.020    0.020
        48 -10.5099    118.9809    110.8797   8.4302756540e+01   3.6814252002e+01    0.3997972    0.3008226  79.37  0.001748106    1.869    0.465
        49  -8.6897     54.7943    221.8907   1.1852182793e+02   2.1660120987e+01    0.1619881    0.1244969  54.81            0    1.143    0.125
        50  -9.1350     58.2746    220.6293   1.1772854832e+02   2.1473416639e+01    0.2823656    0.1749823  34.13  0.001650698    1.728    0.421
        51 -11.7270    174.9900     54.9932   5.4545139228e+01   3.4230371074e+01    0.4595026    0.4241057  45.71  0.001048092    1.111    0.100
        52  -9.0156     71.6184    243.6231   1.1712796283e+02   1.5349853234e+01    0.1519756   0.09661687  87.63 0.0007849473    1.638    0.390
        53 -11.5511    195.0123     35.6115   4.5915601334e+01   3.1879166197e+01    0.5321366    0.4528435  67.74  0.001263062    1.141    0.123
        54  -9.2052     56.3158    217.6832   1.1786125283e+02   2.2314722776e+01    0.1979035    0.1235847  74.90 0.0006831404    1.504    0.335
        55  -9.5078    149.4834    240.5217   1.0172095963e+02   4.2462522814e+00    0.1264512    0.1035731  36.11 0.0004547366    1.021    0.021
        56 -19.4917     18.9691    145.6425   1.1935647543e+02   4.2451412603e+01     19.54164     3.418077 -73.42   0.05702685    5.280    0.811
