#   1 NUMBER                 Running object number                                     
#   2 MAG_AUTO               Kron-like elliptical aperture magnitude                    [mag]
#   3 X_IMAGE                Object position along x                                    [pixel]
#   4 Y_IMAGE                Object position along y                                    [pixel]
#   5 X_WORLD                Barycenter position along world x axis                     [deg]
#   6 Y_WORLD                Barycenter position along world y axis                     [deg]
#   7 A_WORLD                Profile RMS along major axis (world units)                 [deg]
#   8 B_WORLD                Profile RMS along minor axis (world units)                 [deg]
#   9 THETA_WORLD            Position angle (CCW/world-x)                               [deg]
#  10 FWHM_WORLD             FWHM assuming a gaussian core                              [deg]
#  11 ELONGATION             A_IMAGE/B_IMAGE                                           
#  12 ELLIPTICITY            1 - B_IMAGE/A_IMAGE                                       
         1 -11.8963    222.1752     23.7849   1.7769616052e+01   2.8013150707e+01    0.7891514    0.4328704 -36.45  0.004629462    1.487    0.327
         2 -11.2601    227.6550     21.8042   1.6962374041e+01   2.7154586380e+01    0.6315538    0.1820447 -36.05  0.002926492    2.438    0.590
         3  -9.8755     59.6038      3.2050   3.5277656879e+01   6.9094275944e+01    0.1888266     0.127333  -1.97 0.0009605028    1.715    0.417
         4 -14.2402    128.2109    229.4174   7.6683281858e+01   1.3171654440e+01     2.013049     1.614948  47.74   0.01368362    1.533    0.348
         5 -12.5797    101.8352    243.9576   8.3906943123e+01   1.3979640579e+01     2.873767    0.6176316 -53.53   0.01170737    5.035    0.801
         6 -12.4091    112.5912    243.3421   8.1552509559e+01   1.2869088684e+01     1.852844    0.6856653  33.08  0.009323848    2.013    0.503
         7 -13.2642    112.9633    229.2748   7.9983208136e+01   1.5018641916e+01     1.048251    0.8630829  -8.29  0.004553836    1.283    0.221
         8  -9.1026     90.4709    217.0838   8.3804638100e+01   1.9770260380e+01    0.1782248    0.1420824  26.25 0.0004703097    1.024    0.023
         9 -19.4199      8.7449    146.9678   1.0031550918e+02   4.3232983309e+01     18.64596       2.7982 -82.18   0.04634811    7.328    0.864
        10 -10.1576     60.8603    223.5028   9.1375294772e+01   2.1897619336e+01    0.1924192    0.1678785 -57.39 0.0009315686    1.408    0.290
        11  -9.3360     62.7926    205.2032   8.9408454859e+01   2.5187414793e+01    0.1871027    0.1641466 -82.75 0.0005270236    1.322    0.244
        12  -8.8694     80.9277    220.4956   8.6393355012e+01   2.0262102583e+01    0.1740724    0.1009796  26.45  0.000298652    1.409    0.291
        13  -8.9251     34.4108    199.8630   9.6219150255e+01   2.9134487161e+01    0.1785571    0.1245009  49.64  0.001085595    1.250    0.200
        14  -8.9959     40.8952    198.1885   9.4439347187e+01   2.8873854395e+01    0.1850942    0.1388655  53.01 0.0006362288    1.212    0.175
        15 -10.9095     34.0571    188.8407   9.5589403543e+01   3.1504425699e+01    0.4771949    0.3636819  69.77  0.002127782    1.303    0.232
        16  -8.1824     54.5657    190.5427   9.0227069470e+01   2.9094068214e+01    0.1286313     0.111427  38.58 0.0001112559    1.005    0.005
        17  -8.1240     55.1148    228.1309   9.3046196191e+01   2.1640310789e+01    0.1895602    0.1565549 -35.09  0.001313922    1.532    0.347
        18  -8.7064     72.4096    186.8475   8.5070425231e+01   2.7841563405e+01     0.185409    0.1391687  39.67  0.000594055    1.181    0.154
        19 -11.1117     52.0819    183.8947   9.0289818550e+01   3.0793351836e+01    0.3959114    0.2956374 -22.42  0.001093771    1.674    0.403
        20 -11.5746     98.5775    181.0799   7.7389235561e+01   2.5643341435e+01    0.5444864    0.3399705 -48.89  0.001941596    1.766    0.434
        21  -9.6986     74.1031    181.2168   8.3958485067e+01   2.8831087122e+01     0.256993    0.1916628 -78.30 0.0007757431    1.587    0.370
        22  -9.7262    172.6370    177.6541   5.9525422732e+01   1.5406651010e+01    0.2247073    0.2010349  -7.24 0.0008573692    1.176    0.150
        23 -10.5112    127.2851    177.6579   6.9614840411e+01   2.2172240912e+01    0.3148851    0.2294084  72.49  0.001543982    2.363    0.577
        24 -10.3151    181.4594    174.6224   5.7231990083e+01   1.4591887451e+01    0.3200073    0.2104308  26.91  0.001848487    1.405    0.288
        25 -10.6192    103.5817    171.3108   7.4608358686e+01   2.6936015914e+01    0.3182012    0.1778914  50.00  0.001416563    2.085    0.520
        26 -11.0689     85.4916    171.3891   7.9536856767e+01   2.9472166067e+01    0.4455203    0.2947733 -39.00  0.001742626    1.738    0.425
        27 -10.4365    110.4549    167.2330   7.2131559313e+01   2.6753457706e+01    0.2554491    0.2383913 -79.02 0.0007000314    1.295    0.228
        28 -10.2690     48.4957    166.0596   8.9561434493e+01   3.5204574578e+01    0.2075056    0.1724128  33.41 0.0005856259    1.103    0.093
        29 -11.5703     54.8722    163.5156   8.7378028354e+01   3.5094443477e+01    0.4977102    0.2533483  27.32  0.001596344    1.792    0.442
        30  -8.7648     99.8057    160.5895   7.3893204667e+01   2.9756386169e+01    0.2014047    0.1193496  40.75 0.0004885858    1.597    0.374
        31  -9.8457     95.0179    159.1417   7.4990635915e+01   3.0786129471e+01    0.2665433    0.2144187 -84.02 0.0006471394    1.568    0.362
        32 -10.4039     83.8622    161.7198   7.8582586823e+01   3.1823159511e+01    0.3002764    0.1648868 -59.09  0.001367531    1.978    0.494
        33 -10.2466     86.6966    151.1994   7.6073372323e+01   3.3789358692e+01    0.2583832    0.2320994  18.93 0.0002932875    1.070    0.065
        34 -10.2510    134.2366    147.1391   6.2294869666e+01   2.6939420489e+01    0.6127388    0.2464608 -55.63   0.00205631    3.768    0.735
        35 -11.2042     93.1694    145.5426   7.3162464070e+01   3.4091777774e+01    0.5790804    0.4024618  -4.73  0.002660423    1.905    0.475
        36 -11.1042     82.3301    143.1901   7.6018798912e+01   3.6279792716e+01    0.3724356    0.2825394  89.58  0.001845164    1.676    0.403
        37 -10.7334    105.9999    132.0267   6.6713245741e+01   3.4998952772e+01    0.5720934     0.336442 -42.74  0.002220826    1.787    0.441
        38 -10.6217     93.5221    132.5847   7.0557553889e+01   3.6986529616e+01    0.2754997     0.259864 -14.33  0.001538099    1.083    0.077
        39  -9.0449    135.4720    130.5023   5.8419808415e+01   2.9989827659e+01    0.1445633    0.1354558   8.47 0.0008099618    1.017    0.017
        40  -9.6091    113.9185    126.0715   6.3132640223e+01   3.4881541539e+01     0.244313    0.1798837  -4.33  0.001129468    1.726    0.421
        41  -9.6654    101.1721    121.5885   6.5843763407e+01   3.8170731103e+01    0.3101062    0.2314991  16.90  0.001103211    1.479    0.324
        42  -9.6407    159.6072    115.8538   4.9407649441e+01   2.8121045354e+01    0.2838181    0.1606563 -56.91  0.001087195    2.639    0.621
        43  -8.7962    109.0866    116.4736   6.2275778443e+01   3.7850132022e+01    0.2208937    0.1438823  38.38 0.0004042268    1.484    0.326
        44  -9.2064    156.0994    111.5171   4.9102204043e+01   2.9579145626e+01     0.254489    0.1917958 -53.05 0.0005467243    1.518    0.341
        45  -8.5747    205.5053    110.4704   3.9842388673e+01   2.0427269835e+01    0.1278413     0.111297 -21.37 0.0001115986    1.019    0.019
        46  -9.8219     58.9597     97.1700   7.4896383588e+01   5.0955522879e+01    0.2362968    0.1979868  55.09 0.0009065692    1.280    0.219
        47 -10.2480     46.1928    238.5482   9.5711517987e+01   2.0660033972e+01    0.1363299    0.1279573  47.44 0.0002302125    1.219    0.179
        48 -11.1628    179.6596     63.1173   3.2095325909e+01   3.2289289504e+01    0.3398969    0.2917188 -49.60    0.0008675    1.120    0.107
        49 -12.6543    196.0980     50.6236   2.6669443242e+01   3.0370432315e+01    0.9735792    0.7880731  24.63  0.003947461    1.523    0.343
        50 -11.4404    202.0459     45.2413   2.4655023350e+01   2.9766732145e+01    0.4509048    0.3713418  31.65  0.001476533    1.483    0.326
        51  -8.6346    164.5332    248.4975   7.1664718426e+01   6.3194916977e+00    0.1131737   0.08117727  12.65 6.673288e-05    1.004    0.004
        52  99.0000     51.3728    246.5491   9.5031070718e+01   1.8808473503e+01    0.1098043   0.08577863  34.50 0.0002292434    1.037    0.036
        53  -7.3687     55.9535    232.1243   9.3123558381e+01   2.0841239825e+01    0.2850607    0.1335428  41.69  0.001438492    1.698    0.411
        54  -9.4159     60.3178     20.8526   4.5450838761e+01   6.6757496255e+01    0.2079751    0.1765384 -51.34 0.0005337456    1.401    0.286
