#   1 NUMBER                 Running object number                                     
#   2 MAG_AUTO               Kron-like elliptical aperture magnitude                    [mag]
#   3 X_IMAGE                Object position along x                                    [pixel]
#   4 Y_IMAGE                Object position along y                                    [pixel]
#   5 X_WORLD                Barycenter position along world x axis                     [deg]
#   6 Y_WORLD                Barycenter position along world y axis                     [deg]
#   7 A_WORLD                Profile RMS along major axis (world units)                 [deg]
#   8 B_WORLD                Profile RMS along minor axis (world units)                 [deg]
#   9 THETA_WORLD            Position angle (CCW/world-x)                               [deg]
#  10 FWHM_WORLD             FWHM assuming a gaussian core                              [deg]
#  11 ELONGATION             A_IMAGE/B_IMAGE                                           
#  12 ELLIPTICITY            1 - B_IMAGE/A_IMAGE                                       
         1 -11.1742     23.8506     32.3979   1.1606229816e+02   6.5924272849e+01     1.572771    0.4125457 -37.96  0.006493215    3.324    0.699
         2 -10.2270      9.9519     18.9505   1.1706631768e+02   6.9123672372e+01      1.01739    0.3847115 -17.88  0.003730678    5.758    0.826
         3 -10.3284      4.6629     41.7804   1.2683010307e+02   6.5712509644e+01    0.8529428    0.3263771 -59.26  0.003992836    2.504    0.601
         4 -10.2021      7.1344     28.3115   1.2164328101e+02   6.7854635465e+01    0.3324814    0.2899162 -51.26 0.0009992778    1.486    0.327
         5 -10.3248     89.5966     38.2500   9.4623136396e+01   5.6151187982e+01    0.7861584    0.2989998  34.57  0.002987556    3.142    0.682
         6  -9.5424    100.7968     31.9399   8.9097165805e+01   5.4868559754e+01    0.6833023    0.2142448 -28.99  0.002184724    3.448    0.710
         7  -9.2909    102.9932     21.2809   8.4617555024e+01   5.5693119227e+01    0.3726791     0.217148 -34.11 0.0005978514    1.864    0.463
         8  -8.5911    104.5096     15.1392   8.1973010563e+01   5.6029430339e+01    0.4173355      0.21884   8.42  0.001804506    2.884    0.653
         9  -9.4562     91.3732     24.3694   8.8946156299e+01   5.7615847646e+01    0.6401836    0.3199568 -30.00  0.003163836    2.032    0.508
        10 -10.3014     76.0934     31.8198   9.6455646436e+01   5.9382487471e+01    0.6729313    0.4928691 -86.24  0.003049412    3.778    0.735
        11  -9.6071     63.8623      2.8895   8.8687843329e+01   6.4692082409e+01    0.3188531    0.2283094 -39.50  0.001343608    1.903    0.475
        12 -10.4795     18.9814      6.7609   1.0799411067e+02   7.0060667069e+01    0.6378152    0.5382486 -52.47  0.003864747    2.157    0.536
        13  -9.5614     60.0538     33.6488   1.0260640774e+02   6.1590852456e+01    0.6351064    0.2288642 -35.44  0.002660818    2.590    0.614
        14  -9.5549     31.2010     12.3527   1.0512983914e+02   6.8102146711e+01    0.3451774    0.2558292 -44.11  0.001755115    1.870    0.465
        15 -10.6840     36.9548      8.9832   1.0128453438e+02   6.7856295112e+01    0.7655354    0.3391647 -41.17  0.002830262    2.707    0.631
        16 -10.2344     45.4877     29.2661   1.0630180659e+02   6.4143842902e+01    0.3667766    0.3531008 -71.60  0.002680515    1.704    0.413
        17  -9.8774     63.1973     21.4426   9.6710739162e+01   6.2774979243e+01    0.5529999    0.2704993 -34.54  0.002675281    2.019    0.505
        18 -10.0938     64.3140     13.5995   9.3100994350e+01   6.3525126608e+01    0.4210214    0.2703718  -6.88   0.00226612    1.510    0.338
        19  -9.4316    132.0821     17.9973   7.6771422451e+01   4.9728415057e+01     0.507908    0.2758186  21.82   0.00210602    2.625    0.619
        20  -9.0968    133.3290     11.9876   7.4549148573e+01   5.0033248295e+01    0.4386768    0.1828605 -37.97  0.001287369    2.710    0.631
        21  -8.6684    120.2102     16.7831   7.8876002832e+01   5.2520515094e+01    0.3601574    0.1801268  16.36  0.001391849    3.435    0.709
        22  -8.8622    110.6218      6.3016   7.7308681362e+01   5.5575498403e+01    0.4829188    0.2220228  -7.73  0.002122755    2.970    0.663
        23  -9.3434    114.2067      9.8920   7.7792826038e+01   5.4489933685e+01    0.4133058    0.1930827  35.22 0.0003636237    2.236    0.553
        24  -8.7281    115.2357      4.1653   7.5543729564e+01   5.4767132061e+01    0.3026912     0.187744 -40.57  0.001029363    1.975    0.494
        25 -10.0155     73.5290     17.3986   9.1628776035e+01   6.1601334447e+01    0.8435035     0.270918 -25.65  0.003391967    3.429    0.708
        26  -8.7579     71.9903      8.6930   8.8545899444e+01   6.2786120088e+01    0.1972508    0.1504141  -8.58 0.0004807163    1.227    0.185
        27  -8.0082     76.7471      6.3645   8.6123414896e+01   6.2187895474e+01    0.1942846    0.1511347 -16.97 0.0005716513    1.321    0.243
        28  -8.5452     78.7583      3.0965   8.4186067883e+01   6.2126260026e+01    0.2413794    0.1926428 -17.54 0.0007854878    1.337    0.252
        29  -8.6627     95.8214     16.6131   8.4770326025e+01   5.7622631468e+01    0.2969202    0.1605127 -30.04  0.001016805    1.946    0.486
        30  -8.1355     96.6637     12.6528   8.3044076266e+01   5.7857604873e+01     0.256819    0.1580736  22.13  0.001388892    1.691    0.409
        31  -9.2928      2.1983     14.6590   1.1895044173e+02   7.0296525018e+01    0.3999138    0.1884865 -55.65  0.001873618    2.825    0.646
        32 -10.3704      5.1402      4.6096   1.1348358974e+02   7.1511344602e+01    0.4075934    0.2979732 -13.25  0.001453198    1.088    0.081
        33  -8.6903     88.7546      2.4477   8.1164158479e+01   6.0324492904e+01    0.3609669    0.2653668  44.86  0.001589174    1.210    0.174
        34  -8.2793     85.0386      6.4686   8.3772047508e+01   6.0674173440e+01    0.3648717     0.185859  17.49  0.001742456    2.461    0.594
        35  -9.5043     85.0594     12.9535   8.6345924088e+01   6.0045088538e+01     0.382907    0.2473623 -51.01  0.001861729    2.513    0.602
        36  -7.9040     80.4486     12.5312   8.7528115231e+01   6.0925270216e+01    0.2264287    0.1540862 -42.13  0.000959758    1.935    0.483
        37  -7.3446    120.5975      5.8084   7.5000921930e+01   5.3457009381e+01    0.2042618    0.1569869 -80.97  0.001179498    1.746    0.427
        38  -8.4818    125.0578     13.0457   7.6556018279e+01   5.1810915044e+01    0.2975285    0.1772092 -37.00  0.001179675    1.911    0.477
        39  -8.3166    126.9400      9.0100   7.4811521510e+01   5.1761932548e+01    0.2785377    0.1440875  48.57 0.0005218078    1.641    0.391
        40  -8.8209    125.3496      5.5871   7.3973483617e+01   5.2418986842e+01     0.425141    0.2340703  22.97  0.001794889    2.262    0.558
        41  -9.4236    233.6151      9.1246   6.0465574646e+01   2.6281197975e+01    0.3274483     0.210035 -42.98  0.001039114    1.531    0.347
        42  -8.5093    102.0209      8.4255   8.0097409240e+01   5.7179431048e+01    0.2018135    0.1684006 -38.94 0.0005769485    1.470    0.320
        43 -10.0996     50.7657     15.5857   9.8761332500e+01   6.5288431997e+01     1.279456    0.6288095   8.55  0.005616721    3.375    0.704
        44  -8.3522     97.6946      5.6806   8.0128965933e+01   5.8297442321e+01    0.2790841    0.1684257  19.47  0.001012762    1.763    0.433
        45  -8.4040     95.8228      3.1772   7.9637936173e+01   5.8884342359e+01    0.3380992    0.1884295  19.57  0.001764882    2.000    0.500
        46  -8.1680    131.0021      6.0307   7.3036589957e+01   5.1103108660e+01      0.18155    0.1338217  31.48 0.0005375467    1.352    0.260
        47  -8.6687    134.7675      2.5248   7.1209054400e+01   5.0535342501e+01    0.4554915    0.2497377  17.32  0.002147812    2.522    0.603
        48  -7.4464    143.3006      5.6058   7.0709966225e+01   4.8291932482e+01    0.1322064   0.09247387 -65.06 0.0007007174    1.808    0.447
        49  -7.3200    138.4966      5.5064   7.1506181833e+01   4.9422831087e+01    0.1311682    0.1103428  51.29 -3.875458e-05    1.035    0.034
        50  -7.5460    206.2045      4.6020   6.2083677953e+01   3.3205516192e+01    0.1674833     0.103656  65.16 0.0004789822    1.439    0.305
        51  -8.3939    104.3447      1.9186   7.7128963400e+01   5.7257833907e+01    0.2474782     0.150809  47.18  0.001150347    1.362    0.266
        52 -10.3698    140.8192    117.2063   1.0465378320e+02   3.1106717710e+01    0.8937362    0.4590915 -43.72  0.001911234    1.931    0.482
        53  -9.4534    221.4180    249.3456   1.1429476045e+02  -9.6598234069e+00    0.4215941    0.1595672  47.57  0.001818334    2.904    0.656
        54 -10.0998    201.6847    249.3778   1.1787316146e+02  -6.4704877398e+00    0.3783651    0.1733573  38.46  0.001892892    1.819    0.450
        55 -10.8980    189.3480    247.1370   1.1980195402e+02  -4.0877625306e+00    0.5213305    0.3503024  61.68  0.002887943    1.939    0.484
        56  -9.3809     81.4949     99.3108   1.1614060171e+02   4.6288526548e+01    0.7885226     0.271475 -48.47  0.001166329    2.596    0.615
        57 -10.1547     78.0514    113.0013   1.2043986804e+02   4.3748842457e+01    0.5496899    0.3198284 -75.73  0.001678171    2.540    0.606
        58  -7.8746     77.6974    105.8842   1.1887683911e+02   4.5409018234e+01    0.2353202    0.1430586 -31.47  0.001030702    2.009    0.502
        59  -9.8580     13.9047    111.0172   1.3818631656e+02   5.1110332511e+01    0.4161253    0.2234359  88.21  0.001887226    2.380    0.580
        60  -8.4848     14.0297    105.0294   1.3721894648e+02   5.2419233187e+01    0.1877481    0.1252949 -50.23 0.0004901579    1.296    0.228
        61  -7.9634      1.3335    115.7965   1.4218685415e+02   5.0879160558e+01     0.224727   0.08571891 -73.32 0.0009525193    2.113    0.527
        62  -9.0433    250.1141    114.2404   8.2134068090e+01   6.8194286214e+00    0.2384502    0.1834293 -43.52 0.0003428892    1.170    0.145
        63  -8.9111    236.5021    114.1527   8.4263647703e+01   9.7133361766e+00    0.3138264    0.2210959  69.77  0.001252558    1.705    0.414
        64  -7.8584    167.1587    113.8373   9.7571980646e+01   2.5829047336e+01    0.2107529    0.1878713  -6.17 0.0004494429    1.295    0.228
        65  -7.2375    183.2092    113.0562   9.3891913974e+01   2.2193803290e+01    0.2013081    0.1249426 -39.81    0.0002873    1.605    0.377
        66  -8.8622     63.9591     86.8039   1.1824204477e+02   5.1476215340e+01     0.674767    0.3783272   0.34  0.002570056    3.797    0.737
        67  -9.2165     58.9819    109.5128   1.2513754408e+02   4.7130957324e+01    0.5597901    0.2353562 -62.95  0.001896425    2.400    0.583
        68 -10.2506     65.5589    110.2826   1.2340444102e+02   4.6117499342e+01     0.781197    0.4664731 -68.76  0.002252678    1.827    0.453
        69 -10.5848     63.0949     96.4014   1.2092856067e+02   4.9531537340e+01      0.85352    0.4978036 -79.52  0.001979483    3.159    0.683
        70  -9.2639     23.6538    112.7104   1.3577839034e+02   4.9994439700e+01     0.287578     0.146302  37.19  0.001483436    2.328    0.570
        71  -8.3932    158.8257    112.0497   9.9006800685e+01   2.8144057974e+01    0.2764837    0.2103602 -51.91 0.0005312306    1.332    0.249
        72 -10.2239      4.3541     89.5405   1.3747606516e+02   5.6359244324e+01    0.6586378     0.337812 -89.48  0.002148138    2.844    0.648
        73  -9.6731      6.1872     78.4571   1.3490014308e+02   5.8565063394e+01    0.7854611    0.2862292 -30.83  0.003373405    3.850    0.740
        74 -10.5098     32.8321     63.2520   1.2228531677e+02   5.9669981339e+01     1.190028    0.5530238 -24.94  0.005315549    3.002    0.667
        75 -10.8292     21.1412    101.3448   1.3456282669e+02   5.2709250206e+01     1.066535    0.5820795  85.16  0.003874072    2.988    0.665
        76 -10.4905     18.9598     86.7211   1.3247594536e+02   5.6021178514e+01     1.307623    0.2331608 -48.00  0.004702341    3.906    0.744
        77 -10.2640     25.8436     78.2361   1.2844966012e+02   5.7272012694e+01    0.6476033    0.3821339 -83.34  0.002962575    2.767    0.639
        78  -9.7579     15.7821     70.9382   1.3015195541e+02   5.9499244049e+01       0.5006    0.1783686 -53.42  0.001436274    2.003    0.501
        79  -9.9340     16.9815     61.0580   1.2735935681e+02   6.1363290494e+01    0.6610716    0.5398419 -19.08  0.004874708    1.237    0.192
        80 -10.7942     21.9153     53.6457   1.2356531039e+02   6.2402124978e+01    0.6770778    0.4123595 -80.49   0.00295261    3.771    0.735
        81 -10.1939     15.2146     44.1872   1.2337163902e+02   6.4611800390e+01    0.7154539     0.316942 -18.88  0.003406832    3.173    0.685
        82  -7.5949    179.2480    117.9509   9.5973873624e+01   2.2140992276e+01    0.2171283    0.1982489 -51.88 0.0004212077    1.082    0.076
        83  -7.9024     76.8889    249.5009   1.4060757477e+02   1.3973311116e+01    0.1671246   0.09523144  48.15 0.0004850357    1.491    0.329
        84  -9.9837     34.3855     90.7390   1.2848847449e+02   5.3910212125e+01    0.5378879    0.2625397 -73.82  0.001714022    2.821    0.645
        85 -10.1024     36.8675     81.0351   1.2548689041e+02   5.5732825088e+01    0.9018126    0.4429688 -12.29  0.003413484    4.549    0.780
        86 -10.0505     91.9556    113.2125   1.1657416413e+02   4.1511931938e+01      0.58748    0.4162473 -85.81  0.001623741    1.970    0.492
        87  -9.4599      6.4633     32.7016   1.2336454429e+02   6.7172476258e+01    0.2026446    0.1409364 -35.86 0.0007529464    1.051    0.049
        88  -9.1479    162.7879    244.0388   1.2431127792e+02   9.5494451880e-01    0.1914154      0.14535  -4.97  0.001087656    1.961    0.490
        89 -10.9156     44.5439    102.4132   1.2787298727e+02   5.0366873897e+01    0.7888941    0.4540857  75.31  0.003060631    3.581    0.721
        90  -7.7398     40.1824    107.1778   1.3011183663e+02   4.9747086152e+01    0.1708411     0.134599 -83.95 0.0004443943    1.354    0.261
        91  -9.9435    139.5831    103.4183   1.0133189672e+02   3.4325334644e+01    0.7674518    0.3650194 -43.86  0.001809724    2.076    0.518
        92  -8.7984     36.0000    105.4533   1.3099391287e+02   5.0536984994e+01    0.2837076    0.0599769 -61.45 0.0007713053    3.870    0.742
        93  -9.7190      6.5356    103.8891   1.3913963456e+02   5.3158252917e+01    0.4221817    0.2435745  75.34  0.001780546    2.368    0.578
        94  -9.1308    152.6727    115.3798   1.0131401321e+02   2.8854730250e+01    0.3349505    0.1952574 -54.84  0.001324084    1.898    0.473
        95  -8.5944    165.8194    103.9102   9.5266868384e+01   2.8171815251e+01    0.3013009    0.2417892 -48.69 0.0003786016    1.244    0.196
        96  -9.7759    149.4358    103.2135   9.8870501532e+01   3.2144137244e+01     0.478741    0.2837935 -54.29 0.0009317768    1.879    0.468
        97  -8.9749     92.5159    103.3806   1.1398071822e+02   4.3615722863e+01    0.5990983    0.3707437  18.57  0.002558854    2.382    0.580
        98  -7.9427     73.6895    102.6071   1.1926010177e+02   4.6723395049e+01    0.2470399    0.1152882 -53.68 0.0005353664    1.933    0.483
        99  -9.2212    159.0034    100.8244   9.5980730491e+01   3.0405380332e+01    0.4496677    0.2078582 -44.38 0.0009245726    2.157    0.536
       100  -9.2908     94.3161     97.2631   1.1186325124e+02   4.4639305846e+01    0.3266313     0.267849 -69.49 0.0006105801    1.381    0.276
       101  -8.5298     95.8758     91.0487   1.0971566547e+02   4.5684225650e+01    0.5150762    0.3049502 -14.03  0.001852606    3.376    0.704
       102  -9.0564    239.5603     96.4376   7.9658370858e+01   1.2164128563e+01    0.3915458    0.1396813 -33.49    0.0010601    3.024    0.669
       103  -8.4411    149.5217     97.4836   9.7285137242e+01   3.3291073767e+01    0.2329268    0.1912022  10.77 0.0009028637    1.510    0.338
       104  -9.0623    164.3883     94.5283   9.3050570097e+01   3.0370576130e+01    0.3140529    0.2897231  78.11  0.001006948    1.111    0.100
       105  -9.1882    138.7597     92.7202   9.8577387401e+01   3.6697653764e+01    0.3911753    0.3081612 -85.32 0.0007209794    1.649    0.394
       106  -8.3132    138.7500     87.8564   9.7194250916e+01   3.7660007112e+01    0.3676618    0.2455149  19.48  0.001252296    2.197    0.545
       107  -9.2471    150.2897     89.0868   9.4756567330e+01   3.4769333149e+01    0.3626646    0.2592848 -35.97  0.001302271    1.433    0.302
       108  -7.3593    204.1935     92.3983   8.4506596680e+01   2.1098313854e+01    0.1917214    0.1450262  71.19 0.0003139042    1.418    0.295
       109  -9.1767    157.6864     90.6493   9.3483822963e+01   3.2722768373e+01    0.4892465    0.2883068 -22.12  0.001594951    2.427    0.588
       110  -9.3264    110.9336     89.8108   1.0508127574e+02   4.3145640863e+01    0.7872645    0.3668224  33.16  0.002881165    2.747    0.636
       111  -9.5849    104.9236     72.1264   1.0150751306e+02   4.7754577237e+01    0.5755899    0.3259284 -21.65  0.002136716    2.460    0.594
       112  -8.5418    166.5777     89.6376   9.1224670078e+01   3.0782163346e+01    0.3631856    0.2149892  13.99  0.001030483    4.684    0.787
       113 -10.5268     48.1063     82.6432   1.2222735747e+02   5.4254334663e+01     1.059926    0.3998223 -52.08  0.003369862    2.182    0.542
       114 -10.2847     62.6974     60.7448   1.1111949228e+02   5.6776898224e+01    0.8000441    0.2860692  32.13   0.00324202    3.185    0.686
       115 -10.5637     55.1309     71.0366   1.1678474676e+02   5.5796379487e+01    0.5515935    0.3861046  62.68  0.001314168    2.399    0.583
       116  -9.0321     54.6011     63.1742   1.1464127247e+02   5.7369435119e+01    0.4980817    0.2897897  26.59  0.002679982    1.911    0.477
       117 -10.1718     85.2020     86.5545   1.1162192791e+02   4.8416713884e+01     0.468518    0.3558381 -69.51 0.0008016615    1.655    0.396
       118  -8.5495    163.3103     86.4677   9.1057513731e+01   3.2169571493e+01    0.3435595    0.2138177 -34.92  0.001033145    1.677    0.404
       119 -10.2148    103.8264     82.5886   1.0499061901e+02   4.5959701919e+01    0.5206553    0.2982777 -53.39 0.0008294513    1.953    0.488
       120  -9.3807     87.1417     78.8165   1.0880585550e+02   4.9662425132e+01    0.5435507    0.3419722  15.90  0.001400062    2.205    0.546
       121  -9.0309    157.7358     82.6241   9.1209264654e+01   3.4226938117e+01    0.5788878    0.2706805 -33.93  0.002120971    2.332    0.571
       122  -8.5410    156.8930     75.9428   8.9478645153e+01   3.5641287387e+01    0.3703766    0.2381257 -33.07   0.00163942    1.641    0.390
       123  -9.2512    140.4957     82.1068   9.5097530929e+01   3.8365910052e+01     0.644275    0.3508401 -30.10  0.002003181    2.133    0.531
       124  -8.7385    139.9771     75.2918   9.3210104637e+01   3.9741584072e+01    0.3386984     0.220218 -36.19  0.000605815    1.567    0.362
       125  -9.3621    170.0017     82.3095   8.8460179053e+01   3.1309525569e+01    0.4147119    0.2332003 -35.98  0.001701424    1.835    0.455
       126  -9.2127    149.8069     80.1112   9.2296119379e+01   3.6576142607e+01    0.4646914     0.262909 -33.38  0.001332589    1.888    0.470
       127  -8.7805    118.9397     80.5078   1.0016581855e+02   4.3375389977e+01    0.3308958    0.2356086 -55.96 0.0006290409    1.602    0.376
       128  -8.1346    119.8923     75.8985   9.8519791197e+01   4.4047180691e+01    0.2299959    0.1962995   3.04  0.000742599    1.282    0.220
       129  -8.9909     74.1776     80.4290   1.1328611588e+02   5.1370374489e+01     0.332431    0.2225666 -61.32  0.001105938    1.755    0.430
       130  -7.7340     74.8061     74.7730   1.1144636074e+02   5.2403379946e+01     0.324188    0.1821572   6.83  0.001217468    3.575    0.720
       131  -7.7835     68.5402     79.7453   1.1487590698e+02   5.2315236414e+01    0.2649034     0.113164 -44.86  0.001132817    2.073    0.518
       132  -7.7510    170.9849     95.9681   9.2000660079e+01   2.8502905073e+01    0.1934008    0.1739248 -44.63 0.0004395794    1.110    0.099
       133  -8.6768    166.4576     78.5398   8.8149731537e+01   3.2856318620e+01    0.2932531    0.1508583 -37.13 0.0005863514    1.983    0.496
       134  -8.0444    184.2228     78.0767   8.4444804811e+01   2.8556510251e+01    0.2256845    0.2075642  15.46 0.0005339353    1.252    0.201
       135  -7.5160     63.4066     82.1586   1.1717875335e+02   5.2515531160e+01    0.1806359    0.1175157 -59.65 0.0006553289    1.629    0.386
       136  -9.3991    127.3743     75.3095   9.6371251796e+01   4.2557838639e+01     0.403457    0.2782519 -63.23 0.0005021736    1.942    0.485
       137  -8.6862    129.6207     68.7842   9.3798906678e+01   4.3232655793e+01    0.4853939    0.2681842  25.34  0.001760839    2.931    0.659
       138  -8.6871    130.4125     64.6401   9.2312577105e+01   4.3768502413e+01    0.4298184    0.1997193 -40.99  0.001708533    2.193    0.544
       139  -8.2784    162.4919     73.0070   8.7414939234e+01   3.4799591241e+01    0.3170397    0.2170686 -63.45 0.0006349169    1.819    0.450
       140  -9.7769     81.5416     72.4948   1.0863752237e+02   5.1804459385e+01    0.3850605    0.2627132 -61.18 0.0009060439    1.890    0.471
       141  -9.1464     83.4280     64.6402   1.0559240414e+02   5.2962384959e+01      0.52666    0.3265711  -3.92  0.002304746    2.510    0.602
       142  -8.0399    174.8461     73.1530   8.4916195719e+01   3.1734392237e+01     0.215917    0.1832383  23.02  0.001082735    1.387    0.279
       143  -9.0437    115.1937     71.8032   9.8533137140e+01   4.5773799364e+01    0.5044028    0.2537366 -34.00  0.001453335    2.083    0.520
       144  -8.7145    187.9585     70.2863   8.1637881958e+01   2.8959150697e+01    0.2354663    0.2119831 -32.40 0.0002705298    1.186    0.157
       145  -8.6244    169.1299     70.2751   8.5252910601e+01   3.3638653599e+01    0.3527599    0.2030214 -42.21 0.0008878736    1.759    0.432
       146  -9.3409    146.9897     69.3499   8.9775020297e+01   3.9156290492e+01    0.4046902    0.2672788 -57.10 0.0009856978    1.840    0.457
       147  -8.2946    156.7641     70.1166   8.7810942219e+01   3.6688978029e+01    0.2253859    0.2022137 -71.02 0.0005377362    1.195    0.163
       148  -9.7264     94.6377     68.0645   1.0324557918e+02   5.0411832077e+01    0.4505578    0.2442979 -47.94  0.001038482    1.948    0.487
       149  -9.3300     96.9711     59.0250   9.9624079005e+01   5.1576634872e+01    0.7365443    0.4596213 -16.10  0.003407961    2.017    0.504
       150  -9.1767    121.2169     66.0489   9.5115698872e+01   4.5534505881e+01    0.4392776    0.2490287 -49.42 0.0008730685    2.031    0.508
       151  -7.9759    121.6988     61.6358   9.3589063554e+01   4.6180513220e+01    0.2327413    0.2062445 -21.67 0.0005772226    1.131    0.116
       152  -9.0087    138.0317     66.4515   9.1004863872e+01   4.1737157997e+01    0.3618541     0.262204 -65.69  0.000625714    1.818    0.450
       153  -8.5168    138.3385     62.3314   8.9662558708e+01   4.2355133011e+01     0.305525    0.2029166  33.04  0.001292437    1.684    0.406
       154  -7.6175    171.2971     65.3062   8.3407403540e+01   3.3929679247e+01    0.1488156    0.1163863  23.13 0.0001882864    1.588    0.370
       155  -9.2075    109.7496     63.9164   9.7546036030e+01   4.8275682356e+01    0.3420597    0.2566688 -60.22 0.0006836025    1.715    0.417
       156  -8.8916    110.5586     58.2440   9.5479584258e+01   4.9069081961e+01    0.4062063    0.2481875  26.42  0.001224509    1.983    0.496
       157  -8.4854    157.7627     62.9461   8.5487544287e+01   3.7642507533e+01    0.3063016    0.1895305 -44.45 0.0008876524    1.687    0.407
       158  -9.1001     87.9820     56.1440   1.0138344634e+02   5.3675403218e+01    0.7725581     0.339052 -30.33  0.002783318    2.573    0.611
       159  -9.9514     74.1457     56.2754   1.0583853191e+02   5.5917844039e+01     1.338447    0.5454175 -29.11  0.004945351    3.323    0.699
       160 -10.1596     85.0512     48.0743   9.9528029277e+01   5.5493623528e+01    0.3462554    0.3173251 -58.34  0.000913216    1.418    0.295
       161 -10.5680    163.9891    249.6168   1.2486476756e+02  -1.2836843456e-01    0.5087382    0.2093982  35.62  0.002218483    2.459    0.593
       162  -9.5754    247.5040     53.9944   6.8883748548e+01   1.7234181210e+01     0.304283    0.2597317  53.82 0.0008910904    1.390    0.281
       163  -7.6612    152.5383     60.2064   8.5790645159e+01   3.9348261853e+01    0.3272202    0.1449553 -35.38  0.001136906    2.327    0.570
       164  -8.8131    146.4841     58.9639   8.6747331730e+01   4.0993229664e+01    0.3498703    0.2092201 -42.82 0.0008759431    1.754    0.430
       165  -8.3526    147.6361     53.7045   8.4881467260e+01   4.1535206033e+01    0.4373083    0.2332958 -20.60  0.001728268    2.510    0.602
       166  -9.3339    138.7888     55.7523   8.7508490422e+01   4.3303143710e+01    0.6872208    0.2806123 -35.41  0.001765412    2.510    0.602
       167  -8.3793    142.0396     48.7738   8.4581614579e+01   4.3593519499e+01    0.2587832    0.2308235  79.61 0.0006884776    1.219    0.180
       168  -9.1194    129.7553     57.0605   9.0083924447e+01   4.5157218410e+01    0.4448505    0.2453519 -32.43  0.001438251    1.889    0.471
       169  -9.4893    118.2294     54.5982   9.2218237758e+01   4.8062547970e+01    0.4860392    0.3209519 -35.65  0.001412037    1.538    0.350
       170  -9.4143    121.2447     45.7599   8.8518308550e+01   4.8746307606e+01    0.6906671    0.2955067 -22.91  0.001125682    3.209    0.688
       171 -10.1269    163.2017     53.7991   8.1679963391e+01   3.7740932532e+01    0.5373502     0.300296 -40.03   0.00172344    1.844    0.458
       172  -8.4586    157.5154     56.0565   8.3495731138e+01   3.8791839868e+01    0.2112965    0.1450094 -35.89 0.0004498291    1.516    0.340
       173  -9.7934     49.9637     54.6483   1.1359924302e+02   5.9486482765e+01     0.347921    0.2795264 -64.96  0.001254892    1.707    0.414
       174  -8.8221     48.6044     48.5594   1.1209044545e+02   6.0711520077e+01    0.2426406    0.1945999  21.81 0.0005664094    1.343    0.256
       175  -9.3796     55.8965     43.5428   1.0772320000e+02   6.0639214057e+01    0.6398776    0.3349391  -7.45  0.002586103    3.579    0.721
       176  -9.6682     44.4674     52.6786   1.1494543720e+02   6.0464465628e+01     0.475659    0.3770197 -64.86  0.002756148    1.732    0.423
       177  -8.6001     40.0014     35.0000   1.1057018702e+02   6.3914740532e+01    0.2815896    0.1876901  28.67  0.001171026    1.630    0.386
       178 -10.0002     37.4867     41.9612   1.1400038630e+02   6.3058371629e+01     0.412022    0.2958565 -70.00   0.00186308    2.590    0.614
       179 -10.3166     35.8648     37.9969   1.1325003772e+02   6.3878445544e+01      0.35446    0.1951591 -35.93 0.0003804937    1.503    0.335
       180  -8.9728    105.4165     51.9795   9.4826457136e+01   5.1106123998e+01    0.5490959    0.2590976 -30.95  0.001280573    2.226    0.551
       181  -7.5790    152.5451     53.5428   8.3778837555e+01   4.0381207016e+01    0.1452688    0.1365867  86.00 0.0001404453    1.104    0.094
       182  -9.0514    157.3110     49.7914   8.1665675713e+01   3.9780051436e+01    0.4289135    0.1664473 -45.05  0.001523404    2.930    0.659
       183  -9.5354    130.5076     46.0124   8.6341589915e+01   4.6654132945e+01    0.8090594    0.3670704 -18.97   0.00156053    3.470    0.712
       184  -7.9949    136.1157     26.8771   7.8852054207e+01   4.7832161141e+01    0.2217021    0.1792239 -43.45 0.0005795801    1.393    0.282
       185  -8.3444    132.5575     35.9774   8.2591208860e+01   4.7547039770e+01    0.2633817     0.213729 -28.27 0.0004986405    1.313    0.238
       186 -10.3201    133.9446     31.0749   8.0681135757e+01   4.7839049442e+01    0.2468961    0.2168114  39.20            0    1.052    0.050
       187  -8.8486    243.5749     47.9683   6.7992290468e+01   1.8998646982e+01    0.2294476    0.1719878  47.83  0.001266496    1.647    0.393
       188  -8.3347    149.7843     47.9371   8.2650638729e+01   4.1872344920e+01    0.2530645    0.1889375 -54.46 0.0006265569    1.527    0.345
       189  -7.4762    237.6467     47.7355   6.8627370086e+01   2.0387775322e+01    0.1281223    0.1026146  41.05 0.0004832021    1.622    0.383
       190  -8.5433    111.9651     47.0120   9.1346792866e+01   5.0534832378e+01    0.2453472    0.1922099 -39.36 0.0004504852    1.364    0.267
       191  -8.6749    113.0304     42.4498   8.9509031998e+01   5.0970592145e+01    0.3182759    0.1926251  24.19  0.001455373    2.028    0.507
       192  -7.4613    162.6659     46.3068   7.9579238843e+01   3.8965810687e+01    0.1484074    0.1093032 -75.52 0.0007040525    1.669    0.401
       193 -10.0253     69.4350     40.6382   1.0195287681e+02   5.9175687335e+01    0.7719367    0.3857177 -38.52  0.002570783    1.917    0.478
       194  -8.9807    139.6619     40.5669   8.2507386521e+01   4.5299296382e+01    0.3546383    0.2410029 -48.08  0.001181356    1.687    0.407
       195  -8.7481    139.6137     35.1813   8.0797024611e+01   4.6012885969e+01    0.2950206    0.2100679  -1.91 0.0008017996    1.747    0.428
       196  -9.0102    153.2089     41.0868   7.9854767814e+01   4.1998053909e+01    0.3344588    0.2365807 -65.03 0.0008225634    1.785    0.440
       197  -8.3402    147.4798     40.9921   8.0984935972e+01   4.3390921280e+01    0.3648648    0.1404336 -30.97   0.00137369    2.775    0.640
       198  -9.2207    110.2826     33.0139   8.6947462086e+01   5.2805875299e+01     0.358022    0.2142431 -42.44 0.0009811538    1.940    0.485
       199  -9.1030    104.6849     40.8366   9.1194741925e+01   5.2905950533e+01    0.3499477    0.2241821 -42.62  0.001132668    1.755    0.430
       200  -8.7375    106.3834     36.2974   8.9134748071e+01   5.3182376049e+01    0.3036235    0.1907579  32.86  0.001542525    1.587    0.370
       201  -9.0251     53.0512     39.7380   1.0739027917e+02   6.1614269896e+01    0.3599748     0.145261 -32.63  0.001630584    2.432    0.589
       202  -8.9056    144.0770     36.4056   8.0252283753e+01   4.4804149203e+01    0.2390469    0.1980548 -37.93 0.0003841059    1.303    0.232
       203  -8.4828    153.2217     35.0767   7.8018794535e+01   4.2778872312e+01    0.2356198    0.1877584 -39.29 0.0008090989    1.351    0.260
       204  -8.6271    118.9323     34.6872   8.5350217249e+01   5.0753335710e+01    0.2995674    0.1852163 -28.16 0.0008797972    1.699    0.411
       205  -7.6138    119.5266    241.4937   1.3210635323e+02   8.7888977521e+00    0.1269211    0.1030483  60.11 0.0001519763    1.005    0.005
       206 -10.0442    243.3216     58.0988   7.0301335379e+01   1.7560992976e+01    0.3104709    0.2502711 -41.78 0.0002945721    1.234    0.190
       207  -7.0910     44.5099    236.4721   1.4505766852e+02   2.0773902435e+01    0.1151163   0.08503653  75.60 0.0002083648    1.022    0.022
       208  -9.3359    188.2588    233.6493   1.1791412096e+02  -1.8714966214e+00    0.2515179     0.198683  68.67 0.0009398241    1.627    0.386
       209  -8.4167     29.9864    230.0090   1.4703065521e+02   2.3762820219e+01    0.1658431    0.1229661  80.27 0.0003619646    1.062    0.059
       210  -6.8015    140.6317    213.7156   1.2418895688e+02   1.0275801254e+01    0.1325184     0.106305  14.13 0.0007018251    1.698    0.411
       211 -10.2006     79.2414     24.0180   9.2447999841e+01   5.9851304312e+01    0.7619681    0.2774131  35.75  0.002382058    2.921    0.658
       212  -8.9261     84.6997     21.9334   8.9968574372e+01   5.9133181161e+01    0.2424727    0.2119914  -4.10 0.0007534079    1.125    0.111
       213  -9.9671      9.6890    207.4056   1.4893271102e+02   3.0417385826e+01    0.5108699    0.2660127  31.68  0.003085688    2.561    0.609
       214  -7.6444     49.7392    207.4186   1.4162132096e+02   2.5961831190e+01    0.1385117    0.1126866  43.54 0.0002766048    1.479    0.324
       215 -10.0798    174.8992    203.3707   1.1543106723e+02   5.7632803565e+00    0.2288592    0.2219893  49.42 0.0002067901    1.068    0.063
       216  -9.2015    192.4213    195.3635   1.1038285377e+02   3.8270853809e+00    0.9193736    0.4284356 -61.47  0.002596934    5.862    0.829
       217  -7.2979    248.5034    189.4669   9.8578170590e+01  -5.5712391081e+00    0.1308287    0.1162554  -4.08 0.0001390551    1.040    0.038
       218  -7.5580    175.5604    188.6212   1.1255928469e+02   8.4362719039e+00    0.1433248    0.1314555  50.39 0.0001033628    1.051    0.049
       219  -7.3845      8.5262    170.4916   1.4631603228e+02   3.8313547429e+01     0.117029   0.08596436 -87.69 9.002603e-05    1.012    0.011
       220  -7.5684    229.6964    167.2937   9.7393831644e+01   1.5470715541e+00    0.1329148     0.113462 -77.80 0.0006993869    1.576    0.365
       221  -8.1836    159.3716     34.2633   7.6620945891e+01   4.1382490198e+01    0.1868213    0.1268651 -42.15 0.0006051176    1.582    0.368
       222  -9.4613    153.6203     28.1610   7.5836169558e+01   4.3525117685e+01    0.5193722    0.2612575  43.74  0.002277276    2.018    0.505
       223  -8.8681    144.2358     25.5627   7.6801831744e+01   4.6075573015e+01     0.300442    0.1881594 -20.81   0.00138748    1.834    0.455
       224  -8.5479    128.3691     25.6084   8.0084475645e+01   4.9753247904e+01    0.2924654    0.2161985 -38.96 0.0008635727    1.514    0.340
       225  -7.7350     50.2691    166.3737   1.3692311381e+02   3.4983644286e+01    0.1601124    0.1107395  53.01 0.0009254554    1.475    0.322
       226  -7.6149      3.5971    155.2431   1.4596390025e+02   4.2043726970e+01    0.1590862   0.07938018 -66.61 0.0003611347    1.555    0.357
       227  -8.0497    139.9825     22.3066   7.6596658961e+01   4.7440631023e+01    0.1913497    0.1665648  52.82   0.00065095    1.028    0.027
       228  -9.0712    118.7931     21.4283   8.0806446906e+01   5.2346010863e+01    0.2517383    0.2208981  11.62 0.0005858882    1.135    0.119
       229  -7.7382    190.9866    152.8534   1.0182671869e+02   1.2329432874e+01    0.2459836    0.1769994  75.48 0.0009227589    1.926    0.481
       230  -8.3748    134.0000    148.6041   1.1373888407e+02   2.5508418661e+01    0.4418712   0.08581833 -49.52   0.00107089    5.113    0.804
       231  -8.8186    111.5490     21.0582   8.2387903605e+01   5.3944196144e+01    0.3998516    0.1963604 -15.64  0.001789007    2.511    0.602
       232  -8.3575    112.2236     15.6957   8.0312302524e+01   5.4359364017e+01     0.206515    0.1889723 -12.49 0.0006276692    1.193    0.162
       233  -8.8529    121.0059    148.5726   1.1689193989e+02   2.8088457132e+01    0.2520847    0.2060518 -55.31 0.0004482504    1.196    0.164
       234  -7.9558    235.3297    146.3228   9.1798057350e+01   4.1616703786e+00    0.1475338    0.1102181   3.39  0.000704951    1.696    0.411
       235  -9.7546     67.0523    144.3377   1.2961473523e+02   3.7989309065e+01    0.4840953    0.3143684  66.53  0.002431277    1.813    0.448
       236  -8.6862    186.1604    140.0834   9.9901285126e+01   1.6000721212e+01    0.2431817     0.218982  44.43  0.000305024    1.120    0.107
       237  -8.5626    112.2247    134.1228   1.1597597345e+02   3.3107164136e+01    0.3545472     0.229463  88.29   0.00108012    2.512    0.602
       238 -10.4205    232.3693    133.1046   8.9336114202e+01   7.1664795764e+00    0.2832872    0.2612421  68.69 0.0002180624    1.198    0.166
       239  -8.4405     40.9069     20.6926   1.0467835440e+02   6.5897377767e+01    0.1911096    0.1369503 -27.02 0.0003323884    1.245    0.197
       240  -7.3839    150.5753     20.5003   7.4047784141e+01   4.5119030172e+01    0.1339438    0.1209597  59.43  0.000191887    1.015    0.015
       241  -7.6640    139.5023     17.5289   7.5159920866e+01   4.8056817678e+01    0.1333736    0.1183476  53.71 -3.059841e-05    1.016    0.016
       242  -7.7821    118.9832    133.3252   1.1406648844e+02   3.2002150031e+01    0.2010621    0.1891978  53.60 0.0003569531    1.096    0.088
       243  -9.4867    134.7067    131.6654   1.0972863010e+02   2.9205169495e+01    0.5138698    0.4162866  42.76  0.001975701    1.270    0.213
       244 -10.4278     70.3112    126.0950   1.2538856567e+02   4.1831621951e+01    0.6477958    0.5727341 -45.53  0.002005349    1.158    0.137
       245 -10.0238     58.2418    124.6960   1.2839679327e+02   4.3733901539e+01    0.6822515    0.3811404  80.39  0.002279312    3.373    0.704
       246  -9.6158     98.7793    128.8847   1.1832331395e+02   3.6747646385e+01    0.6072341    0.3704865  78.45  0.002276489    2.985    0.665
       247  -9.8799    116.9938    124.7222   1.1257482815e+02   3.4360466698e+01    0.7977958    0.4723931 -66.60  0.002301087    2.164    0.538
       248 -10.4898    123.6411     91.1039   1.0200225135e+02   4.0306966945e+01     1.030483     0.785875  79.15  0.002864469    1.783    0.439
       249  -8.5310    125.9534     83.7423   9.9260156729e+01   4.1274265742e+01    0.5993224    0.3502231  14.57  0.001927103    3.892    0.743
       250  -7.6856    141.2385     12.6384   7.3279611028e+01   4.8133757220e+01    0.1730856    0.1623667  68.79 0.0007805693    1.099    0.090
       251  -9.9913    108.6106    114.5714   1.1232918187e+02   3.8258802602e+01    0.6615511    0.4156975 -78.81  0.001357788    2.694    0.629
       252 -10.4669    121.9638    111.8033   1.0806912008e+02   3.6270979898e+01     1.051971    0.4797859 -37.60  0.002329264    2.530    0.605
       253  -9.9098    118.4288    107.0145   1.0775722094e+02   3.8030508877e+01     1.120946    0.5661198 -31.38  0.003965873    2.782    0.641
       254 -10.0569    127.4784    102.5087   1.0416703066e+02   3.7137773404e+01    0.5923371    0.4502106 -32.61  0.001720182    1.387    0.279
       255  -9.0932    110.1238    107.1168   1.1002463934e+02   3.9629776667e+01    0.6131369    0.4086544  18.63  0.002628566    2.153    0.535
       256 -10.2473    108.2934     99.3902   1.0847896913e+02   4.1652083538e+01    0.8999876    0.5754849  67.97  0.002565979    2.440    0.590
       257  -9.6888     27.1940    122.8505   1.3642476497e+02   4.7411230406e+01    0.5098116    0.2670566  71.84  0.002252223    2.984    0.665
       258  -7.7964    160.7890    124.3905   1.0170241272e+02   2.5081713586e+01    0.2296025    0.1473896  37.96 0.0009522131    1.706    0.414
       259  -8.1834    157.7562    122.0050   1.0180760694e+02   2.6283222153e+01    0.2469551    0.1837286 -72.43  0.001079791    1.667    0.400
       260  -9.7590    134.9516    122.1974   1.0737057369e+02   3.1273270564e+01    0.4721349    0.3084017 -43.31  0.001749562    1.526    0.345
       261  -9.8844    130.1183    118.5078   1.0766828319e+02   3.3110262287e+01    0.5043077    0.3491074 -72.36  0.001048722    1.895    0.472
       262 -10.5316    133.5126    109.6055   1.0451219882e+02   3.4337480565e+01    0.8895392    0.3976992 -45.78  0.002626018    2.196    0.545
       263  -9.2457     41.2376    121.9598   1.3252139891e+02   4.6283687180e+01    0.4386004     0.214127 -77.92   0.00168465    2.473    0.596
       264  -8.0803    152.4784    121.4968   1.0292043317e+02   2.7587259207e+01     0.155088     0.153879 -43.52 -2.132166e-05    1.041    0.039
