#   1 NUMBER                 Running object number                                     
#   2 MAG_AUTO               Kron-like elliptical aperture magnitude                    [mag]
#   3 X_IMAGE                Object position along x                                    [pixel]
#   4 Y_IMAGE                Object position along y                                    [pixel]
#   5 X_WORLD                Barycenter position along world x axis                     [deg]
#   6 Y_WORLD                Barycenter position along world y axis                     [deg]
#   7 A_WORLD                Profile RMS along major axis (world units)                 [deg]
#   8 B_WORLD                Profile RMS along minor axis (world units)                 [deg]
#   9 THETA_WORLD            Position angle (CCW/world-x)                               [deg]
#  10 FWHM_WORLD             FWHM assuming a gaussian core                              [deg]
#  11 ELONGATION             A_IMAGE/B_IMAGE                                           
#  12 ELLIPTICITY            1 - B_IMAGE/A_IMAGE                                       
         1 -12.4125     14.8171     17.9974   8.7032298996e+01   7.4530919887e+01    0.3608825    0.2282993 -56.36 0.0006307389    1.441    0.306
         2  -9.5641    101.6227      7.8216   3.5216224005e+01   5.9123510600e+01    0.2000564    0.1309432 -36.72 0.0005364967    1.636    0.389
         3 -10.8478     22.0113      6.2580   7.4462992251e+01   7.6355120233e+01    0.3467315    0.2124047  -9.00 0.0009367589    1.959    0.490
         4 -10.3782     16.9918      5.5514   7.8775617856e+01   7.7036426496e+01    0.2420809    0.2072934 -51.67 0.0003426563    1.257    0.204
         5  -9.3233     29.4809      2.4765   6.5283643298e+01   7.6054220195e+01    0.1302165    0.1179558   1.35  0.000173236    1.084    0.077
         6 -11.4911    157.5726    246.3175   8.0429687098e+01   7.3746881664e+00    0.4383318    0.2373688  17.03  0.002704733    1.613    0.380
         7  -9.8807    134.8084    250.4828   8.5273666611e+01   9.5643942839e+00    0.2673517   0.08156718  29.81  0.001263191    2.382    0.580
         8 -10.1330     95.2021    249.9457   9.3150587030e+01   1.4241446754e+01    0.1879492    0.1213128  29.89 0.0007135977    1.115    0.103
         9 -12.7171     87.0980    242.5256   9.4257503824e+01   1.6246042169e+01     2.349308    0.9182508  24.98   0.01179245    2.214    0.548
        10 -12.5155      8.1875    163.8007   1.0854296891e+02   3.8955431377e+01    0.7535774    0.6219146 -11.04  0.004213568    1.543    0.352
        11 -16.6430     96.4217    188.7843   8.7027810747e+01   2.4234912704e+01     7.543694     4.358454  26.52   0.03917695    1.536    0.349
        12 -11.6822     93.0887    224.7115   9.1514123674e+01   1.8334326256e+01    0.4349973    0.3534406  79.57  0.002416563    1.580    0.367
        13 -10.8801     98.8998    234.8339   9.1146620829e+01   1.6043314749e+01    0.2523055    0.1747553  10.88 0.0006625726    1.541    0.351
        14 -11.6405     94.8405    232.0132   9.1771270939e+01   1.6961437862e+01    0.3860565    0.2203969  32.74  0.002046453    1.280    0.219
        15 -11.3095    188.3446    234.9830   7.3312490664e+01   5.0175703903e+00    0.3011526    0.1961013  43.94  0.001941335    2.138    0.532
        16 -10.9018    167.7737    235.0520   7.7150392103e+01   7.5088528563e+00    0.3093078    0.1372468  37.58  0.001310046    1.952    0.488
        17 -10.0231    168.4297    230.7829   7.6488526162e+01   7.9554427605e+00    0.2368155    0.1260317 -10.10  0.001223318    2.757    0.637
        18 -10.1409    124.3796    235.6120   8.5868978459e+01   1.2829767572e+01    0.2498088    0.1927984  73.85  0.001690259    2.045    0.511
        19  -9.6826    122.7023    231.3164   8.5772719670e+01   1.3656309013e+01    0.1871572    0.1267507  35.17 0.0006142428    1.177    0.150
        20 -11.0352    176.9545    233.8814   7.5267505867e+01   6.5228459783e+00    0.4084797    0.2117662  22.78  0.002201529    1.496    0.332
        21 -10.3956    206.8272    231.7779   6.9611853344e+01   3.1925421464e+00     0.194866    0.1544122   3.84 0.0007274105    1.266    0.210
        22 -10.5141    247.8067    231.5349   6.2953222054e+01  -1.2584929403e+00    0.1494514   0.09769572 -15.62 0.0008843064    1.406    0.289
        23 -11.1106    237.8287    230.9093   6.4395491973e+01  -1.6370182252e-01    0.2838697    0.1625052  37.70  0.001902153    2.249    0.555
        24  -9.4560    241.9908    229.0000   6.3478464124e+01  -4.2288215683e-01    0.1893011   0.08247919  32.78 0.0007683912    2.079    0.519
        25 -11.0075    237.7847    227.5667   6.3925755507e+01   1.5914605283e-01    0.2786181    0.1769738 -21.54  0.001981828    1.555    0.357
        26 -14.6773     16.9949    171.5645   1.0645854165e+02   3.6609390563e+01     2.419543     1.448556 -41.71  0.005919283    2.311    0.567
        27 -10.0378    110.8218    231.5177   8.8303571179e+01   1.5102503242e+01    0.3634166    0.1582809  24.25  0.001824495    2.039    0.510
        28 -11.1655    197.7140    218.7537   6.9387581514e+01   5.7429757658e+00    0.4803567    0.2150602 -25.95  0.002610713    2.522    0.603
        29 -11.8224    192.7874    228.7473   7.1676394082e+01   5.1926723370e+00    0.4956641    0.2978081  -1.93  0.001501228    1.656    0.396
        30 -10.3263    186.5195    225.2638   7.2346157873e+01   6.3688672211e+00     0.315255    0.1679864  32.42  0.001656148    1.536    0.349
        31 -15.3417     33.9092    212.3802   1.0408214969e+02   2.6934354813e+01     2.886966     1.610106  66.88   0.01758919    1.751    0.429
        32  -9.7825    118.6599    229.2371   8.6409100569e+01   1.4469502880e+01    0.1621959     0.129781  48.50 0.0005822099    1.379    0.275
        33  -9.3813     60.4252    227.8352   9.8964168656e+01   2.1535662079e+01    0.1293261    0.1034651 -48.93  0.000490244    1.692    0.409
        34 -10.0749    208.9699    226.9510   6.8571855501e+01   3.4604090657e+00    0.1657773    0.1166594  11.06 0.0003668327    1.017    0.016
        35 -10.2287    169.4068    225.3096   7.5592248408e+01   8.5219367265e+00    0.3518101    0.1396439  28.07  0.001279913    2.014    0.503
        36 -10.8767    107.3507    223.5390   8.8266061025e+01   1.6764357534e+01    0.2719414    0.2317397 -30.88  0.001261772    1.481    0.325
        37  -9.4874     82.9846    224.0286   9.3696104595e+01   1.9649839588e+01    0.1654625    0.1359545  36.68 0.0003198898    1.089    0.081
        38 -11.0605     62.6429    222.7769   9.8148553262e+01   2.2161031952e+01    0.3973469    0.2011787  40.63  0.002322758    1.463    0.317
        39 -10.2367    243.3528    223.5511   6.2481681831e+01  -5.2234507229e-02    0.2011371   0.07838921  29.68  0.001191652    2.128    0.530
        40  -9.9813    122.9293    223.0169   8.4831928542e+01   1.4860797943e+01    0.2043554    0.1835787  82.58 0.0007107811    1.573    0.364
        41  -9.3904    123.0187    218.6466   8.4322525086e+01   1.5518120897e+01    0.1733266    0.1237611  27.23   0.00111324    1.076    0.070
        42 -10.3402     75.2051    222.8877   9.5342572918e+01   2.0742443096e+01      0.19581    0.1327294  31.37 0.0002511514    1.149    0.130
        43 -10.1117     78.2864    221.3190   9.4528507946e+01   2.0653651897e+01    0.2275833     0.144139  22.98   0.00127217    1.414    0.293
        44 -10.0883     87.3626    221.1219   9.2472474022e+01   1.9615422524e+01    0.2650391    0.1365722  46.17   0.00136891    1.696    0.411
        45  -9.5422    102.8618    220.2910   8.8932518513e+01   1.7847918562e+01    0.1635106    0.1225399  27.33 0.0003265643    1.078    0.072
        46 -10.7877     70.9901    219.2288   9.6016060480e+01   2.1849823491e+01    0.1806656    0.1627421  49.42 0.0004760894    1.192    0.161
        47 -13.7400     26.6479    233.1893   1.0648217681e+02   2.3925519081e+01    0.5674036    0.4374443 -40.63  0.003377868    1.936    0.484
        48 -10.4060    222.4605    216.4468   6.4766425564e+01   3.0022411711e+00    0.3867674    0.1445922  23.15  0.001925398    2.606    0.616
        49 -14.0891     29.8475    248.5863   1.0632998209e+02   2.1141100065e+01    0.9094359    0.2527806  25.17  0.003466967    2.973    0.664
        50  -9.8572     88.6914    215.5169   9.1671054327e+01   2.0403201799e+01    0.2343739    0.1420438  17.71  0.001317946    1.675    0.403
        51 -10.2670     79.9025    214.8240   9.3626129790e+01   2.1583015319e+01    0.5003575    0.2000928  31.13  0.002453471    1.899    0.474
        52 -10.2895    233.0260    209.7112   6.2024430217e+01   2.4785410064e+00    0.2950801    0.1540718   0.58  0.001300718    1.947    0.486
        53 -10.7812    166.2492    213.5519   7.4623569040e+01   1.0481920270e+01    0.2902769    0.2203518 -41.96  0.001955976    1.735    0.424
        54  -9.7320     95.1710    215.3835   9.0180863488e+01   1.9624591093e+01    0.2423588   0.09865157  26.49  0.001120433    2.136    0.532
        55  -9.9573     70.0693    213.8571   9.5818667464e+01   2.2899458749e+01    0.2023646    0.1768794 -73.29   0.00132404    1.425    0.298
        56 -10.2204    185.9507    213.0232   7.0724640087e+01   7.9389812904e+00    0.2891059     0.161254  10.15  0.001625181    1.841    0.457
        57 -10.4968    178.2072    214.0960   7.2354513262e+01   8.8186968583e+00    0.3832478    0.1327594  34.26  0.001671501    2.318    0.569
        58 -15.0210      8.3050    227.6877   1.1016634279e+02   2.6399243585e+01    0.9815002    0.6074846  12.16  0.005713903    1.888    0.470
        59  -9.8354    104.2713    213.5042   8.7923832940e+01   1.8785421239e+01    0.2150622    0.1293786  40.95 0.0002242587    1.382    0.277
        60  -9.7218    221.9854    209.5237   6.3797962850e+01   3.8065298693e+00    0.1664871   0.08630001  27.16 0.0009753815    1.583    0.368
        61  -9.3613    216.1716    212.3970   6.5214561341e+01   4.1938179801e+00    0.1413508   0.08663959  32.91 0.0003837655    1.584    0.369
        62  -9.4749    200.7809    212.1188   6.7862815263e+01   6.1384823471e+00    0.1598127      0.10263   5.55   0.00049016    1.348    0.258
        63 -15.3698     12.2589    237.8050   1.0956540382e+02   2.4379223794e+01     1.108824    0.4379249  57.66  0.006532643    2.001    0.500
        64 -11.0000    129.1235    207.0210   8.1584347869e+01   1.6526942111e+01     0.336885    0.1804021  29.61 0.0009217492    1.489    0.328
        65  -9.4003    207.5765    209.6846   6.6288971926e+01   5.5653121397e+00    0.2015855   0.09509863 -26.20  0.001128625    2.201    0.546
        66  -9.0939    172.2900    210.3471   7.2971408573e+01   1.0101826231e+01    0.1225646   0.07733189   2.52 0.0007026084    1.661    0.398
        67 -14.7945      8.9070    247.0921   1.1040915578e+02   2.3151500580e+01    0.7616799    0.2981558  62.52  0.004731657    2.161    0.537
        68 -14.7258      2.5186    246.0459   1.1162745334e+02   2.3817990559e+01    0.6046855    0.2219383  81.46  0.003581729    2.881    0.653
        69  -9.6114     75.8707    250.4576   9.7120651610e+01   1.6299523214e+01    0.1571546   0.07911486  30.67 0.0002504112    1.414    0.293
        70 -10.8707    234.0618    214.0382   6.2519416086e+01   1.9114975708e+00    0.3378389    0.1940982  27.48  0.001349165    1.495    0.331
        71 -10.1757    100.6390    207.9040   8.8164971148e+01   2.0206631750e+01    0.2223531    0.1391916  35.29 0.0003644807    1.248    0.199
        72 -10.4241    241.1837    204.0915   5.9866521036e+01   2.1180021696e+00    0.2829206    0.1572227  -5.16 0.0008055828    1.620    0.383
        73  -9.8622    241.0429    199.3045   5.9128888263e+01   2.6322569906e+00    0.1524891    0.1218346   5.04 0.0005546326    1.287    0.223
        74 -11.0505    234.8983    203.0003   6.0679719125e+01   2.9662832669e+00    0.2802012    0.1694921  -2.54   0.00078842    1.402    0.287
        75  -9.9192    190.3049    203.5930   6.8495003149e+01   8.5584475646e+00    0.2040034    0.1253683  -5.44  0.001197572    1.712    0.416
        76  -9.2005    148.6220    203.7663   7.6899106996e+01   1.4313186389e+01    0.1275019   0.07999964  12.69 0.0006908266    1.619    0.382
        77 -10.9459    160.0036    199.8384   7.3930486401e+01   1.3286282742e+01    0.5019702    0.2083618  43.96  0.002215773    2.681    0.627
        78 -10.2294    215.2859    196.3607   6.2856058210e+01   6.1427588201e+00     0.305672    0.1716044 -16.34  0.001827683    1.745    0.427
        79  -9.8820    210.4933    195.0044   6.3467316073e+01   6.9327286032e+00    0.2295376     0.161643 -16.82  0.001549887    1.321    0.243
        80 -10.2352    211.0279    190.6405   6.2656839355e+01   7.3936282392e+00    0.3650819    0.1764923  41.07  0.001938476    2.266    0.559
        81  -9.5025    184.0841    198.1005   6.8827392610e+01   1.0130200875e+01    0.1770584    0.1270143   9.92   0.00113334    1.168    0.144
        82  -9.7036    230.8459    195.8192   6.0177339751e+01   4.2350877161e+00    0.1778606    0.1157683   5.21 0.0006782603    1.233    0.189
        83  -9.5675    225.0168    195.9646   6.1152357490e+01   4.9452253764e+00    0.1813776    0.1058092   4.68  0.000590335    1.601    0.375
        84 -10.0514    190.5203    194.7322   6.7062433138e+01   9.6825103848e+00    0.2670042    0.1580488 -38.73  0.001555592    1.977    0.494
        85 -10.1285     71.9916    250.1728   9.7892595450e+01   1.6756065121e+01    0.1550767    0.1220585  18.68 0.0007102568    1.309    0.236
        86  -9.9910    164.6807    193.9695   7.2069062901e+01   1.3479075798e+01    0.3312909     0.203335  52.24  0.001674185    2.451    0.592
        87 -10.8235    242.6334    190.4342   5.7441334386e+01   3.3839519938e+00    0.3342202    0.1712248 -10.48  0.001315899    1.924    0.480
        88 -10.3590    247.2865    190.6545   5.6772354016e+01   2.8051369264e+00    0.1750198    0.1386479   1.82 0.0006342253    1.243    0.195
        89  -9.0390    151.7982    243.5978   8.1234206927e+01   8.4021961367e+00    0.3697868     0.169553  34.23  0.002161358    1.634    0.388
        90 -10.6016    214.8572    182.1119   6.0550090552e+01   7.9254330658e+00     0.244487    0.1777217 -13.79  0.001107914    1.225    0.183
        91  -9.7900    211.6795    179.2963   6.0614005519e+01   8.7196986491e+00    0.2007408    0.1524267   7.61  0.000682826    1.033    0.032
        92  -9.9774    203.4178    183.5242   6.2813418595e+01   9.3409297321e+00    0.2423093     0.102258  35.35  0.001196938    2.121    0.528
        93 -10.8146    191.0723    183.0555   6.5026765096e+01   1.1178181237e+01    0.2201708    0.1512188  29.67 0.0003119331    1.287    0.223
        94  -9.3892     24.5916    181.4162   1.0490632485e+02   3.3883839872e+01    0.1947021    0.1581474 -53.12  0.001155093    1.536    0.349
        95 -10.5815     55.8339    179.1934   9.6533362625e+01   3.1258776577e+01    0.3860597    0.2173643  73.58  0.001933323    2.105    0.525
        96 -10.3056     51.1811    175.7059   9.7488527155e+01   3.2512658163e+01    0.3016809    0.1656689  38.38   0.00103613    1.488    0.328
        97 -13.8219     58.9885    210.5377   9.8157790578e+01   2.4736388653e+01     1.225857     1.085549 -15.44  0.005237299    1.462    0.316
        98 -10.0758      1.8460    178.1677   1.1060306012e+02   3.6302889889e+01    0.1896276    0.1475222 -87.69  0.000627589    1.336    0.252
        99  -9.7669    181.1188    180.0316   6.6447799007e+01   1.3083080767e+01    0.1893857    0.1372238   5.82            0    1.269    0.212
       100  -9.6345    201.9308    178.9906   6.2301154027e+01   1.0148247005e+01    0.1843676    0.1473847   5.32 0.0005977475    1.040    0.039
       101 -10.3101    206.6655    176.4707   6.1004553272e+01   9.7965913603e+00     0.264121     0.168518   5.93 0.0004659983    1.522    0.343
       102  -9.6616    233.3097    177.3886   5.6680348927e+01   6.0117329838e+00    0.2458764     0.134279   6.59 0.0007504079    1.982    0.495
       103 -11.3427    238.5838    173.5903   5.5191838344e+01   5.7592973912e+00    0.3256617    0.1801284  10.58  0.001338764    1.868    0.465
       104  -9.9095    193.9617    175.0099   6.3080816248e+01   1.1862374004e+01    0.1758419    0.1240006   4.51 0.0003881723    1.306    0.234
       105 -11.3110     39.0855    171.4708   1.0045943201e+02   3.4681131220e+01    0.4495279    0.1241275  29.43   0.00178061    2.767    0.639
       106 -10.0939    113.6065    235.9850   8.8147542128e+01   1.4098738109e+01    0.2908885    0.1122622  37.12  0.001499307    1.896    0.473
       107 -11.9987    170.1273    168.9572   6.6750992937e+01   1.6469551415e+01    0.3389975    0.2743205  37.38   0.00115085    1.293    0.226
       108 -14.2597     48.7359    245.9547   1.0241602297e+02   1.9781151773e+01      1.34839    0.7714082  30.98  0.009132216    1.299    0.230
       109 -11.1497    100.8640    244.8098   9.1583172803e+01   1.4330924397e+01    0.3408445    0.3184508 -53.03  0.002632664    1.482    0.325
       110  -9.7025    215.7413    165.9821   5.7527653556e+01   9.8423939105e+00    0.2255193    0.1413151 -12.52  0.001314735    1.524    0.344
       111 -13.7389     85.6142    152.2919   8.5094655097e+01   3.3286217125e+01     1.019952    0.5998811   5.24  0.004113491    2.737    0.635
       112 -12.3648     70.4513    145.3383   8.8618327969e+01   3.6992708013e+01    0.9134616    0.4277478  66.14  0.003070708    3.842    0.740
       113 -12.3437     88.1024    157.4494   8.5135321980e+01   3.1792223243e+01    0.7342834    0.3079284  21.78  0.002614516    3.058    0.673
       114 -12.6831     92.7625    153.6042   8.3242030056e+01   3.1936661717e+01    0.4591476    0.3501439  83.99  0.001576938    1.646    0.392
       115 -12.3983     74.1097    164.5108   9.0017001023e+01   3.2190070910e+01    0.4501789    0.3332062  -6.44  0.002000609    1.773    0.436
       116 -13.8186     74.3043    158.7693   8.9252632061e+01   3.3426253373e+01     1.291509    0.5852798  54.11  0.005162092    2.595    0.615
       117  -9.7496    201.4225    166.0316   6.0067545318e+01   1.1975758789e+01    0.2051409    0.1436636  18.57 0.0006456922    1.256    0.204
       118 -10.9712    157.5117    165.9240   6.8931287953e+01   1.9017306920e+01    0.1871944    0.1313887 -38.14 0.0007767452    1.564    0.360
       119 -10.0204    226.0217    161.9557   5.5074611046e+01   8.8657346916e+00    0.1769585    0.1402221   0.36 0.0003127219    1.030    0.029
       120  -9.0993    229.4813    161.5257   5.4440099467e+01   8.4265393964e+00    0.1723761   0.09624664  26.20 8.055148e-05    1.713    0.416
       121  -8.9246    205.6811    162.3096   5.8604124507e+01   1.1834680694e+01    0.1053521    0.1031349  83.32 0.0007033814    1.641    0.390
       122 -10.0667    248.2216    161.4001   5.1574123184e+01   5.8858195393e+00    0.1327795    0.1014249  35.00 0.0003675571    1.575    0.365
       123 -11.2785    234.9398    165.4422   5.4299848779e+01   7.1954003110e+00     0.439415    0.1972679  20.85  0.002072278    2.795    0.642
       124 -10.0244    207.1292    158.6271   5.7650266336e+01   1.2114282134e+01    0.1928871     0.153731 -24.95 0.0003937742    1.284    0.221
       125  -9.4945    192.1531    246.3002   7.4076728312e+01   3.3331720792e+00    0.1609898    0.1221862 -34.63  0.001244773    1.878    0.467
       126 -10.2503    187.1447    158.1985   6.1292885512e+01   1.5359141992e+01    0.1624237    0.1529848  30.33 0.0004698877    1.343    0.255
       127 -10.4966    247.6504    156.3376   5.0731813655e+01   6.5378495952e+00    0.2704006    0.2131184 -61.24  0.001642826    2.804    0.643
       128 -10.0412    220.8319    156.8206   5.4960199022e+01   1.0273341511e+01    0.2612903    0.1465201  43.64  0.001060245    2.013    0.503
       129 -10.0714    228.2427    153.4268   5.3115626469e+01   9.6097068726e+00    0.4162517    0.1967983  11.14  0.001578865    4.179    0.761
       130 -14.9848     11.1970    206.4034   1.0905308919e+02   3.0007302440e+01     1.317503     1.094986 -70.65  0.009976425    1.506    0.336
       131 -10.2681    236.9541    152.4998   5.1592135557e+01   8.4658418898e+00     0.165486    0.1059518  33.69  0.001028345    1.576    0.366
       132 -12.0118    172.3127    156.3022   6.3935293097e+01   1.8124161059e+01    0.4540977    0.2796792  -3.08  0.002114689    2.191    0.544
       133  -9.2144    177.6672    248.2987   7.6915867060e+01   4.7797199543e+00    0.1003579   0.06950982  38.03 0.0007031342    1.648    0.393
       134 -10.9028    169.0569    153.4976   6.4080646501e+01   1.9136329818e+01    0.2075499    0.1217426  36.99 0.0007923204    1.563    0.360
       135 -11.6105      9.9463    138.9669   1.0704699791e+02   4.4535297115e+01    0.8997083    0.3702682   2.74  0.003656719    3.440    0.709
       136 -10.5243     11.4907    126.7438   1.0592277447e+02   4.7390336078e+01    0.5219111    0.2363203  11.00   0.00235757    2.515    0.602
       137 -11.5981     12.9458    145.1903   1.0641897124e+02   4.2866061831e+01       0.8269    0.3293309 -53.37  0.003569304    2.949    0.661
       138  -9.5856      2.3902    152.4950   1.0980617111e+02   4.1859714672e+01    0.2071944    0.1477122  48.61 -0.0001955283    1.187    0.158
       139 -10.3981      5.7881    135.0954   1.0818356341e+02   4.5711142904e+01    0.5395817    0.2434813 -28.20  0.002218935    3.569    0.720
       140 -10.5972      4.8313    130.3318   1.0829395490e+02   4.6908223685e+01    0.3972552    0.2239595  40.29  0.001252502    1.594    0.373
       141 -11.7167      4.6882    148.4817   1.0901580828e+02   4.2637245897e+01    0.6194742     0.300752  38.80  0.003025839    1.733    0.423
       142 -11.2746      7.1621    144.9370   1.0815333838e+02   4.3305399910e+01    0.3617405    0.2230829  42.68  0.001526269    1.409    0.290
       143 -11.5062     44.4717    151.5089   9.7277429356e+01   3.8647651382e+01    0.2475808    0.2187962   3.68 0.0008434842    1.300    0.230
       144 -10.5099    211.1616    150.8339   5.5439013890e+01   1.2547593584e+01    0.3577508    0.1598192  41.28  0.001717951    2.247    0.555
       145 -11.8782    163.6075    149.9376   6.4559995607e+01   2.0679105356e+01    0.2626495    0.2214951  -3.03  0.001535252    1.137    0.121
       146 -13.7924      4.6841    194.3376   1.1026944938e+02   3.2826033673e+01    0.7278929    0.4586011 -83.87    0.0037141    1.681    0.405
       147 -11.9009    149.6423    148.8849   6.7523936777e+01   2.3333729831e+01    0.3343282    0.2346348 -24.32  0.001099452    1.587    0.370
       148  -9.7083    236.9802    148.9782   5.0918459267e+01   8.8891135395e+00    0.1435234    0.1126579  -3.17  0.000345108    1.010    0.010
       149  -9.2843    226.7730    149.5904   5.2611813719e+01   1.0311877891e+01    0.1414541    0.1112021  39.15 0.0002445135    1.501    0.334
       150 -10.1315    219.6584    244.9430   6.9223513672e+01   4.3340607563e-01    0.1855447    0.1742349 -26.24 0.0009927491    2.230    0.552
       151 -13.4292     23.5545    220.2811   1.0671300207e+02   2.6434159927e+01    0.9279652    0.3610901  72.77  0.004791536    2.796    0.642
       152 -11.5639    158.0801    147.3457   6.5274293503e+01   2.2104794877e+01    0.2409568    0.1872429 -15.61  0.001316128    1.348    0.258
       153 -11.5148    119.1025    146.9886   7.4830443559e+01   2.9068690553e+01    0.2231116    0.1995629  25.31 0.0004880079    1.023    0.023
       154 -11.9863     51.1886    143.8031   9.4413575637e+01   3.9735671729e+01    0.5216935     0.220842 -75.94  0.001802356    2.647    0.622
       155 -12.0312     28.2558    145.8214   1.0176591393e+02   4.1532684588e+01    0.3674608    0.3082929  72.37  0.002294658    1.101    0.092
       156 -10.8490     23.0068    144.8156   1.0331767411e+02   4.2206577271e+01    0.3081611    0.2133551  25.39  0.001761919    1.416    0.294
       157  -9.7254    134.6464    245.8398   8.4838189249e+01   1.0183940836e+01    0.1962651    0.1123593  23.85 0.0005282519    1.327    0.246
       158 -11.5227    190.4784    144.4794   5.7929679350e+01   1.6869181352e+01     0.229874    0.1920564 -21.55 0.0008615353    1.181    0.153
       159 -10.3000    235.3516    243.6622   6.6542115798e+01  -1.0867462087e+00    0.2518277    0.1115833  16.73  0.001582723    1.873    0.466
       160 -13.2108     90.0395    135.9430   8.1134107758e+01   3.6298451548e+01    0.7110155    0.4477534 -60.73   0.00334423    1.747    0.427
       161 -11.8202     41.5272    140.3048   9.7109620196e+01   4.1609959410e+01    0.3196926    0.2499489  56.49  0.001836418    1.179    0.152
       162  -9.8512    172.2539    243.9463   7.7391160598e+01   5.9076013262e+00    0.2450582    0.1060585  15.56  0.001013219    2.744    0.636
       163 -12.1206    154.5739    142.8078   6.5153800619e+01   2.3540130364e+01    0.4481905    0.2897556  16.33  0.002102886    1.809    0.447
       164  -9.8150    246.3770    142.1463   4.8241692320e+01   8.3645970723e+00    0.1593991   0.09072623 -34.14 0.0006378029    1.675    0.403
       165 -11.1494    122.8479    140.9143   7.2670462102e+01   2.9656147665e+01    0.2284706    0.1904693   5.01 0.0006599036    1.285    0.222
       166  -9.7267    208.8961    144.1830   5.4509648017e+01   1.3826341302e+01     0.177598     0.165304   6.71 0.0005261763    1.255    0.203
       167 -11.0068    161.0410    239.2870   7.8953701179e+01   7.8139931720e+00    0.1788887    0.1630622   3.62  0.001443067    1.408    0.290
       168  -9.8482     21.1977    140.2272   1.0358377155e+02   4.3442066940e+01     0.272223    0.1632548  -6.98  0.001329745    2.280    0.561
       169 -11.7138     27.5709    137.5520   1.0135654627e+02   4.3572921906e+01    0.5289025    0.2263956  17.22  0.002258873    2.514    0.602
       170 -12.5444     29.5221    129.2566   1.0001474180e+02   4.5438000656e+01    0.8593498    0.3540371  26.21  0.002923158    2.244    0.554
       171 -12.0918    125.4406    136.3472   7.1063494988e+01   3.0121852828e+01    0.4512288     0.329397  74.98  0.002066947    2.102    0.524
       172 -12.8906    127.6635    127.5608   6.8610655428e+01   3.1503474384e+01    0.6886513    0.4714172 -14.37  0.003051987    2.020    0.505
       173  -9.6222    155.0000    239.9485   8.0198180431e+01   8.4699377113e+00    0.1408531   0.06447785 -45.07 0.0005559447    2.869    0.651
       174 -12.3457    132.0565    133.4007   6.8707094816e+01   2.9494039014e+01    0.5526294    0.3095504  50.50  0.002340196    1.982    0.495
       175 -11.9523     65.8320    134.4312   8.8520053278e+01   4.0186353953e+01    0.5198112    0.2331524  23.02  0.002023334    2.422    0.587
       176  -9.3303    232.8141    134.1945   4.8638870986e+01   1.1345774039e+01     0.171473    0.1215838  -1.03  0.001055883    1.317    0.241
       177 -11.2068     20.6621    127.8622   1.0290251011e+02   4.6491088473e+01    0.4747842    0.2351649 -33.87  0.002018247    2.879    0.653
       178 -11.3588     40.8049    134.7369   9.6774149809e+01   4.3035155500e+01    0.3369569    0.1925632  46.62  0.001123444    1.617    0.381
       179 -12.0034     97.7994    129.8205   7.7636446833e+01   3.6420259465e+01    0.3759067    0.3510689 -79.91  0.001337203    1.175    0.149
       180 -11.0898    100.6796    128.3201   7.6468991613e+01   3.6266103698e+01    0.3121897    0.1972787  50.17   0.00132267    1.644    0.392
       181 -11.4182    172.2281    131.0146   5.8740617647e+01   2.2308059411e+01    0.2442496    0.1933051  32.94 0.0003922373    1.195    0.163
       182 -12.5938    147.3183    128.0256   6.3702624128e+01   2.7623263629e+01    0.4630375    0.3532397  52.21  0.002358967    1.437    0.304
       183 -10.4649    217.0677    238.5085   6.8793935361e+01   1.3422611359e+00    0.1539896     0.115949  15.72 0.0007087861    1.293    0.226
       184 -12.7351     79.1604    138.2402   8.4871640343e+01   3.7425092279e+01    0.6649452    0.3242184  28.74  0.002567935    1.978    0.494
       185 -11.8978    143.5855    138.0540   6.6778435535e+01   2.6438269433e+01    0.3325102    0.2694763 -18.70 0.0009514374    1.317    0.241
       186  -9.6229    119.6008    130.0545   7.1346000468e+01   3.2497901166e+01    0.3421677    0.1684305  51.66  0.001281842    2.447    0.591
       187 -12.8043    157.9684    128.1787   6.1235249587e+01   2.5528210056e+01    0.4840896     0.400051  28.49  0.002657311    1.127    0.113
       188 -10.9809    107.3915    126.8391   7.4164587357e+01   3.5414375451e+01     0.300358    0.1434607 -48.58  0.001188506    2.229    0.551
       189 -10.4813     90.2222    123.9816   7.8847865175e+01   3.9029672915e+01    0.2540746    0.1984522  34.32            0    1.200    0.167
       190 -10.7299     93.4767    122.5096   7.7521919713e+01   3.8825309422e+01    0.3726343    0.2167427 -51.54  0.001097788    1.814    0.449
       191  -9.1253     35.6340    135.2799   9.8531932357e+01   4.3406596928e+01    0.1480736   0.08385477  52.67 0.0007012894    1.682    0.406
       192 -11.5166    138.3045    122.0348   6.4582681889e+01   3.0544517320e+01    0.3293084    0.2409794  62.36  0.001311334    1.743    0.426
       193  -9.1888    212.4217    138.5311   5.2757401585e+01   1.4031908341e+01    0.1281105    0.1060591  -2.73 2.953262e-05    1.015    0.015
       194 -10.5815     19.0077    121.3847   1.0298857938e+02   4.8219128469e+01    0.3296588    0.1734199 -89.99 0.0008143949    1.873    0.466
       195 -10.1664    249.4041    122.0744   4.3877913804e+01   1.0303154887e+01    0.2323782    0.1445916  24.76  0.000921827    1.756    0.431
       196  -9.1818    211.3136    122.3219   4.9518167866e+01   1.6479435702e+01    0.1348707   0.09128875   5.93 0.0006358099    1.656    0.396
       197 -14.3976     34.8428    233.4653   1.0476829254e+02   2.3135236752e+01     1.232508    0.9233647 -36.40  0.008801982    2.017    0.504
       198  -9.1178      1.4277    122.5167   1.0910641069e+02   4.8979676613e+01    0.1232748    0.1105074  86.42 8.675414e-06    1.076    0.071
       199  -8.8856    229.3215    121.6927   4.6581448481e+01   1.3503233369e+01    0.1143072    0.0942615 -52.45 0.0007033531    1.641    0.391
       200  -9.7261     61.7902    121.3900   8.7870885951e+01   4.3901170227e+01    0.3046364    0.1981773 -17.22  0.001025979    2.269    0.559
       201 -10.6411    205.0120    119.6955   4.9995040609e+01   1.7978892532e+01    0.1848315    0.1611129   7.89 0.0006031418    1.061    0.057
       202 -11.0716    114.0940    245.3229   8.8919105484e+01   1.2707260862e+01    0.4812378    0.3226281 -32.80  0.001701041    2.024    0.506
       203 -10.5919    179.1772    118.2014   5.4416624892e+01   2.3093991088e+01    0.2128107    0.1773467   6.58 0.0005524766    1.179    0.152
       204 -10.0084     54.6653    118.4183   8.9913185102e+01   4.5545205782e+01    0.2794245    0.1222985  32.60 0.0007638633    2.083    0.520
       205 -10.3111    139.7762    117.6085   6.3173000151e+01   3.1117732237e+01    0.2117886    0.1357147  49.50 0.0007426336    1.610    0.379
       206  -9.3315     10.4763    117.4790   1.0573254806e+02   4.9742484590e+01    0.1297501    0.1141358  70.54 -3.63313e-05    1.019    0.019
       207 -11.6126    195.1078    114.4729   5.0541810742e+01   2.0595376083e+01    0.3648078    0.2730854 -65.06  0.001238566    2.067    0.516
       208 -11.3157    147.0026    115.4533   6.0862300571e+01   3.0062278201e+01    0.3442509    0.2403521  65.03  0.001120699    1.973    0.493
       209  -9.2252      6.4682    116.4799   1.0709542029e+02   5.0212310998e+01    0.1296721    0.1112676  68.50 0.0004408971    1.044    0.042
       210 -11.1774     28.6608    114.1761   9.8854968261e+01   4.9296439578e+01    0.3227648     0.229009  13.28 0.0007238257    1.540    0.351
       211 -10.9030     32.9485    112.5520   9.7076771226e+01   4.9339162257e+01    0.3577759    0.1797641 -63.30  0.001618224    1.890    0.471
       212 -11.6024    130.4758    112.9792   6.4488659807e+01   3.3927510055e+01    0.2721659    0.2346486 -45.19  0.001421327    1.237    0.192
       213  -9.7205    225.6156    228.2268   6.5962763345e+01   1.4236664327e+00    0.1957697    0.1152567  -4.98 0.0006187969    1.474    0.322
       214 -10.9881     39.3970    112.9533   9.4713749564e+01   4.8625380756e+01    0.3176663    0.2256486  59.75  0.001645024    1.421    0.296
       215 -10.9980    211.5301    113.3848   4.7511075816e+01   1.7696070378e+01    0.3076108    0.1118464  43.96  0.001255153    2.835    0.647
       216 -10.2527    113.7725    111.8475   6.8926743553e+01   3.7505405950e+01    0.4690412    0.1939116 -39.12  0.001586607    2.961    0.662
       217  -9.8537     20.1951    113.1481   1.0189236324e+02   5.0208787988e+01     0.191328    0.1757979 -60.59  0.000581243    1.146    0.128
       218 -11.1766    180.4756    109.4865   5.2099404610e+01   2.4252154799e+01    0.2274875     0.215956 -62.88 0.0007441038    1.269    0.212
       219 -11.5128    174.1843    110.5911   5.3618930556e+01   2.5347911601e+01     0.325193    0.2081403  29.70  0.001084158    1.691    0.409
       220 -10.6903     68.2995    112.3762   8.3997919849e+01   4.5235925197e+01    0.3489542    0.1688184  42.27  0.000786469    1.980    0.495
       221 -10.6772     66.0000    108.9992   8.4185370260e+01   4.6403663660e+01    0.3338827    0.1683465 -63.07  0.001369014    2.046    0.511
       222  -9.2649     49.2324    112.6333   9.1004320261e+01   4.7649010915e+01    0.1795892    0.1343689  12.53 0.0001106979    1.480    0.324
       223 -10.9365    163.7098    109.9987   5.5680753213e+01   2.7605031898e+01    0.2075108    0.1877375 -19.73  0.000613649    1.092    0.084
       224 -10.4235    231.5319    237.8620   6.6356456217e+01  -1.5437450707e-01    0.2046462    0.1356179  24.74 0.0007656111    1.415    0.293
       225 -10.3594     52.6876    109.9713   8.9292840956e+01   4.7915446870e+01    0.2819243    0.1631591  41.51  0.001176976    1.655    0.396
       226 -10.3122    105.0217    107.9656   7.0651605757e+01   4.0056695288e+01    0.2233939    0.2099191  35.82  0.001196398    1.009    0.009
       227 -11.7390    227.0193    234.5539   6.6623032498e+01   6.4461996936e-01    0.4007736    0.2508491   3.60  0.001660599    1.205    0.170
       228 -11.5902    139.8258    105.8381   6.0260481444e+01   3.3403753883e+01    0.3155953    0.2164138 -25.53  0.001430319    1.680    0.405
       229 -10.4988      9.6187    104.7483   1.0522786497e+02   5.2995163315e+01    0.3467985    0.2679643 -59.72  0.001928753    1.295    0.228
       230 -10.6143    187.6933    105.9839   4.9888144544e+01   2.3353258429e+01    0.1986539    0.1717502 -15.51 0.0004848696    1.088    0.081
       231  -9.0948    229.0718    104.9978   4.3023821687e+01   1.5710481344e+01    0.1446232    0.1269442  -7.14 0.0004028495    1.052    0.049
       232 -10.7944    132.8419    104.6908   6.1781281867e+01   3.5109288266e+01    0.2946471    0.2087007 -72.55  0.001250722    2.165    0.538
       233 -11.3600    113.0041    104.4670   6.7339210859e+01   3.9260653431e+01     0.444204    0.2677567  28.19  0.001828049    1.873    0.466
       234 -10.0500    153.4966    104.4573   5.6587172761e+01   3.0748482935e+01    0.1482915    0.1395226  16.65 2.641946e-05    1.004    0.004
       235 -10.1445     17.8709    103.6647   1.0193298400e+02   5.2785612916e+01    0.2470217    0.1701584 -66.80  0.001334998    1.378    0.274
       236  -9.9306     81.0175    102.8663   7.7461455654e+01   4.5579792815e+01    0.2191319    0.2104356  49.00 0.0003118129    1.018    0.018
       237 -10.5695    245.1241    236.0885   6.3999293441e+01  -1.3972546750e+00    0.2231098    0.1192708  -8.66 0.0006852403    1.597    0.374
       238  -9.4600    185.0101    102.4809   4.9532331614e+01   2.4446732142e+01    0.2088665    0.1344205  45.36  0.000707048    1.571    0.364
       239  -9.3222     90.5003    102.4793   7.4065200973e+01   4.4020934667e+01    0.1521815    0.1454107  39.22 0.0001192361    1.004    0.004
       240  -9.1929    233.2541    101.0398   4.1585049034e+01   1.5493699419e+01    0.1587001   0.09296544 -26.97 0.0003616452    1.478    0.323
       241 -10.1321    121.8038    100.3611   6.3695288233e+01   3.8323812207e+01      0.26344    0.1863175  32.97 0.0004308011    1.425    0.298
       242  -9.9628     35.3823    104.7742   9.5162489202e+01   5.1110239923e+01    0.2887684    0.1710089 -21.26  0.001257649    2.332    0.571
       243 -10.9032    197.5467     99.4510   4.6573596168e+01   2.2370567831e+01    0.2314889    0.1249926 -32.99 4.185076e-05    1.734    0.423
       244 -10.1031    185.9782     98.6802   4.8415119743e+01   2.4842232759e+01    0.1935456    0.1810277  23.08 0.0005238128    1.074    0.069
       245  -9.8162     52.4697     99.5346   8.7547270890e+01   5.0598143810e+01    0.1413153    0.1390276  76.08 3.586466e-05    1.018    0.018
       246 -10.8641    142.6095     98.5131   5.7647642005e+01   3.4212416569e+01    0.3262951    0.1456004  47.08  0.001214486    2.184    0.542
       247  -8.8052     46.5529     97.5040   8.9555945690e+01   5.1823257096e+01    0.1411825    0.1356221  78.09 2.573797e-05    1.013    0.013
       248 -10.2798    113.9269     94.1199   6.4330031169e+01   4.1298861378e+01    0.2858835     0.209859  35.95  0.000876505    1.335    0.251
       249  -9.3245     42.4892     93.9583   9.0607066310e+01   5.3187429473e+01    0.2171893    0.1380215 -73.41  0.001022672    1.584    0.369
       250 -11.1535    178.8530     91.8289   4.7997439001e+01   2.7428502236e+01    0.2443449    0.1874115  35.78 0.0003607667    1.332    0.249
       251 -11.4993    174.9971     91.5061   4.8649150057e+01   2.8316945074e+01    0.2855295    0.1964161 -49.31  0.001088799    1.624    0.384
       252 -11.1605    164.0044     91.0433   5.0741664969e+01   3.0817101442e+01    0.3028667    0.2030895 -35.43 0.0008915196    1.484    0.326
       253 -10.8315     92.7094     90.9380   7.0349209694e+01   4.6291623218e+01    0.6620352    0.3834639  54.53  0.002635777    2.041    0.510
       254 -11.2851    140.0530     90.4529   5.6082744732e+01   3.6308509494e+01    0.3635195     0.255869  72.91  0.001358381    1.993    0.498
       255  -9.9140     50.1486     90.7761   8.6795165199e+01   5.3122890584e+01    0.2933042    0.1633486 -39.70  0.001228489    2.083    0.520
       256 -10.4221     56.6055     89.1286   8.3746737331e+01   5.2707694155e+01    0.2912421    0.2149228  19.64  0.001431316    1.440    0.306
       257 -11.7313    152.2942     85.8969   5.1879433036e+01   3.4355804934e+01    0.4239305    0.2534617 -39.43  0.001260048    1.689    0.408
       258 -10.6852    106.7644     84.6534   6.3866312635e+01   4.4841728615e+01    0.4910748    0.3293234  81.14  0.001841239    2.688    0.628
       259 -10.5168     18.1094     85.1032   9.9887170487e+01   5.7567064271e+01    0.2986735     0.184076  24.96   0.00151471    1.670    0.401
       260 -10.8317    136.9943     83.5573   5.4880955208e+01   3.8305389348e+01    0.3368578    0.1994909 -19.96  0.001280218    2.417    0.586
       261 -11.0402    119.4037     81.8515   5.9165650185e+01   4.2655277107e+01    0.3870828    0.2671892  -1.87  0.001548426    2.273    0.560
       262  -9.6399     67.0463     82.7840   7.7887096849e+01   5.2755470523e+01    0.2598801    0.1774721 -10.75  0.001096096    2.107    0.525
       263  -9.5501    204.7925     82.6059   4.1290562508e+01   2.3321889348e+01    0.1643092    0.1315776  72.59 0.0001443853    1.524    0.344
       264  -9.6376    198.5117     82.4930   4.2221157152e+01   2.4640740054e+01    0.1357836     0.125725 -20.30 0.0003259933    1.009    0.009
       265 -11.3970     45.8783     79.9068   8.6357044563e+01   5.6417457359e+01    0.4313921    0.2347196 -27.45  0.001033629    2.649    0.623
       266 -10.2575     17.3330     78.5118   9.9423476352e+01   5.9326593358e+01    0.2487733    0.2037583 -67.35 0.0008841621    1.130    0.115
       267 -11.6458    155.6718     77.2570   4.8659778177e+01   3.5063758216e+01    0.3005551    0.2683634 -87.79   0.00116033    1.285    0.222
       268 -10.0200    176.4859     77.4797   4.4608673469e+01   3.0203448844e+01    0.1417624    0.1369567 -37.58 0.0001496876    1.052    0.049
       269  -9.5513     68.4723     76.4763   7.5573678467e+01   5.4057443467e+01    0.1484385    0.1456077  48.69 0.0001188769    1.030    0.029
       270 -10.0437    167.3183     75.3283   4.5727190642e+01   3.2650371625e+01    0.1522935    0.1123082  16.70  0.000449664    1.682    0.406
       271 -11.3638    147.7986     70.5028   4.8375161785e+01   3.8085555667e+01     0.351005     0.274587 -15.65 0.0005580708    1.441    0.306
       272 -10.0459     10.8623     77.2914   1.0233500747e+02   5.9991669960e+01    0.3442369    0.1729285  47.81  0.001580634    2.103    0.524
       273 -12.1961     54.9358     71.7858   8.0206645607e+01   5.7283575795e+01    0.6472785    0.3865452  78.60  0.002381642    3.051    0.672
       274 -10.3520     33.6049     70.7201   9.0189436251e+01   6.0086811232e+01    0.2455029    0.1494417  43.71  0.000650077    1.742    0.426
       275  -9.7974    134.9605     71.0000   5.1581393588e+01   4.1097326418e+01    0.2611753   0.08592427  51.80  0.000804758    2.959    0.662
       276  -9.3146     88.3158     70.3057   6.5787195005e+01   5.1812736539e+01    0.1563542    0.1222163  -1.18 0.0003120261    1.626    0.385
       277 -10.9741     25.0364     68.4341   9.4059475253e+01   6.1413101808e+01    0.3967453    0.1850697 -77.20    0.0016468    2.216    0.549
       278  -9.1262     84.4146     69.4362   6.6980937321e+01   5.2788097974e+01    0.1509105    0.1469964  53.02 5.996393e-07    1.051    0.049
       279  -9.0592     58.3171     68.2897   7.7660064525e+01   5.7644838544e+01    0.1504446    0.1128055 -18.84 0.0003201193    1.595    0.373
       280 -10.5626    172.2706     66.8577   4.2384705996e+01   3.2798962527e+01    0.2931487    0.1763003  32.35 0.0005579555    2.110    0.526
       281 -12.1616    104.2027    234.1019   8.9953997658e+01   1.5519224061e+01    0.3409887     0.245143 -81.15 0.0008841463    2.094    0.523
       282 -10.2311     42.6399     74.8452   8.6717272803e+01   5.8085207020e+01    0.2035496    0.1339412 -79.51 0.0004704464    1.698    0.411
       283  -9.9305    104.0265     59.6726   5.6618914062e+01   5.0586447164e+01    0.2403733    0.2125779 -55.76 0.0003798638    1.223    0.183
       284 -10.1347    118.7747     56.7016   5.1095566700e+01   4.7606021690e+01    0.3409751    0.2161974  65.42 0.0009837252    1.824    0.452
       285 -10.3919    163.7374     56.4324   4.0828559471e+01   3.6410379427e+01    0.2087371    0.1321328  48.48 0.0009468856    1.595    0.373
       286  -9.8697    200.5048     55.5184   3.4916323850e+01   2.7873058403e+01    0.1334848    0.1251099 -32.16 6.444492e-05    1.022    0.022
       287 -10.7131    150.8296     55.0481   4.2867331851e+01   3.9836279179e+01    0.2396117    0.1989231 -61.20 0.0009203918    1.307    0.235
       288  -9.3850     46.3073     55.3394   7.9596996746e+01   6.2486968054e+01    0.1533872     0.104898 -26.52 0.0007042523    1.682    0.406
       289  -9.1865    125.0496     53.9651   4.8430385197e+01   4.6521676427e+01     0.184879    0.1754367  52.90 0.0004202193    1.017    0.016
       290 -10.7945     35.6354     53.4369   8.4830777602e+01   6.4239095480e+01    0.2820494    0.1678423 -58.77  0.001328088    1.584    0.369
       291  -9.1984     50.3064     52.3224   7.6493529871e+01   6.2646463934e+01    0.1514318    0.1079361 -21.94 0.0004667408    1.641    0.391
       292  -9.1475      2.3317     51.7610   1.0394357037e+02   6.6851333642e+01    0.1250445   0.08964951  48.88  0.000292968    1.537    0.349
       293 -10.1756    106.8559     48.8437   5.1691440618e+01   5.1922528584e+01    0.2072377     0.183457 -82.04 0.0002724581    1.297    0.229
       294 -10.1130     88.5075     48.3451   5.7739246491e+01   5.6321393884e+01    0.2864808    0.2482028 -67.95 0.0007275856    1.353    0.261
       295 -10.8108     42.8848     48.0217   7.9028016650e+01   6.4683032086e+01    0.3605822    0.2093709 -67.57  0.001097481    2.020    0.505
       296 -10.8505    110.8138     44.3057   4.8745095646e+01   5.1722688250e+01    0.4188602    0.2087287 -34.36  0.001394015    2.105    0.525
       297  -9.7804    165.1143     46.8330   3.7624320023e+01   3.7431228862e+01    0.2166929     0.188847 -64.45 0.0003385294    1.181    0.154
       298  -9.0760    123.2756     46.6579   4.6244699389e+01   4.8178966260e+01    0.1559211     0.118096 -67.85 0.0007000887    1.620    0.383
       299  -9.6365     16.3307     46.0387   9.4437155341e+01   6.7709001269e+01    0.2783913    0.1237216  43.39  0.001154307    2.640    0.621
       300  -8.7269     63.2653     45.3469   6.7302412669e+01   6.2087604647e+01    0.1503791    0.1125336 -14.41  0.000698242    1.610    0.379
       301 -10.7218    100.8317     42.8426   5.1213448323e+01   5.4439471327e+01    0.2732343    0.2371449 -75.73 0.0006813462    1.353    0.261
       302  -9.4751      8.5407     43.4726   9.8888080917e+01   6.8741670588e+01     0.129952    0.1178271 -60.38 0.0001522119    1.030    0.029
       303  -9.5799    206.2541     41.9882   3.0636819833e+01   2.8252265852e+01    0.1733617    0.1047871 -29.13 0.0003980856    1.525    0.344
       304  -9.0151     44.2979     42.3266   7.6143560956e+01   6.5814777578e+01    0.1490208    0.1040509 -22.65 0.0003971851    1.632    0.387
       305 -10.4047     36.6059     43.2053   8.1005749487e+01   6.6600281845e+01    0.2096385    0.1167757 -47.58 0.0005318173    1.685    0.406
       306 -10.4462     68.4022     39.2021   6.2248867166e+01   6.2372193714e+01    0.3068931    0.1367274 -50.89  0.001113481    2.644    0.622
       307 -10.7027    158.5333     36.9870   3.5565654123e+01   4.0419575727e+01    0.2630875    0.1910152  48.36 0.0003423354    1.410    0.291
       308 -10.1545     60.2490     36.1859   6.4847595984e+01   6.4541609215e+01    0.1920381    0.1748067  75.63 0.0004969073    1.337    0.252
       309 -10.0136     56.5102     35.9006   6.6656915094e+01   6.5276630403e+01    0.1988583    0.1869591 -25.75 0.0004556552    1.068    0.063
       310  -8.8770     11.2849     36.3009   9.5544003711e+01   7.0400084490e+01    0.1395503   0.08261111 -40.63 0.0003025399    1.554    0.356
       311  -9.4178    109.1703     33.2219   4.4724448050e+01   5.3895023826e+01    0.2051303    0.1767438 -82.88 0.0004369158    1.313    0.239
       312  -9.0630     35.5743     31.5190   7.7127432571e+01   6.9408212723e+01    0.1379636    0.1263471 -22.58 4.491586e-05    1.011    0.011
       313 -10.4991    199.0932     28.7872   2.7837540525e+01   3.1378730058e+01    0.2199105    0.1828202 -26.90 0.0002925614    1.191    0.160
       314  -9.5497    117.3078     29.3253   4.0989752395e+01   5.2327315302e+01    0.1582424    0.1117579  29.08 0.0003624751    1.651    0.394
       315  -9.5051    159.0905     27.8834   3.2472974037e+01   4.1401317451e+01    0.2177823     0.180932 -68.72 0.0002786218    1.220    0.180
       316  -9.5494    244.5829     27.2448   2.3672684016e+01   2.1916962855e+01    0.1557041     0.102448 -17.81 0.0005321993    1.530    0.346
       317  -9.7198     63.2440     26.4260   5.8606669409e+01   6.5819829567e+01    0.2091536    0.1357709  54.50 0.0009526442    1.732    0.423
       318  -9.8739     67.7008     24.6672   5.5572930032e+01   6.5196526877e+01    0.2602303    0.1932555 -47.67  0.000890812    1.518    0.341
       319 -10.8147    189.3230     23.7998   2.7439627468e+01   3.4233953626e+01     0.228998    0.2127619 -74.52 0.0002162693    1.039    0.037
       320 -10.0699     83.9863     23.9729   4.8522222918e+01   6.1591894106e+01    0.1783511    0.1694424  24.81 0.0003958774    1.034    0.033
       321 -10.2949     45.8447     24.0956   6.6991813073e+01   6.9472672620e+01    0.2044441      0.19575  89.67   0.00119005    1.296    0.228
       322  -9.7481     24.8918     22.1081   8.0589561220e+01   7.2721447852e+01    0.1949989    0.1822142 -75.65  0.001206935    1.266    0.210
       323  -9.9306     76.8074     21.4371   4.9973034187e+01   6.3678500215e+01    0.2192932    0.1259945  41.30 0.0009474996    1.687    0.407
       324  -9.1282     40.2936     21.7025   6.9278866866e+01   7.0827429846e+01    0.1279122    0.1113755  72.69 0.0001635724    1.564    0.361
       325  -9.4509     35.5937     20.2195   7.1709919262e+01   7.1814927517e+01    0.2108665    0.1142916 -37.77 0.0009586081    1.852    0.460
       326  -8.8048    206.6407    249.2991   7.1952044345e+01   1.4132971079e+00   0.09414864   0.06819801  33.19  4.53811e-05    1.711    0.416
       327  -9.0473     41.2578     18.3226   6.6778562850e+01   7.1336968783e+01    0.1386877    0.1001565 -12.80 0.0001505134    1.548    0.354
       328  -9.3394    108.0153     15.7614   3.7400832990e+01   5.6532876072e+01    0.1962098    0.1180035  63.75 0.0004063635    1.544    0.352
       329  -9.1480     55.4833     14.4913   5.5952362722e+01   6.9424898907e+01     0.143247    0.1276616  15.23 1.886664e-05    1.038    0.037
       330  -9.7347     24.6728     14.1565   7.6806135935e+01   7.4451034554e+01    0.2212208    0.1703082  26.42   0.00127549    1.328    0.247
       331  -9.0364     28.7099     19.3514   7.6323435906e+01   7.2891598438e+01    0.1280471    0.1070723  71.97 0.0007027041    1.671    0.402
       332 -10.6745    170.1955    248.1645   7.8270942006e+01   5.6650459285e+00    0.3011996    0.1329651  25.53  0.001403304    1.690    0.408
       333 -11.1370    101.7501    226.7553   8.9801319943e+01   1.6952080687e+01    0.2025571      0.15003  39.74 0.0003322386    1.151    0.131
       334 -10.4648    122.2445    247.6463   8.7488230813e+01   1.1423870600e+01    0.4245906    0.1483074  40.85  0.001594076    2.367    0.578
