#   1 NUMBER                 Running object number                                     
#   2 MAG_AUTO               Kron-like elliptical aperture magnitude                    [mag]
#   3 X_IMAGE                Object position along x                                    [pixel]
#   4 Y_IMAGE                Object position along y                                    [pixel]
#   5 X_WORLD                Barycenter position along world x axis                     [deg]
#   6 Y_WORLD                Barycenter position along world y axis                     [deg]
#   7 A_WORLD                Profile RMS along major axis (world units)                 [deg]
#   8 B_WORLD                Profile RMS along minor axis (world units)                 [deg]
#   9 THETA_WORLD            Position angle (CCW/world-x)                               [deg]
#  10 FWHM_WORLD             FWHM assuming a gaussian core                              [deg]
#  11 ELONGATION             A_IMAGE/B_IMAGE                                           
#  12 ELLIPTICITY            1 - B_IMAGE/A_IMAGE                                       
         1 -14.7617     10.3177    153.2881   1.4542967367e+02   4.2202737431e+01     5.814395     1.755242 -85.57    0.0230356    3.498    0.714
         2 -13.2103    192.3562     28.7127   7.0510760277e+01   3.3843809325e+01     1.326792     1.265435 -86.87  0.007547249    1.041    0.039
         3 -13.4563    206.4104      9.9821   6.3575480852e+01   3.2369230896e+01      1.57558     1.082209  39.74  0.008131571    1.789    0.441
         4 -12.0141      2.4336      4.7304   1.1849111708e+02   7.4066905683e+01    0.5417417    0.3946055  25.05  0.004086973    1.731    0.422
         5 -11.4700      2.0022     12.7623   1.2229892892e+02   7.2759977761e+01    0.5592454    0.1296012 -54.35  0.002348782    3.526    0.716
         6  -9.2690     33.8207      8.8396   1.0396420570e+02   7.0464575970e+01    0.1461306    0.1266884 -27.42 0.0004617213    1.325    0.245
         7  -9.8302     29.7635    249.8880   1.4788987281e+02   2.1326453176e+01    0.2985182    0.1082851  50.91  0.001815629    1.920    0.479
         8 -10.5863    249.2803    248.9511   1.1092809822e+02  -1.0231778793e+01    0.3050985    0.1793367  28.76  0.002063267    1.315    0.240
         9 -11.4379    139.4244    248.8658   1.2946596202e+02   6.5006098443e+00     0.363825    0.2809097 -89.71  0.002530927    1.607    0.378
        10 -11.0685    123.4472    249.8867   1.3235090700e+02   8.8123477099e+00    0.4668161    0.1247819  41.17  0.001944275    3.055    0.673
        11 -10.5390    110.0807    250.4707   1.3471264661e+02   1.0729455443e+01    0.3400425    0.1000099  44.74  0.001400133    2.534    0.605
        12 -10.2566     98.1569    249.4904   1.3666431259e+02   1.2623526801e+01    0.1883476     0.176467  27.13   0.00147226    1.563    0.360
        13 -10.4923     34.9485    244.4245   1.4679203454e+02   2.1664214664e+01    0.3395799    0.2374839 -59.88  0.002514805    2.075    0.518
        14  -9.2950      2.3833    249.8072   1.5201932567e+02   2.4187660949e+01    0.1482632   0.09743951 -77.01 0.0009849458    1.673    0.402
        15  -9.0548      5.5008    248.4383   1.5151021617e+02   2.4109888170e+01    0.1534698   0.07677179  43.32 0.0006132606    1.810    0.447
        16  -9.1918     82.6672    242.6973   1.3873889496e+02   1.5922105799e+01   0.09525126   0.08660986  27.26 0.0003863408    1.657    0.396
        17  -9.7116      5.8286    240.9346   1.5117650376e+02   2.5343478259e+01    0.1575937    0.1043135  60.02  0.000366759    1.189    0.159
        18  -9.1698     11.9820    240.5221   1.5021492039e+02   2.4801724356e+01    0.1410038   0.08066992  45.24  0.001032106    1.613    0.380
        19  -9.5926    120.0000    239.0057   1.3182129151e+02   1.1031249584e+01    0.1650397   0.06680553 -58.38 0.0008090145    2.988    0.665
        20  -9.2801     70.5900    238.7843   1.4050400309e+02   1.8230062636e+01    0.1495692   0.08875147  86.91 0.0009476659    1.669    0.401
        21  -8.6216    183.2819    238.3771   1.2043862581e+02   9.5194553568e-01    0.1167498   0.08297024  11.70 0.0007011645    1.713    0.416
        22 -10.0473    232.8405    235.9154   1.1158433892e+02  -6.5184012417e+00    0.2326666    0.1518073 -56.01  0.001249531    3.343    0.701
        23  -9.6869    194.8468    237.1817   1.1824244426e+02  -7.5723820529e-01    0.1692147    0.1219735  20.61  0.001087637    1.361    0.265
        24 -11.8240     56.4445    226.1567   1.4200765511e+02   2.2313907383e+01     1.706261     1.033692 -45.38  0.007956604    3.135    0.681
        25 -14.1573      9.9614    206.4887   1.4894742987e+02   3.1210023212e+01     10.95994          nan  41.02   0.03137147    9.419    0.894
        26 -10.5123    198.8070    247.0898   1.1895943071e+02  -2.6131731574e+00    0.2868115    0.1711324 -36.17  0.001797275    2.073    0.518
        27  -8.5331    152.4734    212.9654   1.2250146579e+02   9.9554507571e+00    0.1608099    0.1281011 -55.00 0.0003773142    1.470    0.320
        28  -8.6015      4.4802    228.5025   1.5088692725e+02   2.7646814490e+01    0.1039248   0.06878983  72.35 0.0008103588    1.002    0.002
        29 -11.5512     19.4157    199.2987   1.4684098059e+02   3.1693720093e+01    0.3595555    0.1533604  55.64  0.001027676    1.920    0.479
        30 -12.3635     38.8531    233.0076   1.4550004853e+02   2.3206248432e+01    0.2635421    0.2088754 -89.37 0.0007274762    1.313    0.238
        31 -11.2261     64.4371    198.5915   1.3814692741e+02   2.6594304136e+01    0.3004753    0.2227557 -52.69  0.001077264    1.772    0.436
        32  -9.7623    192.9563    195.0895   1.1184127111e+02   5.5905464687e+00    0.6424885    0.3057297 -60.87  0.001789014    7.494    0.867
        33  -8.3639     51.0260    196.9696   1.4064639935e+02   2.8640493943e+01    0.1410624    0.1079253  68.09 0.0003576251    1.075    0.070
        34 -13.9979     44.6156    225.0674   1.4400628233e+02   2.3967247571e+01     2.008593     1.426583  40.21  0.006594443    1.607    0.378
        35 -11.4803     70.1219    190.6121   1.3617587053e+02   2.7464015714e+01    0.2561293    0.2238172 -80.69 0.0004294716    1.236    0.191
        36 -10.5794     79.6866    177.8802   1.3264581410e+02   2.8804963016e+01    0.2314266    0.2010206 -86.24 0.0004231692    1.119    0.107
        37 -12.9624     66.7569    175.8778   1.3522459612e+02   3.1061004417e+01    0.4536684    0.2639404 -48.50   0.00142606    2.221    0.550
        38  -8.7008    101.8570    178.1879   1.2783002606e+02   2.5294624746e+01    0.2025352    0.1555375  72.15 0.0004923288    1.234    0.189
        39 -11.5866     87.4230    168.0943   1.2958937592e+02   2.9777976347e+01    0.6445863    0.5889109  47.90  0.004059034    1.251    0.201
        40  -9.2195      7.9542    226.0407   1.5022470925e+02   2.7753677040e+01    0.1556933    0.1063336  70.87 0.0003655968    1.038    0.037
        41  -9.7171     99.2293    152.2970   1.2430995755e+02   3.1409948409e+01    0.3046255    0.2340516 -62.52 0.0008458969    1.263    0.208
        42  -8.7657    101.9988    148.0347   1.2287986638e+02   3.1905008271e+01    0.2050383    0.1715269 -25.93  0.000506514    1.605    0.377
        43 -11.7952     87.8896    151.6442   1.2694035453e+02   3.3401444178e+01    0.2777126    0.2451829 -48.57 0.0006050098    1.316    0.240
        44  -9.5360    187.3675    150.7208   1.0416852134e+02   1.4334805915e+01    0.3815427    0.2597645 -76.49  0.001416535    2.554    0.609
        45  -9.5554    229.7016    230.6614   1.1127923459e+02  -5.4465073822e+00    0.1953643    0.1383804 -54.53  0.001159434    2.514    0.602
        46 -12.4692     66.4752    143.2461   1.3088730603e+02   3.8474207720e+01     1.159695    0.6251853  79.94  0.002984263    2.645    0.622
        47  -8.2671    191.7925    143.9887   1.0178494672e+02   1.4634458404e+01    0.1855426    0.1167639 -38.73 0.0003657439    1.604    0.377
        48  -9.4362    110.3620    137.1469   1.1870825131e+02   3.2898548170e+01    0.3270796    0.2342302 -29.20  0.001523154    1.933    0.483
        49  -9.7602     84.6121    135.2083   1.2489488275e+02   3.7713781403e+01    0.3139336    0.2000137  61.51  0.001297622    1.748    0.428
        50 -10.7818     96.3784    134.3234   1.2168823224e+02   3.6007898227e+01    0.4673647    0.2486884  46.84  0.001277269    1.918    0.479
        51 -10.2158     34.4775    133.1351   1.3758658428e+02   4.4584058803e+01    0.3913011   0.09658284  46.46  0.001410074    4.327    0.769
        52  -8.9028    160.1111    125.0733   1.0403867066e+02   2.5311471573e+01     0.244165    0.1870188 -85.91 0.0006835085    1.712    0.416
        53  -8.9593    107.1436    123.9734   1.1671835695e+02   3.6496279210e+01     0.204665    0.1924016 -75.06 0.0003188972    1.021    0.020
        54 -10.7694     53.6659    121.4185   1.3072703731e+02   4.5232251696e+01    0.5038033    0.1668489 -68.51  0.001815152    3.114    0.679
        55 -10.3778    167.8595    113.0640   9.9296213461e+01   2.5977337623e+01    0.3638392    0.2990138 -79.76 0.0007356385    1.447    0.309
        56  -8.8981    203.5399    111.2400   9.1644042534e+01   1.7992533636e+01    0.2101555    0.1441585 -22.43 0.0009367185    1.628    0.386
        57 -10.2038    173.7653    222.6417   1.1990581010e+02   4.7530472819e+00    0.3760619    0.2474466  61.27  0.001792219    1.845    0.458
        58  -8.7022     94.5761    216.7927   1.3414214529e+02   1.8765643678e+01    0.1608472    0.1033806 -88.90 0.0005664799    1.683    0.406
        59  -9.7074     73.4318     86.3924   1.1725003612e+02   5.0719164317e+01    0.2734862    0.2133497  71.56 0.0008209143    1.618    0.382
        60  -8.4308    184.5143     77.4786   8.6093267726e+01   2.8599103589e+01    0.1518693     0.150423 -37.78 1.426889e-05    1.039    0.038
        61 -10.9427      9.8945     63.9890   1.3386856638e+02   6.2259085614e+01    0.2884189     0.189434  35.20 0.0004110533    1.920    0.479
        62 -10.3157     29.4012     60.8700   1.2573037325e+02   6.1494816350e+01    0.3536387    0.2029147  44.27  0.001256671    2.291    0.564
        63 -11.0492      2.0986     38.1549   1.3084765503e+02   6.8036648035e+01    0.5452354   0.05990708 -63.12  0.001406857    8.272    0.879
        64  -9.5495    162.7568    249.5947   1.2549189542e+02   2.7315333837e+00    0.1729329   0.08623208  48.47 0.0009557582    1.672    0.402
        65 -10.0944     81.4308    248.6536   1.3943114947e+02   1.5108946788e+01     0.254726    0.1295759  68.74  0.001480834    1.968    0.492
        66  -9.0900     46.9780    249.0501   1.4512902973e+02   1.9477153768e+01    0.1694516   0.08526763  67.12 0.0005417831    1.599    0.374
        67 -10.1587    151.9751    248.4826   1.2723367048e+02   4.5860109486e+00    0.1873287   0.09099144  43.07 0.0005649046    1.597    0.374
