#   1 NUMBER                 Running object number                                     
#   2 MAG_AUTO               Kron-like elliptical aperture magnitude                    [mag]
#   3 X_IMAGE                Object position along x                                    [pixel]
#   4 Y_IMAGE                Object position along y                                    [pixel]
#   5 X_WORLD                Barycenter position along world x axis                     [deg]
#   6 Y_WORLD                Barycenter position along world y axis                     [deg]
#   7 A_WORLD                Profile RMS along major axis (world units)                 [deg]
#   8 B_WORLD                Profile RMS along minor axis (world units)                 [deg]
#   9 THETA_WORLD            Position angle (CCW/world-x)                               [deg]
#  10 FWHM_WORLD             FWHM assuming a gaussian core                              [deg]
#  11 ELONGATION             A_IMAGE/B_IMAGE                                           
#  12 ELLIPTICITY            1 - B_IMAGE/A_IMAGE                                       
         1 -13.0501     12.4249     43.8111   1.1391820073e+02   6.7273682430e+01    0.7718402     0.167531 -60.75  0.002915404    2.978    0.664
         2 -12.2203     18.0350     24.5284   1.0476420454e+02   7.1226894052e+01    0.5999327    0.3153861 -61.51  0.002070036    1.713    0.416
         3 -11.9868      1.9277     25.1439   1.1496455978e+02   7.2173674550e+01    0.3921263    0.1645571 -72.23  0.001871928    2.132    0.531
         4 -11.7210      5.9109     17.7014   1.0993245587e+02   7.3609809081e+01    0.4581196    0.3169335 -52.07  0.002758583    1.147    0.128
         5 -11.5969    182.2013     18.9686   5.0726871782e+01   3.6280246860e+01    0.3475357    0.2798852   4.99 0.0008224038    1.384    0.277
         6 -10.5526     92.7068     19.3444   6.7929775570e+01   5.9612108011e+01    0.4167838    0.2134895 -36.31  0.001748703    1.915    0.478
         7 -11.0771    199.4467     17.5035   4.8401435045e+01   3.1976775329e+01    0.3387453    0.2661611  23.46  0.001290419    1.470    0.320
         8 -10.8507     45.4062     17.2612   8.5665183180e+01   6.9345933422e+01    0.2909878    0.2428973  81.37 0.0003716338    1.841    0.457
         9 -10.9707     24.3553     16.8818   9.7468748021e+01   7.2216241700e+01    0.2918685    0.2416422 -60.68  0.001367601    1.312    0.238
        10 -10.2692     20.9745     11.6900   9.6971786420e+01   7.3609553395e+01    0.3700978    0.1876708  45.62  0.001750654    2.873    0.652
        11 -10.2460     31.7786     12.9782   9.0850461633e+01   7.2086219043e+01    0.2396611    0.1931067  -9.76 0.0008215735    1.236    0.191
        12 -10.7734    116.3918     15.0130   5.9794541878e+01   5.4292485291e+01    0.3937397    0.2157883  43.36  0.001664114    1.848    0.459
        13 -10.4992     76.4912     14.4212   7.0677109099e+01   6.3951459241e+01    0.4093917    0.2467579 -50.04  0.001718529    2.087    0.521
        14 -10.2833    133.0305     13.3166   5.5766116391e+01   5.0086349568e+01      0.36747    0.1865897 -21.14  0.001496478    2.013    0.503
        15 -12.6571    174.7149     11.3458   4.9058728885e+01   3.9027650020e+01    0.5979088       0.3467  44.49   0.00237035    1.863    0.463
        16 -11.4066    147.3604     13.2073   5.3352060623e+01   4.6229563109e+01    0.4971456    0.2275772  63.61  0.001601275    2.044    0.511
        17 -10.3004     88.9949     13.7971   6.6262607464e+01   6.1220762724e+01    0.1950665    0.1744703  41.47  0.000317134    1.108    0.097
        18 -11.7335    210.5700     10.8169   4.5410720014e+01   2.9848288783e+01    0.5802707    0.3059943   6.36  0.002344366    2.803    0.643
        19 -11.8477    208.9287      4.7552   4.3785198663e+01   3.0803623189e+01    0.3542637    0.2549936 -62.89 0.0003236259    1.367    0.268
        20 -10.7176    218.4342     11.8436   4.5069066672e+01   2.7844130713e+01    0.2165095      0.16086  67.30 0.0009117689    1.425    0.298
        21 -10.6928    128.0071      8.3248   5.4555509905e+01   5.1944296611e+01     0.219699    0.1992964 -12.55 0.0003615166    1.124    0.111
        22 -10.2226     67.1625     11.7670   7.2683572753e+01   6.6286595456e+01    0.2472497    0.2159416 -13.50 0.0008166695    1.057    0.054
        23 -10.2717     57.7140     11.4675   7.6456174627e+01   6.8182039888e+01    0.3806011    0.2381615  66.42 0.0008259326    2.618    0.618
        24 -11.7166     12.9580     11.1495   1.0219989407e+02   7.4482032408e+01    0.3716655    0.2161243  17.08  0.001122383    2.000    0.500
        25 -11.4849    194.4951      8.5260   4.6122503105e+01   3.4103834616e+01    0.3318964    0.2274037 -68.30 5.252443e-05    1.526    0.345
        26 -12.1516    195.4812      3.3859   4.4450305087e+01   3.4310007792e+01    0.6169205    0.2752292  62.10  0.002231577    2.176    0.540
        27 -10.5561    165.3423      8.7574   4.9259476490e+01   4.1790201061e+01    0.2580397    0.2128322  69.57  0.001371061    1.190    0.160
        28 -10.8647    165.6880      3.9561   4.7518407988e+01   4.2130838365e+01    0.2584394      0.23077 -14.85 0.0003468704    1.162    0.140
        29  -9.3539    160.2275      8.8346   4.9918643059e+01   4.3166929502e+01    0.3444143    0.2025666   3.85  0.001448107    2.144    0.534
        30 -11.8354    160.5938      3.5697   4.7960978211e+01   4.3543824591e+01    0.6090482    0.4451509  59.64  0.003095695    1.328    0.247
        31 -11.1281    146.7011      8.4926   5.1623197018e+01   4.6874918069e+01     0.306935    0.2052643  24.95  0.001406203    1.728    0.421
        32 -10.1595     74.0184      8.4806   6.8257437381e+01   6.5285723422e+01    0.2119392     0.177927  -9.32  0.000593093    1.127    0.113
        33 -10.6585     48.1137      9.0076   7.9494992906e+01   7.0288773012e+01    0.4081601    0.1885308  47.98   0.00119224    2.463    0.594
        34 -10.8789    108.1097      7.8357   5.8303728183e+01   5.7217222697e+01    0.3196541    0.2190816 -65.57 0.0008990832    1.890    0.471
        35  -9.7182    229.4584     10.9898   4.4009795962e+01   2.5333881778e+01    0.1957256    0.1178242 -24.42  0.000307402    1.509    0.337
        36 -10.0716     87.6678      6.7286   6.2934997505e+01   6.2389763382e+01    0.2243532    0.1972781  61.22 0.0006070498    1.210    0.174
        37 -10.6086     24.8430      6.6943   9.1531264187e+01   7.4117210551e+01    0.2325925    0.1810698 -53.42  0.001233935    1.416    0.294
        38 -10.3720     19.6733      6.2699   9.4797581068e+01   7.4791230040e+01    0.3543682    0.1305704 -51.69 0.0008526128    2.509    0.601
        39  -9.7812     61.7895      6.5816   7.1788369233e+01   6.8092993147e+01    0.1773482     0.133156  63.30 0.0009466384    1.670    0.401
        40  -9.3188     51.5603      6.4713   7.6238466865e+01   7.0064053560e+01    0.1345538    0.1155284  -5.94 6.143273e-05    1.042    0.040
        41 -10.9476     39.9582      5.2796   8.1422920731e+01   7.2227548227e+01    0.3431709    0.2636475  65.81  0.001909689    2.059    0.514
        42  -9.7843     37.9994      2.2259   8.0484864638e+01   7.3014957950e+01    0.1775525    0.1604701 -33.56            0    1.242    0.195
        43 -10.3781    185.2905      8.9851   4.7148147765e+01   3.6451520949e+01    0.1940402    0.1795207 -30.57 0.0002718518    1.074    0.069
        44 -11.0129    133.9156      4.9523   5.2134046463e+01   5.0674769301e+01     0.280423    0.2007607 -28.65  0.001382569    1.410    0.291
        45 -10.7027    111.9431      4.9855   5.6123849956e+01   5.6515354621e+01    0.2209319    0.2025973  28.01 0.0004313432    1.053    0.050
        46 -10.6732    248.9843      2.9248   4.0717841160e+01   2.1723404194e+01    0.2325853    0.1704163 -12.90 0.0003756002    1.395    0.283
        47 -10.4272     48.3490      3.2432   7.5703346877e+01   7.1109781308e+01    0.4097781    0.2284938  22.23  0.001855535    2.370    0.578
        48 -10.2568     12.1272      2.4131   9.8032313061e+01   7.6284562412e+01    0.2927477    0.2124835  67.37  0.001629017    2.539    0.606
        49 -10.4279    218.0116      2.4581   4.2477111580e+01   2.8791975466e+01    0.2705659    0.1874806 -27.79  0.001094898    1.328    0.247
        50 -11.2490    180.3807      2.1476   4.5395350398e+01   3.8353491729e+01    0.3155561    0.2259185  82.40 0.0009423673    1.393    0.282
        51  -9.7203     30.6792      3.1623   8.5492703752e+01   7.3965736803e+01    0.1940466     0.140738 -46.58  0.001138102    1.464    0.317
        52 -10.7775    144.5291      1.7116   4.9266673951e+01   4.8076688674e+01     0.391281    0.1903994 -87.92  0.000843089    2.648    0.622
        53 -10.6089    128.0261      2.0672   5.1853037111e+01   5.2521374440e+01    0.3400989    0.1501738  52.47  0.001192558    2.074    0.518
        54 -10.1455    115.5635      2.0289   5.4022154549e+01   5.5844643812e+01    0.2125278    0.1840213  57.84 0.0001557927    1.109    0.098
        55 -10.2505     73.9843      1.9163   6.4442726823e+01   6.6081452725e+01    0.2129393    0.1911694  16.34 0.0005723961    1.019    0.019
        56  -9.8981    186.2812      1.3525   4.4600942987e+01   3.6867677127e+01    0.1441837    0.1010969  32.41 0.0002968835    1.654    0.395
        57 -10.0279     90.5273      1.4474   5.9297208526e+01   6.2264197374e+01    0.2550519    0.1339611  61.84 9.911122e-05    1.883    0.469
        58  -9.7714     23.9918    227.4802   1.2770943007e+02   2.6967659068e+01    0.1449083    0.0714616  41.12 0.0005965761    1.509    0.337
        59 -10.1901    216.0348    250.6100   9.6557626595e+01   1.7364249352e-01     0.145637   0.06953199  34.13 5.942494e-05    1.501    0.334
        60 -12.8110    186.7501    250.0717   1.0107464174e+02   3.9472316663e+00    0.2383191    0.1636881  23.80  0.001872002    1.121    0.108
        61  -8.9954    157.2892    250.3058   1.0591721237e+02   7.7760639858e+00   0.09929742   0.06537108  18.16 0.0002689636    1.572    0.364
        62 -11.8216    136.1927    245.7247   1.0902271529e+02   1.1083320291e+01    0.6047716    0.2914304  56.17  0.003314371    2.808    0.644
        63 -10.9214    134.1619    240.8521   1.0889638383e+02   1.1951274037e+01    0.1776344    0.1432869  47.39  0.000365331    1.197    0.164
        64 -11.6536    127.7189    248.5113   1.1073794979e+02   1.1851464041e+01     0.229712    0.2154413  79.92 0.0009502122    1.416    0.294
        65 -11.3604    115.8756    249.3792   1.1284517424e+02   1.3264012507e+01     0.274739    0.1836887  37.87  0.002094856    1.114    0.102
        66 -12.7947     12.6384    232.0476   1.2984783295e+02   2.7300229161e+01    0.6537815    0.3865241  66.09  0.002320603    1.283    0.221
        67 -10.6868     38.7244    249.9719   1.2605223306e+02   2.2098921345e+01    0.2140039    0.1313308  76.84 0.0003412346    1.561    0.359
        68 -12.8436     18.7464    247.8343   1.2928362270e+02   2.4348860190e+01    0.9062122    0.1639489  40.85  0.004583756    2.661    0.624
        69 -11.0752     34.1088    247.9001   1.2674104251e+02   2.2861690261e+01    0.2739166    0.1349261  45.27 0.0005332593    1.360    0.265
        70 -11.7653     29.6862    245.1620   1.2737944901e+02   2.3699067848e+01    0.3501325    0.2136461  25.56  0.002078691    1.988    0.497
        71 -12.2460     36.0027    243.8514   1.2626203984e+02   2.3265970956e+01    0.4423648    0.2495466  74.51 0.0004168017    1.649    0.393
        72 -12.2975     22.6284    241.2997   1.2843306505e+02   2.4954339805e+01    0.4942375    0.2236566  81.14  0.003390613    2.182    0.542
        73 -11.9032      6.8079    241.0374   1.3106791943e+02   2.6436165147e+01    0.4898834    0.1507587  34.42  0.002804341    2.457    0.593
        74 -12.2106      2.8914    234.1560   1.3156115401e+02   2.7827424365e+01    0.3953089    0.2172833  87.91  0.003097823    1.730    0.422
        75 -11.7561      9.6712    248.4108   1.3077727050e+02   2.5089013406e+01    0.3276804    0.1328291  58.69  0.001769494    1.696    0.410
        76 -12.9790      3.2175    247.2279   1.3179094761e+02   2.5826685410e+01    0.2748359    0.1952057  82.69  0.001301504    1.419    0.295
        77 -10.5839    234.0015    225.4763   9.0452515397e+01   9.2192218551e-02    0.1596427    0.1359356 -14.17 0.0007712729    1.569    0.363
        78 -10.1799    184.6313    225.8270   9.8439021513e+01   6.7602996558e+00    0.1782702    0.1130985  28.47 0.0005309882    1.217    0.178
        79 -10.0636    164.1588    224.5273   1.0180759114e+02   9.8158439597e+00    0.1812249    0.1504858 -80.74   0.00120059    2.007    0.502
        80 -10.0140    122.5067    225.5170   1.0943833007e+02   1.5556747284e+01    0.2187214     0.084534  38.76 0.0007043078    1.949    0.487
        81 -10.4831     99.0331    223.4640   1.1360734163e+02   1.9014467513e+01      0.23087    0.1597386 -69.20  0.001163947    1.820    0.451
        82 -10.1938     79.6878    224.2164   1.1730011415e+02   2.1364829284e+01    0.2758287    0.1376375  67.25  0.001556829    2.423    0.587
        83  -9.3851     20.2487    225.5764   1.2830638322e+02   2.7628361426e+01    0.1080399   0.04772973  61.74 0.0006920152    1.747    0.428
        84 -10.9042      1.8519    224.3072   1.3151200753e+02   2.9474039379e+01    0.2480026    0.1149135  77.54  0.001420435    1.836    0.455
        85 -10.4556     37.0025    223.6042   1.2519587030e+02   2.6300211935e+01    0.2997793    0.1141123  56.57  0.001755273    2.070    0.517
        86 -11.7624     40.1574    218.0764   1.2433637715e+02   2.6878760837e+01    0.2942545    0.1546371  36.61 0.0007600339    1.607    0.378
        87 -10.4751     47.3426    217.9891   1.2297848122e+02   2.6126547757e+01    0.2271449    0.1521904  22.16  0.001019334    1.924    0.480
        88  -9.4165    112.5349    223.5871   1.1109255626e+02   1.7193510947e+01    0.1123211   0.08391387  43.68 9.388759e-05    1.018    0.018
        89 -10.2734     64.0371    221.5211   1.2004753364e+02   2.3669250661e+01    0.3133782    0.1386016  69.80  0.001639545    2.871    0.652
        90  -9.6253     55.0161    221.8197   1.2176113761e+02   2.4653610473e+01    0.1940024   0.07657829  54.12  0.001089406    2.061    0.515
        91 -10.7166    228.7959    220.1627   9.0478116582e+01   1.2592103910e+00    0.1774499    0.1305685  25.30 0.0003128066    1.172    0.147
        92  -9.3357    109.9991    221.0182   1.1131546132e+02   1.7913162599e+01    0.1310825    0.1028477  45.21 0.0003233637    1.029    0.028
        93 -10.6734    135.4879    218.0734   1.0622404451e+02   1.4770320440e+01    0.2131941    0.1491162  34.11 0.0004733964    1.163    0.140
        94 -10.7819    100.8662    217.3910   1.1269912388e+02   1.9691692989e+01    0.3226809    0.1761262  22.25  0.001702273    2.554    0.608
        95 -10.0630     14.5363    219.0995   1.2911053507e+02   2.9214307153e+01    0.1464854    0.1064282  44.13 -8.044583e-05    1.259    0.206
        96 -10.4088    195.2901    216.9998   9.5436532929e+01   6.2237388370e+00    0.1549618    0.1221887  21.32 0.0006151539    1.069    0.065
        97  -9.7725    176.3321    216.6847   9.8652416246e+01   9.0053602949e+00      0.23634    0.1089314  24.76 0.0008365737    2.508    0.601
        98  -9.8277    147.6317    216.2200   1.0375533857e+02   1.3266348156e+01    0.1673494    0.1120992 -51.65 0.0008081603    1.978    0.495
        99 -11.8985     67.2807    207.3172   1.1839343070e+02   2.5629931178e+01    0.2600031    0.1483521  45.34 0.0002231889    1.351    0.260
       100 -10.8390     72.9928    216.3012   1.1796596445e+02   2.3441404699e+01    0.2447136    0.1799813  17.07  0.001078063    1.858    0.462
       101 -12.4701     74.3884    211.2547   1.1729890167e+02   2.4097204708e+01    0.2251113    0.1866901  63.37 0.0003082029    1.122    0.108
       102 -10.8437    156.8946    215.3478   1.0195007289e+02   1.2024650492e+01    0.1875764    0.1627364  31.53 0.0003403996    1.134    0.118
       103  -9.8245     92.3858    216.2331   1.1422101707e+02   2.0995408374e+01    0.1304823   0.09770574  82.48 0.0002349761    1.509    0.337
       104 -10.6402     59.0386    215.5901   1.2060089025e+02   2.5214426368e+01    0.1790269    0.1372862  76.77 0.0005295791    1.257    0.205
       105 -10.6857     38.9357    210.7414   1.2418144790e+02   2.8242572633e+01    0.2957439    0.1645335  73.76    0.0013329    1.664    0.399
       106 -12.0531     31.3609    213.5332   1.2576995374e+02   2.8541945034e+01    0.4621471    0.3400801  70.38  0.002031223    1.152    0.132
       107 -11.2217     25.2214    208.3968   1.2670548912e+02   3.0026578154e+01    0.3318423    0.2615381  18.17  0.002240233    1.764    0.433
       108 -11.3622     35.9750    205.4757   1.2447462666e+02   2.9462367906e+01    0.3317868    0.1473886  39.38  0.002005882    1.757    0.431
       109 -11.7109    165.5362    214.0638   1.0021882317e+02   1.0915643816e+01    0.2160348    0.1739402  40.21 0.0004225264    1.185    0.156
       110 -10.8328    111.7645    213.7546   1.1024313722e+02   1.8758641510e+01     0.204723    0.1827837  33.06 0.0003712017    1.203    0.169
       111 -10.9994     85.2880    214.3070   1.1542443375e+02   2.2222450003e+01    0.3269191    0.2263874  36.36  0.001269984    1.288    0.223
       112 -10.2094     11.2342    215.3538   1.2959012624e+02   3.0135650665e+01    0.2252147   0.08329999  40.37 0.0008946305    1.907    0.476
       113 -10.4153     13.9936    212.6772   1.2899289513e+02   3.0340691462e+01    0.2229962    0.1455353  41.76  0.001362167    1.319    0.242
       114 -11.6803      8.2273    211.0792   1.3001025130e+02   3.1123870971e+01    0.2967907    0.1760369 -80.20  0.001864691    1.742    0.426
       115 -10.1014      1.2988    213.2778   1.3134189488e+02   3.1340367444e+01    0.2100079   0.06828653 -77.55 0.0008758864    3.026    0.670
       116  -9.9098    123.1849    213.4130   1.0801469827e+02   1.7199433776e+01     0.199103    0.1433499  72.15 0.0008662496    1.775    0.437
       117 -12.4778    129.2773    207.7020   1.0618319097e+02   1.7164362442e+01    0.3927922     0.245663  20.06  0.002247234    1.977    0.494
       118 -10.0462    118.1582    212.2848   1.0885417178e+02   1.8082794270e+01    0.2063213    0.1144009  37.32 0.0006598595    1.451    0.311
       119  -9.3628     64.0015    212.4812   1.1942482608e+02   2.5151740424e+01      0.16006   0.08744708  38.25 0.0008574268    1.504    0.335
       120 -10.0567    144.8802    209.3314   1.0340726319e+02   1.4618695186e+01    0.2081977    0.1472351 -79.28  0.001242098    2.441    0.590
       121 -10.6744     60.1602    209.1790   1.1994178313e+02   2.6159914201e+01    0.1834082    0.1645755  37.45 0.0003329034    1.339    0.253
       122  -9.7341     96.7259    209.0652   1.1270152773e+02   2.1558095883e+01    0.1569199    0.1250464  49.13 0.0007484789    1.020    0.019
       123  -9.4504    246.6253    216.1804   8.7185592244e+01  -7.1488785401e-01    0.1358277   0.07984035  -6.62 0.0004610873    1.588    0.370
       124  -9.4334     82.5170    207.4882   1.1537255905e+02   2.3694798679e+01    0.1145898   0.08886301  51.48 -1.377251e-05    1.005    0.005
       125 -11.7101     17.5677    207.8007   1.2814328998e+02   3.0852246091e+01    0.2561415    0.1268118  55.05 0.0002601032    1.467    0.318
       126 -10.5035    195.6174    208.6163   9.4170608672e+01   7.1189258579e+00    0.2265334   0.07779919  30.75 0.0008718491    3.056    0.673
       127  -9.5780     89.9442    208.5436   1.1399294748e+02   2.2549853235e+01    0.1757105   0.09188645  37.65  0.001019583    1.570    0.363
       128 -10.6033    153.2385    205.5504   1.0134167457e+02   1.3888811147e+01    0.2276497    0.1785575 -21.02  0.001553731    1.565    0.361
       129 -10.7978     95.7998    195.2006   1.1146565205e+02   2.3992873874e+01    0.2711189     0.172194  56.08   0.00155124    1.446    0.309
       130 -10.8918     99.8615    205.3979   1.1171144501e+02   2.1723866456e+01    0.2075306    0.1569716  50.75 0.0004143337    1.084    0.077
       131 -11.2545     97.2633    200.9923   1.1177879160e+02   2.2808551947e+01    0.3097381     0.253391  32.62  0.001269039    1.246    0.197
       132  -9.7938     77.9921    205.9798   1.1614445816e+02   2.4527413346e+01    0.1597992    0.1375893  -2.64  0.001141569    1.713    0.416
       133 -11.1162     53.4058    203.7933   1.2090942520e+02   2.7868474001e+01    0.3347194    0.2231617  55.30   0.00234428    1.163    0.140
       134 -11.2552      3.9274    205.2577   1.3064016392e+02   3.2495662832e+01    0.2990879    0.1356208  40.47  0.001534718    1.685    0.406
       135  -9.3504    110.0000    204.9545   1.0964519441e+02   2.0376385000e+01    0.1591618   0.06735765 -58.10 0.0007981582    2.913    0.657
       136 -10.3138    195.8284    204.1352   9.3464404258e+01   7.6055977599e+00    0.1593829    0.1109762  15.68 0.0003654935    1.300    0.231
       137 -10.7373    121.5968    200.9280   1.0687442511e+02   1.9332833020e+01    0.3109199    0.2097038 -83.87  0.001567468    2.243    0.554
       138 -10.6755    185.8918    201.9083   9.4860837044e+01   9.3754594663e+00    0.1842759    0.1358155  15.06  0.001231658    1.250    0.200
       139  -9.2339    106.4392    202.3968   1.1007566610e+02   2.1292928435e+01    0.1172747   0.09267642  45.73 3.832108e-05    1.015    0.014
       140 -10.1800    240.3750    201.2513   8.5787050292e+01   1.4851560765e+00    0.1310094   0.09241398 -23.57 0.0003396945    1.558    0.358
       141  -9.5554     70.1341    201.1887   1.1732618943e+02   2.6336656706e+01    0.1564441    0.1346015  51.33 0.0004656007    1.148    0.129
       142 -10.2643     71.4973    197.5376   1.1673540023e+02   2.6808109686e+01    0.1737039    0.1085048 -73.56  0.001095499    1.781    0.439
       143 -10.9504     19.4083    200.3230   1.2748524138e+02   3.1999789724e+01    0.1845635    0.1723113  74.17  0.001372551    1.378    0.275
       144  -9.7266    170.1649    199.1628   9.7291770583e+01   1.2153641486e+01    0.2612307    0.1943143 -75.34  0.001511345    2.591    0.614
       145 -10.2051     90.0323    199.6638   1.1311741767e+02   2.4020864803e+01    0.2780122    0.1485151  38.75 0.0009414237    1.544    0.353
       146 -11.2941      5.5278    200.0137   1.3017811244e+02   3.3284777591e+01    0.1669353    0.1125679  48.36 0.0001018887    1.202    0.168
       147 -10.3154    223.8227    198.7530   8.7967723471e+01   4.0706633473e+00    0.2024606     0.110329  32.91 0.0005993613    1.498    0.332
       148  -9.7509    165.6745    202.0331   9.8536775427e+01   1.2465233249e+01     0.155956    0.1337989  26.65  0.000601311    1.088    0.080
       149  -9.9546    149.9905    199.0935   1.0107829666e+02   1.5300110984e+01     0.179625    0.1440143  31.60 0.0003619198    1.051    0.048
       150 -11.2695     55.7054    199.0928   1.2011124173e+02   2.8436032387e+01    0.1944328    0.1350113  40.46            0    1.276    0.216
       151  -9.8826     13.6258    197.9888   1.2852938823e+02   3.2945272818e+01    0.2085332    0.1676507  28.22  0.001354516    1.539    0.350
       152 -10.3037    208.7491    198.4185   9.0383468895e+01   6.3264141630e+00    0.1676176   0.08727896  30.31 0.0007323247    1.616    0.381
       153 -10.0523    140.9202    196.5705   1.0249258686e+02   1.7077494631e+01    0.2173391    0.1731877  88.91  0.001390284    1.787    0.440
       154  -9.9059    108.6724    194.3130   1.0870275473e+02   2.2306419436e+01     0.164427    0.1246932 -70.82  0.000661087    1.581    0.368
       155 -10.2818    109.2047    197.4293   1.0895715853e+02   2.1710633649e+01    0.2746887    0.1447658  51.28  0.001496646    1.743    0.426
       156  -9.8977    104.9801    196.0000   1.0965806224e+02   2.2557600384e+01    0.2277092    0.1272301  40.50 0.0005877493    1.460    0.315
       157 -10.3416    129.3680    197.2146   1.0486322829e+02   1.8750640671e+01    0.2986297    0.1103089  43.46  0.001370293    2.227    0.551
       158 -10.7441     36.8914    196.8403   1.2380790067e+02   3.0908887100e+01    0.1504857    0.1306535  51.56 0.0004912214    1.241    0.194
       159 -10.7087    217.7729    194.5483   8.8264084657e+01   5.4099336066e+00    0.1854834    0.1430529  -7.52 0.0004165267    1.248    0.199
       160 -10.8402     44.7970    194.5286   1.2203971421e+02   3.0488395388e+01    0.1825444    0.1458803  64.74 0.0002738945    1.061    0.058
       161  -9.6617     25.1289    194.5525   1.2607792698e+02   3.2504255584e+01    0.1726076     0.101379 -58.46 0.0006871392    2.195    0.544
       162  -9.6411      6.3173    195.3937   1.2987583681e+02   3.4048279905e+01    0.1626747    0.0948943   8.89 0.0009490272    3.101    0.678
       163 -12.0750    122.9925    193.0005   1.0560571334e+02   2.0389926039e+01    0.3133663    0.2305312  68.86  0.000456144    1.616    0.381
       164  -9.9621    127.1685    189.2288   1.0425626482e+02   2.0362076181e+01    0.1776985    0.1480726  29.09 0.0005716939    1.166    0.142
       165 -10.1941    153.9084    192.3908   9.9369336378e+01   1.5660408168e+01     0.305261    0.1617967  21.92  0.001281386    2.545    0.607
       166 -11.7874     52.7683    192.1690   1.2020994713e+02   3.0029888880e+01    0.3049713    0.1735867 -79.68  0.001882541    1.840    0.457
       167 -10.1633     82.7743    195.3534   1.1419120863e+02   2.5738624248e+01    0.2019595    0.1483594 -56.01 0.0007544525    1.670    0.401
       168 -10.6092    249.7837    190.5576   8.2606591208e+01   1.2163536989e+00    0.1923258    0.1294662 -12.35 0.0005393022    1.333    0.250
       169 -10.9891    245.2880    191.1780   8.3381712334e+01   1.7809147733e+00    0.1907478    0.1161544  24.41 0.0004062604    1.334    0.250
       170 -10.4077    205.1107    190.8164   8.9768370079e+01   7.7580023822e+00    0.1759403     0.139003  18.28 0.0003215533    1.011    0.011
       171  -9.8047    205.3834    186.8266   8.9058005879e+01   8.1909964693e+00    0.2410473    0.1132561 -33.36 0.0004714312    2.332    0.571
       172  -9.8039    188.2033    191.3435   9.2810205711e+01   1.0340814812e+01    0.1903498    0.1253458  24.87 0.0007418543    1.338    0.253
       173 -12.1319     91.7530    189.1872   1.1166228683e+02   2.5608767250e+01    0.2274283    0.2034714  79.70 0.0002766997    1.175    0.149
       174 -10.8972    166.2785    189.3812   9.6543885612e+01   1.4112338319e+01    0.2086902    0.1814529  33.00 0.0003570302    1.102    0.093
       175 -10.7077     74.6595    186.7092   1.1507016516e+02   2.8362281459e+01    0.3423213    0.1664947 -63.68  0.001658802    2.260    0.558
       176 -10.6083    131.2843    186.0386   1.0297324798e+02   2.0237604286e+01    0.3076829    0.2036755  83.67  0.001550516    2.675    0.626
       177 -11.4785    104.8598    184.9752   1.0837677597e+02   2.4471442272e+01    0.3420132    0.2999379  10.68  0.001743806    1.403    0.287
       178 -10.3952     43.7399    184.5117   1.2157631861e+02   3.2476178817e+01    0.3811695    0.1388141 -72.17  0.001902748    2.766    0.639
       179 -11.4813     57.5080    181.2089   1.1831017435e+02   3.1537939249e+01    0.4217947    0.3275048  33.26  0.002867294    1.374    0.272
       180 -12.4016     31.9988    176.7419   1.2361773036e+02   3.5213234286e+01    0.3146186    0.2184396 -72.89 0.0005284325    1.505    0.335
       181  -9.9858    225.4015    183.8199   8.5216796753e+01   5.4453569719e+00    0.1535568   0.09542385  -9.14 0.0003154081    1.620    0.383
       182 -10.5419    177.7385    183.8310   9.3503663564e+01   1.3022706434e+01    0.2311237    0.1715374 -50.44  0.001048291    1.818    0.450
       183 -10.5798     16.1138    183.2747   1.2740654845e+02   3.5453208266e+01    0.1943737    0.1528536  64.20 0.0007121103    1.070    0.065
       184 -10.1438     88.2694    182.1406   1.1162988484e+02   2.7371202359e+01    0.1853671    0.1430165 -67.86 0.0006960438    1.449    0.310
       185 -10.2161    213.0568    182.2322   8.6971981685e+01   7.5329168350e+00    0.1764651    0.1271015  18.30 0.0003057195    1.167    0.143
       186 -11.1001    160.0259    180.6911   9.6382401111e+01   1.6402207288e+01    0.1938993    0.1807723 -14.53 0.0003139035    1.209    0.173
       187 -10.6108    131.4033    179.4431   1.0200131696e+02   2.1308216101e+01    0.2338853    0.1921938  61.39 0.0001543564    1.291    0.225
       188  -9.9861      4.2247    178.9425   1.2973450146e+02   3.7294072950e+01    0.1728347    0.1083085  55.19 0.0004207757    1.221    0.181
       189  -9.9734      8.1087    177.4943   1.2885580306e+02   3.7255968680e+01    0.1639531    0.1167133  73.81  0.001208367    1.107    0.096
       190 -11.7319    108.9452    176.6117   1.0641419411e+02   2.5347620470e+01    0.2394239    0.1960374  52.30 0.0003361286    1.075    0.070
       191 -10.8219     92.0465    177.5439   1.1026147268e+02   2.7688940455e+01    0.1954445    0.1729659 -66.23  0.001329086    1.291    0.226
       192 -10.4754     74.1840    177.2049   1.1421403445e+02   3.0214893418e+01    0.1894114    0.1600144  55.81 0.0003689696    1.044    0.042
       193 -12.5740     22.5171    175.9744   1.2566248793e+02   3.6283059277e+01    0.2452061    0.1677835  64.71  0.000388187    1.148    0.129
       194 -10.4334     17.1144    175.2876   1.2681045730e+02   3.6911335637e+01    0.1968317    0.1751259 -27.34  0.001035497    1.703    0.413
       195 -10.1893    200.8398    175.4720   8.7885871179e+01   1.0329485588e+01    0.1884758    0.1557001  -5.13 0.0002509755    1.172    0.147
       196 -10.8019     96.4399    178.9725   1.0946382954e+02   2.6788840133e+01      0.22077    0.1548508  41.70 0.0003284071    1.232    0.188
       197 -11.1086     79.2523    174.3175   1.1275743566e+02   3.0091977309e+01    0.2858449    0.1906324  34.37 0.0004209469    1.461    0.315
       198  -9.2020     69.6863    175.7406   1.1507560899e+02   3.1084179436e+01    0.1043419   0.09368739   0.30 0.0002271965    1.534    0.348
       199  -9.7329    156.8268    173.8575   9.5901598546e+01   1.7986620283e+01    0.1947217     0.150176  26.33  0.001176363    1.204    0.169
       200 -10.7332     87.5981    171.8142   1.1056731253e+02   2.9411309190e+01    0.2666577    0.1953403 -86.69 0.0007587747    1.502    0.334
       201  -9.6003     41.0854    171.4753   1.2120410954e+02   3.5315310078e+01    0.1601406    0.1000675  39.13 0.0003749038    1.460    0.315
       202  -9.6794    166.1396    170.1828   9.3423309891e+01   1.6955742315e+01    0.1628564    0.1409028  50.41 0.0003274759    1.260    0.206
       203  -9.4357    137.2749    170.6415   9.9412918175e+01   2.1825106145e+01    0.1247519   0.09691415  73.73 0.0004345263    1.654    0.395
       204  -9.2207    121.6554    170.2950   1.0272743111e+02   2.4473057191e+01    0.1317602   0.09103143  63.63 0.0007031662    1.666    0.400
       205  -9.0893     44.7056    170.2751   1.2027911356e+02   3.5162264466e+01    0.1213126   0.07018636  61.00 0.0001820943    1.525    0.344
       206 -11.0103     31.9685    184.6701   1.2411559292e+02   3.3680100099e+01    0.4152917    0.1271223  40.78  0.001160388    2.372    0.578
       207  -9.4120     77.9700    169.7142   1.1252741664e+02   3.1163911349e+01    0.1540928   0.09831456  39.21 0.0008745632    1.417    0.294
       208  -9.8970      2.3663    168.0028   1.2973220340e+02   3.9582106675e+01    0.2979367   0.09287767 -70.11  0.001276588    3.007    0.667
       209  -9.7204    114.0190    168.3297   1.0412389020e+02   2.6062124599e+01    0.1835422    0.1405095  44.08 0.0001920917    1.141    0.123
       210  -9.3802     68.9743    167.9890   1.1442495682e+02   3.2705078645e+01    0.1477345    0.1191192  53.20 0.0003379608    1.074    0.069
       211 -10.3939     47.0785    166.9415   1.1944889959e+02   3.5573287491e+01    0.3094444    0.1445013  52.83  0.001623456    1.874    0.466
       212 -10.7710     37.4365    165.5809   1.2159526802e+02   3.6897656251e+01        0.279    0.1502884  54.58  0.001510769    1.578    0.366
       213 -12.3570     24.2355    163.7362   1.2455066643e+02   3.8583764446e+01    0.3023788     0.192639  42.22 0.0003902342    1.413    0.292
       214 -10.8207    126.6502    161.7684   1.0028365723e+02   2.5180375380e+01    0.2850216    0.2259431  30.14  0.001285473    1.244    0.196
       215  -9.8677     75.7714    162.1373   1.1214929349e+02   3.2978678854e+01    0.1906928    0.1495995  69.72 0.0006888016    1.185    0.156
       216 -10.5064    140.4755    161.0312   9.7129130627e+01   2.2927978620e+01    0.2521655    0.1737263  41.42 0.0004757064    1.290    0.225
       217 -11.2264     36.6041    158.8739   1.2126458869e+02   3.8374991117e+01    0.9158516    0.1368413  46.12  0.003180391    4.423    0.774
       218  -9.4204    114.1960    158.5850   1.0259055745e+02   2.7857677592e+01    0.1770807    0.1178188  31.18 0.0004211405    1.542    0.352
       219  -9.4860     66.2029    158.3993   1.1401737105e+02   3.5021188336e+01    0.1793104   0.09688758  47.05 0.0004798457    1.628    0.386
       220  -9.4398     27.0247    157.9983   1.2350748415e+02   3.9511789801e+01    0.1385716     0.109989  71.50            0    1.011    0.011
       221  -9.9257    113.4940    153.9761   1.0200791135e+02   2.8859088508e+01    0.2016634    0.1664247  48.76 0.0008541764    1.096    0.087
       222  -9.4591     71.2101    154.5460   1.1232703786e+02   3.5163261753e+01    0.1599626    0.1193148  25.88 0.0003671699    1.553    0.356
       223  -9.1244      4.2965    154.2738   1.2872350547e+02   4.2233116026e+01   0.09672833   0.07937647 -58.76 0.0002344692    1.526    0.345
       224  -9.2539      1.2862    152.6873   1.2936791432e+02   4.2787496833e+01    0.2073227    0.0824064  53.77 0.0002532028    2.014    0.504
       225  -9.6078    207.2813    151.9596   8.2319154547e+01   1.2310500332e+01    0.1734087    0.1462657   4.84 0.0002725768    1.047    0.044
       226  -9.4965      9.9848    152.4350   1.2727285849e+02   4.2176274886e+01    0.1605231    0.0999319  34.82  0.001028887    1.606    0.377
       227 -10.2462     85.8156    150.0846   1.0809897470e+02   3.4026647876e+01    0.1929496    0.1546743  68.50 0.0002883327    1.200    0.167
       228  -9.5990    163.5104    148.4972   8.9930296680e+01   2.0872926787e+01    0.1358181    0.1217604  25.63 0.0008105919    1.006    0.006
       229  -9.5940     38.6725    148.3282   1.1984130132e+02   4.0409016383e+01    0.1331469    0.0738508  63.42 0.0007050703    1.704    0.413
       230  -9.5980    201.7717    143.7271   8.1607113228e+01   1.4434698021e+01    0.1928087    0.1575633 -75.19  0.001052731    2.062    0.515
       231 -10.1445     16.2541    143.1911   1.2516396824e+02   4.3645589251e+01    0.1952469    0.1572549  11.99   0.00133106    1.667    0.400
       232  -9.6687      4.6117    142.9685   1.2810369914e+02   4.4605839949e+01    0.1659026   0.09098899 -85.03  0.000635178    1.547    0.354
       233  -9.3736     21.4444    142.4507   1.2377684174e+02   4.3361078205e+01    0.1179446   0.09637542  77.27 0.0001715154    1.026    0.025
       234 -10.1720    103.9429    139.9176   1.0192816439e+02   3.3272954027e+01     0.199224    0.1856056  70.69 0.0003896459    1.037    0.035
       235  -9.1732    132.3082    139.7394   9.5031453201e+01   2.8279096024e+01    0.1341618    0.1046108  69.46 0.0002246149    1.526    0.345
       236 -10.0469     35.6706    139.0044   1.1974297637e+02   4.2770505045e+01     0.175947    0.1344783  87.73 0.0004293545    1.145    0.127
       237  -9.9549     24.6798    139.3544   1.2269139289e+02   4.3753157760e+01    0.2274885    0.1099875  50.65  0.001208925    1.842    0.457
       238 -11.6485     28.5534    132.2298   1.2102674617e+02   4.4989554359e+01    0.2408531    0.2281949 -39.08 0.0002082124    1.365    0.267
       239 -10.1058     24.6883    129.7058   1.2186496227e+02   4.5916767897e+01    0.1689884     0.153622  79.79 0.0007253728    1.142    0.124
       240  -9.6333     83.2105    138.5131   1.0701115033e+02   3.6871544635e+01    0.1790342    0.1279577  23.60 0.0007332357    1.693    0.409
       241 -10.4234     95.3566    137.0006   1.0360213644e+02   3.5299001444e+01    0.2459915    0.2216856 -18.63  0.001461112    1.374    0.272
       242 -10.2136     49.7379    136.3403   1.1566589616e+02   4.1829708856e+01    0.3197516    0.1771267 -44.93  0.001554672    2.391    0.582
       243 -10.7039     39.5862    133.2116   1.1808608682e+02   4.3664379201e+01    0.2690292    0.1843643 -63.03 0.0008291039    1.459    0.315
       244 -10.5877     37.7166    130.2980   1.1828753379e+02   4.4521961906e+01    0.2266787    0.1711262  74.37 0.0001890133    1.180    0.153
       245 -10.0982     44.1756    131.8505   1.1666246847e+02   4.3475690119e+01    0.2193665    0.1534092  51.28 0.0005498362    1.333    0.250
       246  -9.5511     47.5238    131.5148   1.1569114817e+02   4.3174682655e+01    0.1259119    0.1115373  84.29 0.0008094617    1.053    0.050
       247  -9.5129     68.5394    131.5151   1.0986611439e+02   4.0526357269e+01    0.1311837    0.1188031  78.41  0.000148077    1.021    0.021
       248 -10.2819     62.0287    131.1676   1.1161296860e+02   4.1476692776e+01    0.1779737     0.169813 -61.34 0.0002705671    1.209    0.173
       249  -9.9911    236.0438    137.7477   7.4708656860e+01   9.0751984395e+00    0.1541709    0.1013881  41.79 0.0008788288    1.549    0.354
       250 -10.2445     91.9575    126.3571   1.0258742008e+02   3.8144534941e+01    0.2185773    0.1840109 -83.12  0.000283891    1.218    0.179
       251 -10.2176     20.5332    126.6619   1.2275998230e+02   4.6972107674e+01    0.2300747    0.1955713 -13.14  0.001504376    1.637    0.389
       252  -9.5656     30.1266    125.8428   1.1996053636e+02   4.6296566340e+01    0.1549762    0.1339409 -61.65 0.0003300705    1.283    0.220
       253  -9.3148    128.1854    124.8068   9.2923247794e+01   3.1962391682e+01    0.1822238    0.1639392  -1.00 0.0003612874    1.253    0.202
       254  -9.4305      3.5046    125.4644   1.2742912010e+02   4.8536735407e+01    0.1155482   0.09443334  88.66 -1.988786e-05    1.088    0.081
       255  -9.3422     98.4007    124.2222   1.0044167834e+02   3.7531817616e+01    0.1762482    0.1317388 -70.90 0.0002350314    1.444    0.307
       256 -11.2057      9.7444    131.1686   1.2608101743e+02   4.6815314780e+01    0.2035909    0.1682505 -66.33 0.0002016654    1.327    0.246
       257 -10.0654    237.5026    121.4816   7.0986333050e+01   1.0798703023e+01    0.1299566    0.1089999  -2.34 0.0008104016    1.002    0.002
       258  -9.0651    123.2983    121.2703   9.3354849852e+01   3.3614122532e+01    0.1371012    0.1125621   5.11 0.0002149423    1.523    0.344
       259  -8.8239    112.0000    120.9896   9.6178650029e+01   3.5803856866e+01    0.2318443   0.08090697 -50.72 -6.025932e-05    2.956    0.662
       260  -9.9275     58.2620    120.9524   1.1117178142e+02   4.4297651933e+01    0.3348633    0.1697839 -59.98  0.001593699    1.867    0.464
       261  -9.5894     55.2710    118.3754   1.1165838800e+02   4.5273178522e+01    0.1807638    0.1110458  46.41  0.000687368    1.589    0.371
       262  -9.7843     21.7739    121.0096   1.2189514282e+02   4.8163875319e+01    0.2253175    0.1390668 -69.13 0.0006058484    1.467    0.318
       263 -10.5174     20.0243    118.2238   1.2214691578e+02   4.8955865990e+01    0.2914446    0.1293074  31.76  0.001206387    2.271    0.560
       264  -9.4673     51.8140    120.4219   1.1298575739e+02   4.5220741275e+01    0.1526127    0.1280897  18.66 0.0002242592    1.464    0.317
       265 -10.1930     92.5172    118.7455   1.0095914949e+02   3.9724559607e+01    0.3009422    0.2268652  68.43  0.001079227    1.455    0.313
       266 -10.7798      9.3595    118.2542   1.2528241643e+02   4.9769598987e+01     0.258293     0.159101 -49.07  0.001162347    1.912    0.477
       267  -9.3921     30.4479    117.4196   1.1895820218e+02   4.8218408731e+01    0.1235672    0.1068453 -89.67  0.000206383    1.049    0.047
       268 -10.4897      1.5515    116.0893   1.2740748754e+02   5.0787191244e+01    0.2527159    0.1373975  63.05 -0.0001541599    1.646    0.393
       269 -11.8567      5.3186    114.1923   1.2617285590e+02   5.0980689022e+01    0.4519568    0.1920244  65.29 0.0005533788    2.304    0.566
       270  -9.4324     48.6116    115.8204   1.1327176463e+02   4.6674342599e+01    0.1847321    0.1132166 -84.58 0.0006461303    1.654    0.395
       271  -9.7837     60.8009    114.5329   1.0938604250e+02   4.5458348820e+01    0.3298238     0.173261  77.10  0.001283006    3.036    0.671
       272 -11.4116    149.8691    111.1713   8.4625125006e+01   3.0169133956e+01    0.2338611    0.2194799   9.38   0.00025001    1.069    0.065
       273 -10.0595     49.1241    111.5675   1.1247401823e+02   4.7614679612e+01    0.3031231    0.1338841  27.04  0.001300704    2.652    0.623
       274 -11.0781     19.6472    110.1441   1.2146714520e+02   5.0875051074e+01    0.3016854    0.2101053 -44.03  0.001364131    1.721    0.419
       275 -10.0940     91.8946    109.8859   9.9281677006e+01   4.1798061599e+01     0.211066    0.1948427   3.21 0.0008645382    1.275    0.216
       276  -9.4754     84.0371    108.9504   1.0137103913e+02   4.3320718376e+01    0.1649139    0.1551497  80.67  0.000325312    1.015    0.015
       277 -10.1535     64.7464    107.4769   1.0692353375e+02   4.6573340385e+01    0.3976628    0.2111494  73.65  0.001492868    3.216    0.689
       278 -10.6145     37.1650    108.3332   1.1574480750e+02   4.9699191808e+01    0.2120831    0.1698674  -1.33  0.001005606    1.698    0.411
       279 -10.5262    123.9218    104.8279   8.9318128760e+01   3.6836098057e+01    0.2246801      0.20657 -44.10 0.0003068374    1.106    0.096
       280 -10.4125     18.8845    103.0037   1.2094823569e+02   5.2624976597e+01     0.242716    0.1729022  60.68  0.001481006    1.355    0.262
       281 -10.0614     43.2158    102.8602   1.1298106941e+02   5.0358831169e+01     0.187598    0.1576793  82.23 0.0004703504    1.106    0.095
       282 -11.0039     39.6054    100.2617   1.1375647764e+02   5.1372190253e+01    0.5166942    0.2517948  23.26  0.002073244    2.516    0.603
       283  -9.3287     29.4332    103.4750   1.1757138057e+02   5.1610495012e+01     0.128254    0.1078038  89.94 0.0001296788    1.024    0.023
       284 -10.7113     51.4123    102.4794   1.1024728173e+02   4.9495729784e+01    0.2468001    0.1311943  32.04 0.0007948168    2.023    0.506
       285 -11.3237    105.7081     98.7984   9.2714618020e+01   4.1723264341e+01    0.2927191    0.2589265 -33.75 0.0006106049    1.208    0.172
       286  -9.7078      9.2176     99.7673   1.2377186715e+02   5.4093653710e+01    0.1919409    0.1248069  57.07 0.0009846697    1.493    0.330
       287  -9.5323     72.9763     99.0081   1.0261844309e+02   4.7353209704e+01    0.1674906    0.1547024 -78.46 0.0003569125    1.013    0.013
       288 -10.0306     16.5017     98.1501   1.2119241167e+02   5.3964258614e+01    0.2196645    0.1639929 -58.94 0.0009048277    1.323    0.244
       289 -10.5982     54.8226     97.0887   1.0812889149e+02   5.0354311019e+01    0.2103859    0.1708181  78.69 0.0006504125    1.244    0.196
       290 -10.8101     53.5099     93.0622   1.0777624535e+02   5.1482221915e+01    0.3000028    0.2225857 -36.95  0.001615798    1.584    0.369
       291 -10.7139     62.9260     96.0773   1.0523910255e+02   4.9510449567e+01    0.2077673     0.192157  60.47 0.0003310046    1.109    0.098
       292 -10.5551     37.8122     95.1474   1.1353664095e+02   5.2789309197e+01    0.2655794     0.210174   5.00  0.001423748    1.652    0.395
       293 -10.8268     48.0071     93.4999   1.0974469478e+02   5.2052779422e+01    0.3878819     0.282848 -28.97  0.002070704    1.786    0.440
       294 -10.8730      1.3541     92.9245   1.2578209563e+02   5.6188468816e+01    0.2263491   0.09450161 -82.04 0.0003781193    1.976    0.494
       295 -10.2844    104.9072     91.4143   9.1009094163e+01   4.3468016156e+01    0.3198372    0.2604931  80.49  0.001164927    1.457    0.314
       296 -10.6708     20.0721     81.9921   1.1782549218e+02   5.7580018945e+01    0.3261694    0.1733012  47.67 0.0003972925    2.021    0.505
       297 -10.9974     27.9617     86.9458   1.1568095389e+02   5.5722025247e+01    0.6461875    0.2606007 -48.33  0.002755228    2.617    0.618
       298 -10.1286     17.7115     91.5681   1.1999623745e+02   5.5450218960e+01    0.2141143    0.1822673  87.34 0.0006031283    1.052    0.050
       299 -12.0779     21.2161     88.0697   1.1828728736e+02   5.6021177614e+01    0.2439477    0.2352274 -56.53 0.0002755108    1.205    0.170
       300 -11.3178      7.0648     90.5911   1.2360491039e+02   5.6411058269e+01    0.2685208    0.1807569 -77.55 0.0005961084    1.220    0.180
       301 -10.5111    117.6307     90.6523   8.7233541770e+01   4.1044393177e+01    0.2292012    0.1822548   1.02  0.001093208    1.646    0.393
       302  -9.7432     38.9872     91.0291   1.1242706805e+02   5.3659097374e+01    0.1660395     0.131955 -73.44 0.0004771598    1.110    0.099
       303 -10.7567     87.9513     88.6994   9.5393572868e+01   4.7241730519e+01    0.2720866    0.2402351 -34.01 0.0006302688    1.216    0.178
       304 -10.1621      2.4009     87.6409   1.2495239269e+02   5.7383575898e+01    0.1981619     0.146809  72.40  0.001280356    1.244    0.196
       305  -9.9905     63.9671     86.7563   1.0281010655e+02   5.1561973525e+01    0.1879088    0.1812076  56.43 0.0008669615    1.108    0.098
       306  -9.8556    128.5048     86.0124   8.3038908901e+01   3.9633444780e+01    0.2434382    0.1986467  48.42  0.000832516    1.228    0.186
       307  -9.5796     10.1595     85.3771   1.2193785978e+02   5.7464871197e+01    0.2187406    0.1764537  27.75  0.001439422    1.464    0.317
       308 -12.3606     14.5767     83.6716   1.2010830802e+02   5.7579448704e+01    0.2405459    0.2028528  81.84 0.0002453917    1.110    0.099
       309  -9.5056    155.0625     85.2846   7.6529775157e+01   3.3700599860e+01    0.2023358    0.1926602  41.37 0.0003959214    1.054    0.051
       310 -11.7675     50.9024     83.2740   1.0662785348e+02   5.4151031104e+01      0.45118    0.2840924  16.39  0.001432368    2.141    0.533
       311 -11.1246     72.9695     81.2261   9.8326649890e+01   5.1478192259e+01    0.4507873    0.1752426 -47.15  0.001675136    2.531    0.605
       312 -10.4175     43.7938     81.1209   1.0876989232e+02   5.5519316831e+01    0.2945358    0.2022683 -27.89  0.001220719    1.910    0.476
       313 -10.0873     88.9272     78.1803   9.2158486881e+01   4.9402619065e+01    0.2225786    0.1950751  86.39 0.0004263262    1.266    0.210
       314 -10.4376     55.0414     77.9838   1.0387916570e+02   5.4874636786e+01    0.2077477    0.1835929 -64.93 0.0003970592    1.028    0.028
       315  -9.8604     17.6565     75.3203   1.1772728821e+02   5.9376371427e+01     0.474852    0.1911631 -75.52  0.002098742    2.209    0.547
       316 -10.7348     62.5161     75.2810   1.0043679428e+02   5.4461759482e+01    0.3278416    0.2429209  42.16  0.001740716    1.441    0.306
       317 -10.0370     28.7975     75.1997   1.1331579124e+02   5.8489937473e+01    0.3961388    0.1319658 -55.69  0.001616754    2.468    0.595
       318  -9.4865     26.7844     71.4144   1.1338878440e+02   5.9584914965e+01    0.1757688    0.1317098  25.36  0.001033267    1.555    0.357
       319 -10.5514     69.4925     74.3122   9.7647274137e+01   5.3620135565e+01     0.251011    0.2204925 -76.09 0.0007255246    1.157    0.136
       320 -10.4139     80.9037     74.0591   9.3594901894e+01   5.1765257395e+01    0.2108387    0.2002121 -66.98 0.0003448144    1.033    0.032
       321  -9.3662    142.6300     73.2398   7.5711821528e+01   3.8772834560e+01    0.2111099    0.1449947 -24.61 0.0006254382    1.588    0.370
       322 -10.3942     89.1261     69.9543   8.9578782567e+01   5.1151845818e+01    0.5870719    0.1882973 -43.73  0.001897925    3.098    0.677
       323 -10.7344     42.1532     70.8782   1.0709252086e+02   5.8161706158e+01    0.4335912    0.2800346 -13.29 0.0007128734    2.395    0.582
       324 -11.1041     45.2002     69.0195   1.0542028154e+02   5.8247257227e+01    0.6585809    0.2925546 -32.88  0.002154421    4.422    0.774
       325 -10.1555     37.1381     69.7006   1.0882767691e+02   5.8994746391e+01    0.3748235    0.2260381  68.94 0.0009522112    2.244    0.554
       326 -10.0755     79.7747     70.0733   9.2770516734e+01   5.2847627875e+01    0.2072856    0.1867708 -72.30 0.0003921473    1.145    0.127
       327 -10.0599     52.4276     69.6133   1.0272393018e+02   5.7195566854e+01    0.2638664    0.1918421  87.97  0.001208288    1.683    0.406
       328  -9.3471    101.6917     69.6792   8.5509131469e+01   4.8703026368e+01    0.1510318    0.1192523  -2.43  0.000222717    1.642    0.391
       329  -9.5515     59.3075     69.6553   1.0008711491e+02   5.6235059624e+01    0.1425895    0.1063225  82.58 0.0007043415    1.696    0.410
       330 -11.2401      5.8835     51.1933   1.1872917072e+02   6.5916812808e+01    0.5996991    0.1399442 -52.23  0.001429859    3.191    0.687
       331  -9.8685     22.5610     48.9215   1.1015692533e+02   6.5314892075e+01     0.281897    0.1665362 -75.97  0.001078837    1.706    0.414
       332 -10.7692     19.5722     40.9772   1.0946136879e+02   6.7409495058e+01    0.3246346    0.1800804  20.49  0.001702824    2.132    0.531
       333 -11.1653      1.3865     65.9806   1.2299603314e+02   6.2610246528e+01    0.4800148    0.1034324 -77.85  0.001625571    3.968    0.748
       334 -10.4991     16.3462     51.9258   1.1387816733e+02   6.5090652178e+01    0.2454845    0.1543286 -64.58 0.0003970595    1.307    0.235
       335 -10.9179      5.6274     37.0318   1.1589285485e+02   6.9260359577e+01    0.8370462    0.4192627 -68.02  0.004430241    1.614    0.380
       336 -10.6422      9.4683     62.6867   1.1908088918e+02   6.2968130776e+01    0.2346125    0.2287944 -29.87 0.0009289269    1.228    0.186
       337 -11.0716      1.8132     60.9175   1.2214482274e+02   6.3800899836e+01    0.3234014    0.1710392 -64.93  0.001083235    1.500    0.333
       338 -11.4178      5.9671     58.7339   1.1998320038e+02   6.4113896569e+01     0.394844    0.2754341  48.57  0.001643934    1.618    0.382
       339 -11.0208     17.1888     46.9984   1.1229862140e+02   6.6192332867e+01    0.2707228    0.2260661 -12.59 0.0004330991    1.390    0.280
       340  -9.4708    247.6900    249.3435   9.1718594594e+01  -3.5317358294e+00   0.08161282   0.06779436  27.52 0.0005250683    1.699    0.411
       341  -9.7200    130.6345     67.8975   7.6893383521e+01   4.2587567437e+01    0.2068962    0.1897346 -39.26  0.000385302    1.082    0.075
       342 -10.3900     22.0130     67.5049   1.1459351637e+02   6.0930141259e+01    0.2308938    0.1854562  71.79  0.001424805    1.315    0.239
       343 -10.9575     21.8719     63.2563   1.1380930043e+02   6.1964056745e+01    0.3193538     0.221598 -61.78  0.001861464    1.213    0.176
       344 -11.8559     23.4525     57.7330   1.1191073103e+02   6.3156076518e+01    0.3963583    0.2983545  59.40  0.001245111    1.525    0.344
       345  -9.7794     75.2968     66.4265   9.3202667939e+01   5.4435025113e+01    0.2391461    0.1431283  35.12 0.0005720371    1.844    0.458
       346 -10.3235     55.5663     66.2441   1.0056238778e+02   5.7555180280e+01    0.2889935    0.1918523  27.39 0.0007220741    1.743    0.426
       347  -9.7106    101.2926     64.0823   8.3764180064e+01   4.9923754808e+01     0.211262    0.1883656 -39.87 0.0005284558    1.091    0.084
       348  -9.8936    106.0392     67.1687   8.3373125172e+01   4.8294365972e+01     0.221998    0.2009341  14.50 0.0004625542    1.200    0.167
       349 -10.2751     98.0645     60.7269   8.3604669321e+01   5.1275214610e+01    0.2090078     0.194096  44.11 0.0005748839    1.111    0.100
       350 -10.6480     73.7675     61.1866   9.2048887530e+01   5.5847838868e+01    0.3019742    0.2077074  30.10 0.0006244699    1.661    0.398
       351 -10.4609     70.6822     59.6687   9.2684366574e+01   5.6706706543e+01    0.2656451     0.216489 -16.45 0.0006312307    1.435    0.303
       352 -10.3497     38.9687     60.4743   1.0576574239e+02   6.0988312541e+01    0.2445708    0.2369788 -12.75 0.0007909655    1.160    0.138
       353 -10.9103     32.4123     59.2647   1.0829388069e+02   6.1968029803e+01    0.2889234    0.1997305  33.23  0.001617438    1.629    0.386
       354  -9.0332    238.3433     58.7279   5.5772879124e+01   1.8299849713e+01    0.1340276   0.09380321 -55.48 0.0002820838    1.615    0.381
       355 -10.7189     53.8096     56.7775   9.8396407424e+01   5.9968964587e+01    0.3778687    0.2399028  78.37  0.001565923    2.866    0.651
       356  -9.8519    117.3106     56.3697   7.6408611890e+01   4.7823283214e+01    0.3649741    0.2355759   3.01  0.001367667    2.679    0.627
       357  -9.7046    110.1511     56.6920   7.8525079175e+01   4.9414664803e+01    0.2342538    0.1896997  73.27 0.0007324982    1.461    0.315
       358  -9.3301    106.4578     57.4547   7.9877191964e+01   5.0100307875e+01    0.1491063    0.1453569 -29.14 0.0001789549    1.006    0.006
       359 -10.6396    225.9036     55.7335   5.6405885456e+01   2.1355957755e+01    0.2362036    0.1770904 -29.78 0.0002924095    1.190    0.160
       360 -10.0222     93.8851     54.5986   8.2729711759e+01   5.3363028573e+01    0.4026808    0.2548458  18.96  0.001602371    2.488    0.598
       361 -10.2797    151.1212     53.3893   6.7352651208e+01   3.9990768003e+01    0.2376156    0.2112425  -5.89 0.0004544932    1.174    0.148
       362 -10.0384     32.9678     54.2142   1.0670386363e+02   6.3101226636e+01    0.2926498    0.1825711 -35.78  0.001503053    1.751    0.429
       363 -10.0310     28.9099     53.1980   1.0828804506e+02   6.3741099647e+01     0.187548    0.1657539  87.23  0.000542918    1.211    0.174
       364 -11.5347     42.7313     50.9802   1.0131326655e+02   6.2747139723e+01    0.5700087    0.3272646 -32.91  0.002643523    2.085    0.520
       365  -9.9160     60.7839     52.0828   9.3933583791e+01   5.9973167691e+01    0.2014843    0.1827652 -76.85  0.001165652    1.207    0.171
       366 -10.2547     80.2885     50.4213   8.5809511969e+01   5.6917337541e+01    0.2767597    0.1243482 -44.87  0.001078931    2.116    0.527
       367 -10.6348     65.6542     50.0096   9.1212487056e+01   5.9629928363e+01    0.2954078    0.2083762 -59.38  0.001476686    1.502    0.334
       368  -9.6650    128.8672     50.0950   7.1154670785e+01   4.6122871097e+01    0.2049493     0.176861   9.05 0.0003462264    1.269    0.212
       369 -10.9456     94.5004     49.1480   8.0461672869e+01   5.4282516037e+01     0.402384    0.2927739 -18.97 0.0009762255    1.593    0.372
       370 -10.2514    114.2740     47.4041   7.3902839553e+01   5.0121546400e+01    0.2654352    0.1976115 -32.54 0.0002618612    1.326    0.246
       371 -10.2666     72.5078     47.9993   8.7767673770e+01   5.8856929525e+01    0.3024715    0.1813774  60.71  0.001267566    2.427    0.588
       372  -9.7497     37.8235     48.1987   1.0266611571e+02   6.3963999582e+01     0.191178    0.1432512 -35.28  0.000872176    1.345    0.256
       373  -9.3704     31.5734     47.8031   1.0549610263e+02   6.4733764954e+01    0.1256072    0.0906367 -19.27 0.0006758182    1.664    0.399
       374  -9.7849    165.0123     45.9609   6.2213341293e+01   3.7509371209e+01    0.2167994    0.2108981 -22.66  0.001187233    1.010    0.010
       375 -10.8855     61.8516     44.9662   9.0839947083e+01   6.1319298666e+01    0.3190773    0.2255231 -38.95 0.0007316603    1.333    0.250
       376  -9.3698    123.4971     45.4950   7.0762903372e+01   4.8204734697e+01     0.151094    0.1481298 -44.43 -6.936483e-05    1.043    0.042
       377 -11.7595     70.4201     41.5134   8.5975482193e+01   6.0537571754e+01    0.4882521    0.3271094 -22.89  0.001962703    1.766    0.434
       378 -11.9378     71.0151     37.7604   8.4148131996e+01   6.1156173296e+01    0.2695124    0.2360321 -35.10 0.0002244903    1.067    0.063
       379  -9.7153     42.6832     44.1255   9.9010867583e+01   6.4291945401e+01    0.1955851    0.1542709 -47.36  0.001089819    1.117    0.105
       380 -10.6477     33.2145     44.0214   1.0350928860e+02   6.5426079257e+01    0.2093399    0.1868079  47.01 0.0007568463    1.301    0.231
       381 -10.4433    141.5783     42.3130   6.5427261004e+01   4.4117523858e+01    0.2692916    0.2468884  18.28 0.0003235638    1.129    0.114
       382  -9.7285    151.5183     41.4858   6.3140304229e+01   4.1651824112e+01    0.2687081    0.1512412 -12.20 0.0009951787    2.268    0.559
       383  -9.7390     92.1221     40.8316   7.7881980968e+01   5.6322388809e+01    0.2091862    0.1742928  12.46  0.000823894    1.333    0.250
       384 -11.8071    103.5962     38.9958   7.3562619417e+01   5.4058264186e+01     0.265668    0.2515106 -47.12 0.0003718548    1.098    0.089
       385 -10.6086    116.7621     38.5261   6.9747628829e+01   5.0979246638e+01    0.4496122     0.238339  59.21  0.001589218    1.982    0.495
       386 -10.0375     82.2024     39.1701   8.0565584359e+01   5.8709603458e+01    0.2120621     0.189232  -9.65 0.0004717486    1.132    0.117
       387  -9.9679     85.9669     37.1566   7.8378692205e+01   5.8292896544e+01    0.2437265    0.1972003 -33.56  0.000733212    1.184    0.155
       388  -9.8744     86.9611     33.3234   7.6346459731e+01   5.8746753270e+01    0.2457759      0.19769 -44.65 0.0006172593    1.271    0.213
       389 -12.5413    194.0426     35.3624   5.4467787201e+01   3.1398268296e+01    0.3238427     0.289175  77.40 0.0004335663    1.173    0.147
       390  -9.4861    156.1878     36.8829   6.0650282861e+01   4.1056645978e+01    0.2074631    0.1722468  28.44 0.0004055025    1.294    0.227
       391  -9.1749     91.2482     37.6103   7.6802311486e+01   5.7080012849e+01    0.1496199    0.1106871 -60.26 0.0006946911    1.669    0.401
       392 -11.2803    142.3574     32.1059   6.1469625588e+01   4.5345182895e+01    0.6674461    0.2610864 -26.58  0.002334531    2.556    0.609
       393 -10.3449    131.3693     36.2513   6.5345225413e+01   4.7638207574e+01     0.338298    0.1995888  57.27 0.0005082837    1.675    0.403
       394 -10.3431    119.5435     34.1836   6.7284687023e+01   5.0950309319e+01    0.3024527    0.2368245 -75.84  0.001442295    1.601    0.376
       395 -11.5039     41.4047     38.1182   9.7383865978e+01   6.5767784973e+01     0.376333    0.2478397 -34.83 0.0008175406    1.517    0.341
       396  -9.4617     57.7096     35.3067   8.8621971055e+01   6.3965706180e+01    0.1930107     0.157611  -8.86 0.0003200177    1.341    0.254
       397 -10.0869     60.6112     33.1925   8.6414604958e+01   6.3893126604e+01    0.2723884    0.1875448 -32.54 0.0007324667    1.402    0.287
       398 -10.1609     55.1974     33.0830   8.8760932749e+01   6.4813614106e+01    0.4286168     0.158815 -42.56  0.001473642    2.485    0.598
       399 -11.7883    107.5777     29.3733   6.8335791605e+01   5.4623281282e+01     0.481886    0.2821835 -22.63 0.0004821104    1.813    0.449
       400 -11.1811     76.4912     32.7626   7.9818013354e+01   6.1020393950e+01    0.3517414    0.2476621 -72.82  0.001562359    2.321    0.569
       401  -9.2553     48.2672     34.3104   9.2516248175e+01   6.5629074258e+01    0.1355734   0.09659952 -23.63 0.0001512996    1.541    0.351
       402  -9.5949     29.2311     34.1266   1.0207645883e+02   6.8059284604e+01     0.162919    0.1437759 -80.03 0.0004383865    1.284    0.221
       403 -10.4982     34.1066     31.1498   9.8307377957e+01   6.8159340620e+01    0.3595594    0.2037563 -66.78 0.0008572743    2.177    0.541
       404 -10.1166     77.8711    248.0383   1.1929783170e+02   1.8095300207e+01     0.494334    0.1940885 -79.32  0.002633904    4.204    0.762
       405  -9.9737     10.0323     22.3805   1.0893718581e+02   7.2316479671e+01    0.1781733    0.1438622  -0.57 0.0004189094    1.411    0.291
       406  -9.8858     24.0753     30.8444   1.0366690556e+02   6.9298212220e+01    0.2109874    0.1589239 -64.52 0.0005433351    1.284    0.221
       407 -10.0990     23.0604     27.0465   1.0277724664e+02   7.0223140627e+01    0.1853275     0.157465 -53.27 0.0003237093    1.085    0.078
       408  -9.9283    163.5346     29.9884   5.7000734339e+01   3.9987532924e+01    0.2236493    0.1466494 -22.55 0.0005198264    1.537    0.349
       409 -10.3934    158.9512     29.9760   5.7729166463e+01   4.1209251852e+01    0.2233607    0.2152562  16.25 0.0003251586    1.060    0.057
       410 -10.9067     71.5378     29.3587   8.0127853297e+01   6.2599393676e+01    0.3020468    0.2496876  35.42  0.001669763    1.255    0.203
       411  -9.7396     45.6673     24.3367   8.9206026612e+01   6.7994530007e+01    0.1771656    0.1392635  54.34 0.0009915112    1.634    0.388
       412 -10.2625    204.5807     26.8065   5.0662622320e+01   2.9720985677e+01    0.2089636    0.1147176 -36.33 0.0006484221    1.645    0.392
       413  -9.8713    181.6121     27.2191   5.3489116129e+01   3.5537775910e+01    0.2038141    0.1393163  -8.69 0.0008227062    1.620    0.383
       414 -10.6301     49.6024     27.7234   8.8904640829e+01   6.6743647931e+01    0.3884213    0.2707624  71.94  0.001292664    2.624    0.619
       415  -9.5371     37.9841     26.5132   9.4224077179e+01   6.8641310556e+01    0.1846598    0.1303397  26.27  0.001025702    1.582    0.368
       416 -11.4784     73.2096    244.1723   1.1986056644e+02   1.9179999394e+01    0.1915022    0.1385548  44.49 0.0004463079    1.101    0.092
       417 -11.7474     76.3083    241.6939   1.1915772586e+02   1.9171019258e+01    0.2660585    0.1461696  59.61 0.0007476087    1.644    0.392
       418 -11.1428    153.5699     23.1703   5.6136255279e+01   4.3463637041e+01    0.2639908    0.2448349  56.17 0.0002703709    1.072    0.067
       419 -11.5636    176.1824     22.2653   5.2557777952e+01   3.7516809950e+01    0.4453584     0.237402  44.51   0.00143806    2.050    0.512
       420 -11.3436     46.1980    246.0313   1.2462224195e+02   2.1898223159e+01    0.2742166     0.161538  79.89  0.001645337    1.729    0.422
       421 -11.9356    116.9587     22.6050   6.3020782345e+01   5.3215897306e+01     0.262203    0.2403324 -16.16 0.0001878245    1.086    0.079
       422 -10.0008     62.2864     23.3861   8.0979135392e+01   6.5392555274e+01    0.2554153    0.1288467  39.87  0.001121104    2.116    0.527
       423 -11.2822    223.4798     21.2867   4.7276562330e+01   2.5730712551e+01    0.3417003    0.1553089  37.90  0.001314857    3.179    0.685
       424  -9.9993    133.0025     22.2775   5.9447436605e+01   4.9072749499e+01    0.2077053     0.203922  63.10  0.000693182    1.028    0.028
       425 -10.4321    101.6622     20.8362   6.6083534096e+01   5.7270584421e+01    0.4648716    0.1594954 -29.76  0.001066656    2.791    0.642
       426  -9.6489     40.7184     21.7026   9.0453639288e+01   6.9220209754e+01    0.1966209    0.1570181  34.95 0.0002323096    1.401    0.286
       427 -10.2299     36.6983     21.4457   9.2499666750e+01   6.9821141605e+01    0.3027602    0.1967753  11.99 0.0009377498    1.952    0.488
       428 -10.1821     27.5989     21.0175   9.7494137996e+01   7.1020550517e+01    0.2752126    0.1632139 -25.15  0.001384657    1.961    0.490
       429 -10.2248    140.7528     20.9025   5.7446563058e+01   4.7170048055e+01    0.2694122    0.1908136  53.85 0.0006524039    1.372    0.271
       430 -11.2298    209.4314    246.5984   9.7074645467e+01   1.3560328226e+00    0.3466574    0.1668975  42.47  0.001610709    1.929    0.482
       431  -9.7807     89.2631     19.5285   6.9073357874e+01   6.0384867073e+01    0.2791157    0.2606083  85.79   0.00110547    1.247    0.198
       432  -9.8352     66.4367     22.7712   7.8925904127e+01   6.4717962911e+01    0.1946055    0.1259779 -24.03 0.0008854962    1.593    0.372
       433 -10.4239     96.4508    247.5273   1.1604910120e+02   1.5935989177e+01    0.1709422    0.1125452  35.58 0.0006756825    1.262    0.208
       434  -8.8890     65.3103     19.3184   7.7589704082e+01   6.5503979774e+01    0.1426229    0.1030971   4.68 0.0002204112    1.641    0.391
       435  -9.7448    214.3091     18.3395   4.7251274231e+01   2.8210529998e+01    0.1401718    0.1003676  28.00 0.0006355431    1.687    0.407
       436  -9.4282     61.4666     17.8123   7.8398906865e+01   6.6480405552e+01    0.1817573    0.1235849 -21.75 0.0009172563    1.482    0.325
       437 -12.4685    204.4864    240.3526   9.7063573681e+01   2.5712359687e+00    0.2862554    0.1779198  15.76 0.0003994757    1.428    0.300
       438 -11.0859    200.6331    244.8910   9.8242901464e+01   2.6437253042e+00    0.2137971     0.148218  33.04 0.0006148868    1.191    0.161
       439 -10.9858    198.0667    240.3540   9.8087777397e+01   3.4150124082e+00    0.1891448    0.1329291  29.16 0.0001934773    1.077    0.072
       440 -11.0270     14.9832     18.5109   1.0421265111e+02   7.2777422448e+01    0.1700563     0.147912 -36.12 0.0004803277    1.080    0.074
       441  -9.3767    157.5831     17.4943   5.3436417159e+01   4.3013194145e+01    0.1451348    0.1417711 -53.62 8.975653e-05    1.021    0.021
       442 -10.2507     80.8771     17.1860   7.0618226979e+01   6.2603692113e+01    0.2085897    0.1917986 -64.92 0.0003418244    1.293    0.227
       443 -10.6057     31.3054     16.9570   9.3287794293e+01   7.1390757674e+01    0.2557298    0.2092444 -49.07 0.0007666103    1.208    0.172
       444 -10.4939    164.7814    244.3104   1.0402245782e+02   7.4420022798e+00    0.1597864    0.1261581  24.08 0.0003292262    1.145    0.127
       445 -11.0366    145.9156    242.8761   1.0706806193e+02   1.0133081315e+01    0.1778274    0.1431141  33.25 0.0003545861    1.117    0.105
       446  -9.8327    112.5086     15.4958   6.0885778209e+01   5.5236071844e+01     0.281997    0.2328899  11.59 0.0006994239    1.266    0.210
       447 -11.3569    144.0549    238.2874   1.0691028057e+02   1.0936757218e+01    0.2821844    0.1457143  33.17 0.0008738569    1.530    0.346
       448  -9.4810    106.2338    244.3755   1.1409849756e+02   1.5135442001e+01     0.151911   0.06867096  43.80 0.0007254189    1.587    0.370
       449 -11.1422    191.6140    240.9514   9.9202804439e+01   4.2107502373e+00    0.2493343    0.1853414 -38.00  0.001490525    1.890    0.471
       450 -10.5906     91.9570    242.4721   1.1645528652e+02   1.7176416985e+01     0.211204     0.120803  45.39 0.0006345675    1.255    0.203
       451 -10.1266     62.0667    243.0292   1.2173441368e+02   2.0614429759e+01    0.1588438    0.1083586  50.68 0.0007640806    1.029    0.028
       452 -10.8771    137.8080    240.7512   1.0825148202e+02   1.1476262125e+01     0.185604    0.1339535  49.61 0.0005199088    1.301    0.231
       453  -8.9705     55.0869    240.2752   1.2280128907e+02   2.1790802819e+01    0.2561432     0.118494  88.11    0.0013963    2.722    0.633
       454 -10.3840    225.9765    240.1886   9.3706676690e+01  -1.7325112298e-01    0.1543825    0.1142089  10.40 0.0002544879    1.159    0.137
       455 -10.4244    114.7438    239.5293   1.1218513841e+02   1.4686295014e+01    0.2027486    0.1534646  13.14 0.0008099378    1.699    0.411
       456  -9.3204     50.6458     14.6946   8.1610547244e+01   6.8933324666e+01    0.1395454    0.0979934   0.91 0.0007041185    1.714    0.417
       457 -10.8567    119.3242    241.0637   1.1151543342e+02   1.3886085130e+01    0.2279322    0.1098039  37.94 0.0009786132    1.523    0.344
       458 -10.1628    120.1787    237.5951   1.1104396212e+02   1.4229242911e+01    0.1630041    0.1220395  27.32 0.0004148796    1.311    0.237
       459  -9.9460    109.6855    241.3655   1.1323991084e+02   1.5096101426e+01    0.1762406    0.0966506  55.39  0.001136996    1.768    0.435
       460 -10.1535    243.0729     24.9947   4.6662447230e+01   2.0938962305e+01    0.1955326    0.1688758 -32.58 0.0003918914    1.021    0.021
       461 -10.8667    246.3395    239.6835   9.0617152938e+01  -2.6319570640e+00    0.2008949     0.156181  47.84  0.001540308    2.322    0.569
       462 -10.8603     97.2515    235.1835   1.1494027776e+02   1.7536400805e+01    0.1528063    0.1172104  69.91 0.0002162032    1.385    0.278
       463 -11.3272     97.0662    239.0630   1.1528676819e+02   1.7014522054e+01     0.243617    0.1345892  51.62  0.001410009    1.486    0.327
       464  -9.5653    106.0073    235.0178   1.1334721251e+02   1.6436355701e+01    0.1515442     0.116646  33.83            0    1.213    0.176
       465 -10.0365    102.6017    234.0165   1.1387566771e+02   1.7016963637e+01    0.1729294    0.1425202  77.75 0.0008419928    1.395    0.283
       466 -10.5830    167.8772    238.5694   1.0285066792e+02   7.6606949535e+00    0.1582268    0.1513896  32.58 0.0006579814    1.403    0.287
       467 -11.2345    218.1391    237.3191   9.4527552613e+01   1.0781277322e+00     0.308741     0.154411  41.78  0.001978498    1.875    0.467
       468  -9.7393     84.0149    238.1681   1.1754724335e+02   1.8754516218e+01     0.183968   0.07873511  52.32  0.001077733    1.963    0.491
       469 -10.0153    179.9632    242.4456   1.0128696832e+02   5.6109662119e+00    0.1653318   0.07668846  38.27  0.001019075    1.591    0.371
       470 -10.2643     43.0030    236.2043   1.2471646524e+02   2.3696621366e+01     0.203012    0.1171153  75.88  0.000861871    1.667    0.400
       471  -9.5742    160.5083    236.4487   1.0386232301e+02   8.9097106505e+00    0.1093758   0.07971124  34.51  7.95603e-05    1.032    0.031
       472  -9.6745     30.8486    236.4092   1.2684884178e+02   2.4901580220e+01    0.1293313   0.08050644  29.60 0.0009467493    1.726    0.420
       473  -9.9399    197.1901    233.7793   9.7391160508e+01   4.1853294433e+00    0.1528718    0.1159233  33.51 0.0005670823    1.234    0.190
       474 -10.1795    133.0859    233.5929   1.0835282165e+02   1.3020392408e+01    0.1739076    0.1368045  69.13  0.001009248    1.595    0.373
       475  -9.4298    183.3519    233.1611   9.9594910183e+01   6.1363170622e+00    0.1107113     0.101585 -36.76 0.0009107575    1.588    0.370
       476  -9.9352    173.4505    233.4787   1.0130197905e+02   7.4660473401e+00    0.1100669   0.07994045  27.95  9.59126e-05    1.052    0.049
       477  -9.9041     90.1314    232.8537   1.1604333780e+02   1.8768909025e+01    0.1635124    0.1125719  52.56  0.000568228    1.161    0.139
       478  -9.4928     34.6830    232.9746   1.2603642544e+02   2.5049065869e+01    0.1301329   0.09592907  60.04 0.0002955724    1.086    0.079
       479 -10.9697    144.0992    232.0974   1.0623686971e+02   1.1699371785e+01    0.3327772      0.11969  39.48  0.001426152    2.055    0.513
       480 -10.1439     74.7771    231.2939   1.1872665373e+02   2.0880111170e+01    0.2040715    0.1407745 -56.29  0.001238369    1.969    0.492
       481 -11.3287     73.2545    226.2302   1.1864969929e+02   2.1836069582e+01    0.2961388    0.1212764  45.18  0.001049331    1.764    0.433
       482 -10.6453     46.1775    229.0257   1.2379447702e+02   2.4472944304e+01    0.3651394    0.1649799  69.85  0.002209695    2.271    0.560
       483 -10.2950     29.3817    230.9747   1.2688950290e+02   2.5890152874e+01    0.2215349    0.1122156 -78.92  0.001520098    2.139    0.532
       484 -10.0798     23.2320    231.6161   1.2799517059e+02   2.6385279548e+01    0.1479663    0.1358116  24.14 0.0009280269    1.611    0.379
       485  -9.5023    187.2718    230.6154   9.8617022420e+01   5.8699212359e+00   0.09458046   0.07846704  54.85 0.0006994249    1.708    0.414
       486 -11.4251    152.7653    227.1417   1.0413758752e+02   1.1111067462e+01    0.3005245    0.2574458  38.61  0.001310678    1.179    0.152
       487  -9.7681     55.4217    228.6801   1.2209457135e+02   2.3518524682e+01    0.1061868   0.09113872  82.16  0.000256903    1.319    0.242
       488  -9.5312    138.3831    228.1700   1.0682759103e+02   1.2997939147e+01    0.1251461    0.1041384 -84.75 0.0007366237    1.709    0.415
       489  -9.8174    126.2957    228.1865   1.0901901697e+02   1.4668187203e+01    0.1942475    0.1147279  32.48 0.0007077144    1.433    0.302
       490 -11.3177    110.7587    226.8746   1.1173943193e+02   1.6959628772e+01    0.3917343    0.1913222  57.48  0.001727786    2.357    0.576
       491  -9.9310     93.5788    227.2646   1.1495516053e+02   1.9154835493e+01     0.168621    0.1045565 -76.42  0.001065375    2.091    0.522
       492  -9.6483    202.9755    227.4735   9.5613371019e+01   4.0379821262e+00    0.1551498   0.08166378  35.97  0.000307575    1.461    0.315
