#   1 NUMBER                 Running object number                                     
#   2 MAG_AUTO               Kron-like elliptical aperture magnitude                    [mag]
#   3 X_IMAGE                Object position along x                                    [pixel]
#   4 Y_IMAGE                Object position along y                                    [pixel]
#   5 X_WORLD                Barycenter position along world x axis                     [deg]
#   6 Y_WORLD                Barycenter position along world y axis                     [deg]
#   7 A_WORLD                Profile RMS along major axis (world units)                 [deg]
#   8 B_WORLD                Profile RMS along minor axis (world units)                 [deg]
#   9 THETA_WORLD            Position angle (CCW/world-x)                               [deg]
#  10 FWHM_WORLD             FWHM assuming a gaussian core                              [deg]
#  11 ELONGATION             A_IMAGE/B_IMAGE                                           
#  12 ELLIPTICITY            1 - B_IMAGE/A_IMAGE                                       
         1 -13.2732    198.4538     41.3221   4.3523517906e+01   3.0848145084e+01     1.130355     1.001355 -55.39  0.003346697    1.097    0.088
         2 -13.7369    208.1829     31.8483   4.0005886788e+01   2.9807890797e+01     1.311691    0.9106857 -19.10  0.001513435    1.847    0.459
         3 -12.8961    232.9686      5.7987   3.1915991552e+01   2.7326381643e+01     0.815223    0.5987446 -89.94  0.005250632    1.198    0.165
         4  -9.5534     60.8407      7.8190   6.1735963964e+01   6.5927255605e+01    0.1500795     0.141755   8.49 0.0004069134    1.309    0.236
         5  -9.6085     52.5264    218.5669   1.1526803249e+02   2.1911559692e+01    0.2069349    0.1807118 -88.13 4.799826e-05    1.164    0.141
         6 -10.5232    139.9577    249.7919   1.0059309019e+02   3.4603349312e+00    0.2907624    0.2188628  70.98  0.001745016    1.755    0.430
         7  -9.6611    128.9960    250.2775   1.0285030949e+02   5.0239642089e+00    0.1851097    0.1387746  38.56 0.0009339707    1.106    0.096
         8 -14.8825     46.8644    199.7561   1.1475261498e+02   2.6725091665e+01     8.121692     2.682318  63.46   0.02069443    7.693    0.870
         9 -10.3845    154.7614    216.4236   9.2720020675e+01   6.9809527680e+00    0.2825601    0.1590783  48.34   0.00132179    1.865    0.464
        10  -9.7927     59.3155    220.2713   1.1399745953e+02   2.0702494039e+01    0.3168618    0.2494201 -51.45  0.001119023    1.578    0.366
        11  -8.5128     37.8646    215.6156   1.1807065082e+02   2.4264938646e+01    0.1603058   0.08895689  51.07 0.0004369368    1.564    0.361
        12 -10.6333     41.9524    207.8421   1.1656784311e+02   2.5489604221e+01    0.6039811    0.2769345  83.76  0.002566855    2.652    0.623
        13  -9.3589     89.9136    212.5679   1.0651567165e+02   1.8139874071e+01    0.2367278     0.180716 -86.94 0.0005027042    1.377    0.274
        14 -10.4276    187.9970    211.4873   8.4895192146e+01   2.3567234717e+00    0.2123134    0.1214439  34.81  0.001042133    1.619    0.382
        15 -10.9072    112.3553    196.6965   9.9161274839e+01   1.8087830735e+01    0.8758287    0.5068746  -1.13  0.002322672    7.077    0.859
        16 -10.7430    111.7679    204.6048   1.0048462588e+02   1.6468956667e+01    0.4050739    0.2551654 -76.10 0.0009753031    2.033    0.508
        17 -11.1408    107.7511    203.7401   1.0128401234e+02   1.7299210678e+01     0.406168    0.2550445  58.99  0.001584765    1.753    0.429
        18  -9.7758     31.7967    203.8291   1.1840618512e+02   2.7500008088e+01    0.3120632    0.1960389 -83.50  0.001822058    1.412    0.292
        19 -10.9898    194.0959    196.1305   8.0834978873e+01   4.0309786227e+00     0.992415    0.6635165 -74.93  0.003868193    3.797    0.737
        20  -9.8612    204.7601    199.4058   7.9312864945e+01   1.6776588300e+00    0.1903438    0.1177126  24.78 0.0006404999    1.633    0.388
        21  -8.7726    121.6319    199.6886   9.7459468271e+01   1.5899477780e+01    0.1428049     0.110178  -5.42 0.0007036887    1.766    0.434
        22  -9.5304    120.7101    195.3190   9.6978656770e+01   1.6997055054e+01    0.2391697    0.1712391 -72.47 0.0006280321    1.648    0.393
        23  -8.2120     27.4259    195.4556   1.1867305201e+02   2.9833108081e+01    0.1242994   0.09948955  80.74 0.0001668238    1.013    0.013
        24  -8.5240     24.4179    193.7693   1.1919578109e+02   3.0517296865e+01    0.2271217    0.1335224  62.22 0.0006939192    1.558    0.358
        25 -13.0237     55.7696    186.2469   1.1126545899e+02   2.8771792880e+01    0.9133584    0.7015148  58.26   0.00510433    1.222    0.182
        26  -8.7781     71.9560    188.0891   1.0759918995e+02   2.6212551442e+01    0.2075947      0.15959  73.70 0.0005271293    1.275    0.216
        27 -17.2867     14.8437    243.2898   1.2423241501e+02   2.1103303123e+01     5.696227     2.049415  27.62   0.01954975    3.736    0.732
        28 -10.5700     65.8857    179.4236   1.0795561164e+02   2.9092747241e+01     0.390895    0.2966103  68.42  0.001002791    1.296    0.228
        29  -8.9128     69.8427    184.0331   1.0758524108e+02   2.7459117073e+01    0.2082519    0.1620239  75.06 0.0004054977    1.255    0.203
        30 -10.0457     99.3436    180.7247   9.9797392287e+01   2.3838543645e+01     0.250793     0.242424 -19.24 0.0006223908    1.172    0.147
        31  -8.3527     90.4751    181.5159   1.0212893748e+02   2.5051780184e+01    0.1421389    0.1305383  75.58 0.0001640072    1.021    0.020
        32  -9.3373     42.9829    180.0064   1.1363875973e+02   3.1766113923e+01    0.2228709    0.1884051 -51.45 0.0003409652    1.360    0.265
        33  -9.7460     46.1292    176.8402   1.1252233233e+02   3.2166558498e+01     0.283428     0.235757  71.54 0.0009268714    1.105    0.095
        34  -8.5715     93.3926    179.2707   1.0105264998e+02   2.5127897747e+01    0.1901738    0.1331009 -76.23 0.0002685954    1.544    0.352
        35  -8.5224    148.5112    175.4465   8.6837575382e+01   1.6360302810e+01    0.2493967    0.1470377 -49.22 0.0006492504    1.746    0.427
        36  -9.5789    146.5772    171.8125   8.6575780497e+01   1.7514256752e+01    0.2751855    0.2124788  57.85 0.0009897228    1.459    0.315
        37 -12.5062    106.6921    172.2906   9.6527969545e+01   2.4610266012e+01     3.123629    0.5706505  46.14  0.006421174    8.070    0.876
        38 -11.3790     74.2087    167.8678   1.0419485573e+02   3.0753023609e+01    0.3831662    0.2992681 -44.72 0.0006705394    1.411    0.291
        39 -12.9410     48.6610    107.8607   1.0101947827e+02   4.9009542735e+01     1.489823     1.013369 -88.28  0.007225579    1.896    0.473
        40  -9.5916    188.1840    176.5813   7.8209241715e+01   8.7044914966e+00     0.331781    0.2725846  41.18  0.001488441    1.273    0.214
        41  -8.6689    194.4637    171.5059   7.5855117230e+01   8.5202508055e+00    0.1446504    0.1320571  -8.23 0.0002727615    1.003    0.003
        42  -9.6756    240.4793    169.4475   6.6766111646e+01   9.0244360921e-01    0.1341108    0.1122155 -16.44 8.326479e-06    1.013    0.013
        43  -8.8491    185.4236    169.2827   7.7279661902e+01   1.0639396476e+01    0.1978017    0.1380097 -50.14 0.0007304088    1.555    0.357
        44 -13.6374     68.6857    144.1439   1.0181281512e+02   3.7433011156e+01     2.105002      1.15798  83.12  0.002942228    3.298    0.697
        45 -10.4243     33.9759    165.8428   1.1431268501e+02   3.6144702092e+01    0.4853426    0.2358567  53.45  0.001764258    2.175    0.540
        46  -8.5733     37.0001    162.0000   1.1310187088e+02   3.6773990558e+01    0.1891872    0.1212412   4.11 0.0006386809    2.423    0.587
        47  -8.8723    135.7756    165.2930   8.7884689831e+01   2.1009799332e+01    0.3428694    0.1690242  49.90  0.001289624    2.267    0.559
        48  -9.8101     33.0663    156.4787   1.1347524680e+02   3.8530135153e+01    0.3949054    0.2549957  58.02  0.002128715    1.609    0.379
        49 -11.5337     89.7463    152.3747   9.7396330340e+01   3.2237290118e+01    0.7373093    0.4808264 -29.02  0.003173697    2.123    0.529
        50 -10.6295    133.7337    144.9457   8.4054860013e+01   2.6081859413e+01     1.195175    0.3066985 -54.24  0.002782905    5.601    0.821
        51 -11.3341     54.9702    147.0644   1.0620141390e+02   3.8474846200e+01    0.7898788    0.5571339 -58.05  0.004172936    1.299    0.230
        52  -9.2575    174.6949    149.1160   7.5201606265e+01   1.6841545337e+01    0.2621644    0.2115942  56.34 0.0007260068    1.399    0.285
        53  -8.8898    111.2527    149.2934   9.0923216112e+01   2.9323361345e+01    0.3240927    0.1708865  57.03  0.001168443    2.597    0.615
        54  -9.8008     38.6999    146.3394   1.1065820831e+02   4.0480488030e+01     0.310785    0.1992083  47.10 0.0009250201    1.660    0.398
        55  -9.3725    143.3990    145.1897   8.1666569327e+01   2.4089197570e+01    0.2282582    0.1473482 -58.12 0.0009544872    1.733    0.423
        56 -10.1851    103.3367    138.3162   9.0762230344e+01   3.3408794761e+01    0.5859966    0.3293239 -28.77  0.002091686    2.815    0.645
        57 -11.7139     90.6461    138.0813   9.4322616206e+01   3.5635522269e+01    0.2921413    0.2585947 -40.81 0.0003799108    1.151    0.131
        58 -10.0848    105.9037    130.8316   8.8356419306e+01   3.4765030064e+01    0.3702256    0.3314781 -68.33  0.001229628    1.141    0.123
        59 -10.0798     32.1642    130.9889   1.1035979753e+02   4.4955277255e+01     0.264873     0.250698  30.37 0.0008569316    1.243    0.196
        60 -10.4448     44.0510    130.1033   1.0665706885e+02   4.3990672623e+01    0.2725833    0.2517448  68.54 0.0008989823    1.160    0.138
        61  -9.9818    135.7475    128.9106   7.9759361903e+01   2.9364078066e+01    0.3785803     0.133857 -49.15  0.001182106    2.867    0.651
        62 -11.5028     70.1934    172.5616   1.0592654822e+02   3.0167506086e+01    0.4389632      0.31572 -34.05   0.00221491    1.811    0.448
        63 -10.1565     67.5236    124.9569   9.8503366233e+01   4.2409406967e+01    0.2777145    0.2172307 -38.03 0.0009365379    1.321    0.243
        64 -16.2797      6.3443    205.8287   1.2380213271e+02   2.9538979864e+01     16.02983     1.021405 -76.27   0.01172839   10.878    0.908
        65 -10.3270     99.2049    125.2714   8.8995449388e+01   3.7317447380e+01    0.3107043    0.2644755 -15.97 0.0007259885    1.339    0.253
        66  -9.0506     92.8338    125.3245   9.0888774425e+01   3.8412086678e+01    0.2461439    0.2026926 -70.07 0.0006848592    1.276    0.217
        67 -10.4817    118.3149    123.5282   8.3111337297e+01   3.4143669833e+01     0.535027      0.33326  10.07  0.001873781    2.984    0.665
        68  -9.7010     39.4024    124.2594   1.0710426758e+02   4.5936802453e+01    0.1921081    0.1193914 -76.13 0.0003876204    1.574    0.365
        69  -9.7823    112.1730    129.3693   8.6242889638e+01   3.3949962759e+01    0.3276683    0.2526934  -1.12 0.0009682425    1.715    0.417
        70  -9.2231    108.1162    118.3731   8.4718012920e+01   3.7330343945e+01    0.2406158    0.2030327 -35.92 0.0003746309    1.188    0.158
        71  -9.8734    231.3117    113.7559   5.6257281250e+01   1.2117117438e+01    0.2766653    0.2349619 -41.28  0.000777107    1.042    0.040
        72 -11.8354     82.6043    159.5331   1.0062084608e+02   3.1576278556e+01    0.7246748    0.5598771  73.48 0.0001634131    1.416    0.294
        73  -9.0765    135.0000    111.9749   7.5618876193e+01   3.3321456387e+01    0.2659311   0.08849943 -44.68 0.0008029445    2.946    0.661
        74  -9.3258    205.5138    110.1520   5.9714396239e+01   1.8057605928e+01    0.2502077    0.2113518  50.72 0.0005900258    1.279    0.218
        75 -10.5102    115.5923    107.1877   7.9640240180e+01   3.8446276753e+01    0.3229825    0.2520165  48.90   0.00154117    1.349    0.259
        76 -11.3189     31.8540    107.5608   1.0660124093e+02   5.0782134640e+01    0.4568866    0.2327724 -46.22  0.002170956    1.788    0.441
        77 -10.9283     32.4063     99.0994   1.0478475297e+02   5.2782378226e+01    0.4238177    0.3090573 -56.00  0.002423463    1.150    0.131
        78  -9.0712    128.6556     95.8677   7.2847043614e+01   3.8160063506e+01     0.258766    0.2089279  34.33 0.0005816235    1.286    0.222
        79  -8.9112     51.4927     93.4911   9.6765154660e+01   5.2126253238e+01    0.1402959    0.1236902 -44.32 -9.783878e-05    1.007    0.007
        80  -9.3599     51.7202     89.7027   9.5735541843e+01   5.2981470056e+01    0.2722372    0.1536372  51.12   0.00118062    2.505    0.601
        81 -13.0206     71.2417    154.2343   1.0282289438e+02   3.4547974665e+01    0.6165116    0.5430508 -49.61  0.001046972    1.176    0.150
        82  -9.4392    156.5323     88.5762   6.3877834389e+01   3.3272409902e+01    0.3284876    0.2367445 -67.01 0.0008822117    1.749    0.428
        83  -8.6515     74.9386     84.7292   8.6095667664e+01   5.0865000638e+01    0.1891396    0.1777251  13.84 0.0003062901    1.110    0.099
        84  -8.9159    158.1864     82.7860   6.1866416416e+01   3.3966904695e+01    0.2071295    0.1816417  11.98 0.0004972856    1.306    0.234
        85  -8.0990     70.7452     82.3070   8.6852055701e+01   5.2047870598e+01    0.1317127    0.1131219 -83.27 0.0002100311    1.514    0.340
        86  -8.6236    184.3774     77.3109   5.5142841969e+01   2.8718780041e+01    0.1524838    0.1149474  21.78 0.0007028405    1.790    0.441
        87  -8.8898     58.4722     67.3447   8.6771311836e+01   5.7003666889e+01    0.2191287    0.1263644  31.57 0.0006635305    1.830    0.454
        88 -13.0240    187.5353     49.6201   4.7206953302e+01   3.2299336419e+01      1.06206    0.9233224  20.11 0.0008200853    1.440    0.305
        89 -10.8571    124.7811    243.7652   1.0290992425e+02   6.7814110347e+00    0.7127259    0.1916339 -57.29  0.002555071    4.743    0.789
        90 -11.3083     48.5163    217.9347   1.1605122458e+02   2.2532365448e+01    0.6024006    0.3828814   9.81  0.003019456    2.840    0.648
        91 -11.2692     23.4664     33.9521   9.0227909776e+01   6.7436835441e+01    0.2602507    0.2309546  46.77  0.001779098    1.701    0.412
        92  -9.6040    198.0558     23.5191   3.9093870336e+01   3.3157598754e+01    0.2197294    0.1862053  -4.70 0.0007258533    1.564    0.360
        93  -9.7761     44.2960    216.6888   1.1682498572e+02   2.3298000045e+01    0.2303061    0.1717191 -87.76 0.0005787539    1.214    0.176
        94  -9.1089    189.5016     14.9380   3.7881598426e+01   3.6120968015e+01    0.2010109    0.1571707  81.74 0.0006658928    1.137    0.120
        95  -8.6382    157.7988    235.6041   9.5025579940e+01   3.0879607849e+00     0.189237    0.1044004  43.74 0.0008180799    1.688    0.408
