#   1 NUMBER                 Running object number                                     
#   2 MAG_AUTO               Kron-like elliptical aperture magnitude                    [mag]
#   3 X_IMAGE                Object position along x                                    [pixel]
#   4 Y_IMAGE                Object position along y                                    [pixel]
#   5 X_WORLD                Barycenter position along world x axis                     [deg]
#   6 Y_WORLD                Barycenter position along world y axis                     [deg]
#   7 A_WORLD                Profile RMS along major axis (world units)                 [deg]
#   8 B_WORLD                Profile RMS along minor axis (world units)                 [deg]
#   9 THETA_WORLD            Position angle (CCW/world-x)                               [deg]
#  10 FWHM_WORLD             FWHM assuming a gaussian core                              [deg]
#  11 ELONGATION             A_IMAGE/B_IMAGE                                           
#  12 ELLIPTICITY            1 - B_IMAGE/A_IMAGE                                       
         1 -14.4601    151.9498     54.7052   8.8235665721e+01   3.9920482050e+01     1.219044     1.084245  28.61  0.002457555    1.127    0.113
         2 -14.8022    163.4159     39.9644   8.1122938886e+01   3.9163711294e+01     1.370858     1.015712 -12.28  0.003704748    1.478    0.323
         3 -14.4095    176.7865      6.9729   6.8463212891e+01   3.9415867788e+01    0.9629951    0.8720546  71.75  0.003851129    1.032    0.031
         4 -11.0402    159.0542    205.4770   1.2255093439e+02   1.0824754896e+01    0.2145915    0.2007208  24.01  0.001058637    1.140    0.122
         5 -19.9209     74.5936    171.8983   1.3478482972e+02   3.0822186466e+01      16.8597     6.443648 -65.77   0.07419632    2.602    0.616
         6 -11.8461    169.0334    202.5811   1.2021170044e+02   9.5192150530e+00    0.2079281    0.1793607 -75.93 0.0001867174    1.479    0.324
         7 -11.0575    114.0298    249.4025   1.3601852432e+02   1.1301973980e+01    0.1341033    0.1169676  84.05 0.0002126764    1.265    0.210
         8 -10.8059    138.0100    198.1947   1.2549323393e+02   1.5707171183e+01    0.6038525    0.2889836  62.33  0.002345868    3.369    0.703
         9  -9.4700     13.4132    243.7544   1.5143661463e+02   2.4631912862e+01    0.2964061    0.1009206 -68.79  0.001813527    2.900    0.655
        10 -11.6568    160.7314    194.5638   1.2049653070e+02   1.2304005974e+01    0.2553215    0.1771945  47.74 0.0007116584    1.294    0.227
        11 -12.1309    157.1958    191.8242   1.2073439223e+02   1.3404666865e+01     0.234335    0.1922022  80.54 0.0006228142    1.485    0.326
        12 -14.2762    206.4092    179.9459   1.0916608717e+02   6.1215030155e+00    0.8322234    0.6513553  32.02   0.00366869    1.145    0.127
        13 -10.0190    153.4577    194.4750   1.2189807988e+02   1.3628865586e+01    0.1303626    0.1146631  49.67 3.862348e-05    1.032    0.031
        14 -10.5301     36.5152    186.4784   1.4402466501e+02   3.2513927162e+01    0.1694838    0.1342067  33.87 0.0009528426    1.635    0.388
        15 -12.5652     30.5195    183.4567   1.4491707208e+02   3.3745677813e+01    0.3726348    0.1811052  52.10 0.0009920277    1.844    0.458
        16 -11.0173     28.5112    179.4241   1.4497218195e+02   3.4756483718e+01    0.2821363     0.160595  29.29   0.00166826    2.305    0.566
        17 -10.8940    139.5235    249.8426   1.3182349588e+02   7.4341163973e+00    0.2173471    0.1372004  58.96  0.001406389    1.517    0.341
        18 -10.2081      8.4476    185.0302   1.4913714154e+02   3.5540017179e+01    0.1507167   0.07975879 -86.76 0.0003698854    1.499    0.333
        19 -10.6285    135.2218    235.2581   1.3090743172e+02   1.0181068928e+01    0.1448399    0.1150462  76.48 0.0006105138    1.381    0.276
        20 -11.6013      3.9933    180.4307   1.4965963092e+02   3.6818205217e+01    0.2372954    0.1839546  18.32  0.001788167    2.044    0.511
        21 -10.6717    168.2080    175.8168   1.1573440873e+02   1.4100002887e+01    0.1839304    0.1554631   7.92            0    1.330    0.248
        22 -10.3711     10.7929    174.5479   1.4800194210e+02   3.7400001055e+01    0.1708203    0.1117342 -84.10  0.000224892    1.198    0.165
        23 -12.5971    178.6719    173.3490   1.1318422126e+02   1.2499610415e+01    0.3379279    0.2528207  76.82  0.001695258    1.959    0.490
        24 -12.6994    138.6129    172.0316   1.2113261818e+02   2.0379548144e+01    0.5289643    0.3734853 -86.79  0.002556093    1.989    0.497
        25 -12.0024    147.9593    172.9612   1.1934371309e+02   1.8466960588e+01    0.3347323    0.1878991  52.28  0.001266467    1.779    0.438
        26 -13.0595    143.9790    168.3125   1.1933288291e+02   2.0089555723e+01    0.5401752    0.3488722  55.49  0.001630447    1.587    0.370
        27 -13.5553    197.1879    173.4695   1.0962203599e+02   8.8805410396e+00    0.8081194    0.4679183 -52.08  0.002548777    2.347    0.574
        28 -10.3885    119.2436    244.3642   1.3464751100e+02   1.1273769389e+01    0.1430286   0.08073674  51.61 0.0001783969    1.406    0.289
        29 -11.9557    202.5475    166.4750   1.0719817616e+02   8.9455895142e+00     0.376219    0.3316962  62.93  0.001556333    1.370    0.270
        30 -11.4630    123.0486    166.0034   1.2340810244e+02   2.4373093673e+01    0.3401421    0.1933212  56.61  0.001131851    1.891    0.471
        31 -11.2647    223.9318    164.2929   1.0283131521e+02   5.1269543074e+00    0.2667597    0.1815907 -45.88 0.0007189552    1.783    0.439
        32 -10.6972     24.4812    227.2441   1.4892993452e+02   2.6253321086e+01    0.3679483    0.1025201 -65.33  0.001907558    3.470    0.712
        33  99.0000     25.7162    232.2273   1.4901146669e+02   2.5277336848e+01    0.1376541    0.1119943 -79.88            0    1.470    0.320
        34 -10.9628    237.5212    159.4938   9.9459960130e+01   3.2506126479e+00    0.1349157    0.1176344   4.16 3.199305e-05    1.017    0.017
        35 -10.3434     28.0052    229.7954   1.4851645772e+02   2.5448155999e+01     0.115754   0.08124238  73.33 0.0002432384    1.024    0.023
        36 -14.3577    134.2709    146.0490   1.1713937102e+02   2.6343278304e+01     1.497086     0.428495 -53.16  0.004417101    4.316    0.768
        37 -14.3612    143.4912    143.6117   1.1455047258e+02   2.5026740208e+01     1.020564    0.5330026 -59.78  0.003992781    2.546    0.607
        38 -12.8238    131.0499    121.7377   1.1251095053e+02   3.2017588637e+01    0.4633218    0.2381402 -41.60  0.001892795    1.989    0.497
        39 -11.2924     22.9169    155.2415   1.4396956087e+02   4.0290039024e+01    0.2711311    0.1785282  86.57  0.001130658    1.276    0.216
        40 -14.1262    135.9504    127.0717   1.1259918176e+02   2.9920127838e+01     1.867031    0.3269236 -48.41  0.004264304    6.435    0.845
        41  -9.6259    182.6597    149.3071   1.0743613358e+02   1.5876250830e+01    0.1426677    0.1165207  88.63 0.0007042616    1.684    0.406
        42 -11.1647    174.6008    149.0243   1.0901965718e+02   1.7607473057e+01    0.2650106    0.2422763  60.42 0.0007887626    1.167    0.143
        43 -12.4411    208.2963    228.6295   1.1727172620e+02  -8.0007045823e-01    0.1870595    0.1497317 -44.39  0.001268962    1.690    0.408
        44 -11.4761      4.8891    137.6050   1.4627745682e+02   4.5526439932e+01    0.2159344    0.1432984 -75.67 0.0005625547    1.169    0.145
        45 -11.7062    219.4258    225.1161   1.1482909294e+02  -2.1810442447e+00     0.278885    0.1362664 -43.38  0.001439137    2.818    0.645
        46 -12.2137    160.5696    127.6871   1.0713489197e+02   2.4622179488e+01     0.394933    0.2748568 -47.11  0.001747569    1.480    0.324
        47 -10.0067     19.7572    222.9420   1.4944280355e+02   2.7479213548e+01    0.1280627    0.1005971  89.61 0.0005392447    1.276    0.216
        48 -11.1841     14.6946    221.0872   1.5014921562e+02   2.8304225216e+01    0.1490683   0.09052461 -57.26   0.00103893    2.300    0.565
        49 -12.8485    133.6906    249.6866   1.3278066967e+02   8.3413601315e+00    0.1836919    0.1734754 -72.46  0.001399907    1.353    0.261
        50 -10.2264     28.5142    218.4998   1.4776381692e+02   2.7356917461e+01    0.1042316   0.07624219  74.36 0.0002197318    1.028    0.028
        51 -10.8638    172.3535    117.9068   1.0217632546e+02   2.3884702889e+01    0.3113599    0.2341392  78.54  0.001232628    1.816    0.449
        52 -10.3804      1.2822    214.7375   1.5196044938e+02   3.0670916091e+01    0.1154415   0.06629032 -78.37 0.0004691803    1.530    0.347
        53 -11.7931    111.5106    209.8558   1.3216561355e+02   1.8023977570e+01    0.2310248    0.1927323  12.19 0.0008539984    1.747    0.428
        54  -9.5486     10.3871    210.8969   1.5030508510e+02   3.0522759303e+01    0.1310598   0.07728228 -81.85 0.0006380483    1.427    0.299
        55 -10.8406    205.3481    110.2442   9.3689611585e+01   1.7709001308e+01    0.3153276    0.2047963  44.44  0.000985842    1.559    0.359
        56 -11.1620    155.4680    105.1070   1.0254391377e+02   3.0146516483e+01    0.3325608    0.2420075  67.88 0.0003488733    1.686    0.407
        57 -13.3540     11.6677    206.1418   1.4983301799e+02   3.1265431987e+01    0.3922447    0.2451228  36.48  0.002505115    1.890    0.471
        58 -10.9833      9.6956    101.9018   1.4111412847e+02   5.2942597162e+01    0.1964098    0.1632207  61.66  0.001035733    1.374    0.272
        59 -10.7723      9.4593    201.5594   1.4994685593e+02   3.2313785081e+01    0.1338102    0.0906597 -73.84 0.0002038254    1.453    0.312
        60 -12.9083    163.5659    203.8186   1.2144078323e+02   1.0294450312e+01    0.4558035    0.2950231 -55.45  0.002242679    1.931    0.482
        61 -12.2880    125.0423    247.3265   1.3397836927e+02   9.9765433635e+00    0.2567272    0.1436582 -56.34  0.001613996    2.236    0.553
        62 -10.2295    150.7124    247.9488   1.2973272461e+02   5.9685966583e+00    0.1366777    0.1267081  60.16 0.0007053057    1.221    0.181
        63 -12.9796    166.9171     31.7550   7.7827898083e+01   3.9315978918e+01    0.4177749    0.3612465   2.48 0.0009206287    1.237    0.191
        64 -10.9490     13.6281     60.0064   1.3237424294e+02   6.1712656548e+01    0.1652523    0.1509937 -71.33 0.0004804826    1.238    0.192
        65 -10.4077    144.8867     34.0875   8.2724630613e+01   4.4584901773e+01    0.2115257    0.1944145 -74.55 0.0003261412    1.237    0.192
