#   1 NUMBER                 Running object number                                     
#   2 MAG_AUTO               Kron-like elliptical aperture magnitude                    [mag]
#   3 X_IMAGE                Object position along x                                    [pixel]
#   4 Y_IMAGE                Object position along y                                    [pixel]
#   5 X_WORLD                Barycenter position along world x axis                     [deg]
#   6 Y_WORLD                Barycenter position along world y axis                     [deg]
#   7 A_WORLD                Profile RMS along major axis (world units)                 [deg]
#   8 B_WORLD                Profile RMS along minor axis (world units)                 [deg]
#   9 THETA_WORLD            Position angle (CCW/world-x)                               [deg]
#  10 FWHM_WORLD             FWHM assuming a gaussian core                              [deg]
#  11 ELONGATION             A_IMAGE/B_IMAGE                                           
#  12 ELLIPTICITY            1 - B_IMAGE/A_IMAGE                                       
         1 -16.5436    140.9068    103.4533   8.4051151024e+01   3.3622988730e+01     5.974615     3.421457 -49.51   0.02169266    1.813    0.449
         2 -16.3648     24.2634     77.4592   1.1234963349e+02   5.7410797012e+01     4.760487     2.701521 -83.20   0.02386337    2.261    0.558
         3 -15.5679     63.8734     48.1167   8.9441179855e+01   5.9256603536e+01     2.613453     1.984276  34.14   0.01519324    1.485    0.326
         4 -14.2594     17.7305     10.0007   9.3164465966e+01   7.1161539033e+01     1.346102     0.874791  -4.28  0.007954029    1.484    0.326
         5 -14.3752    188.6189      8.5774   4.5378250549e+01   3.6395280038e+01     2.373685    0.9394908  58.54  0.009664917    2.232    0.552
         6 -13.5992    164.0925      5.3351   4.7513758324e+01   4.3023551622e+01     1.419648    0.8550555  74.02  0.006830461    1.617    0.381
         7 -13.2843     56.7039      6.2675   7.3661317640e+01   6.6760840212e+01    0.9784254    0.6611356  -2.63  0.005896766    1.319    0.242
         8 -12.0590     65.3368      8.7544   7.1713050288e+01   6.5040119562e+01    0.3547993    0.2697851 -22.00   0.00221277    1.276    0.216
         9 -11.9175     88.8623      3.1930   6.1565869130e+01   6.1147569463e+01    0.5186684    0.2318159  49.64  0.002422567    1.986    0.497
        10 -12.0102     15.5838    226.7213   1.3020920638e+02   2.6210593370e+01    0.3322448    0.1665215  59.57  0.002292624    1.508    0.337
        11 -12.2268    175.0653    249.0903   1.0492451395e+02   6.3889351419e-01     0.408247    0.2001119  39.94  0.002031282    1.586    0.369
        12 -12.7514    200.5736    238.4146   9.8978742198e+01  -2.0668607208e+00    0.4881282    0.3029329  -4.09  0.002721332    2.261    0.558
        13 -13.7356    187.0439    246.6367   1.0251629119e+02  -9.3888629392e-01     1.155433    0.4947582  37.01  0.006000023    1.891    0.471
        14 -13.2398    187.1986    237.3633   1.0118374851e+02   2.1485065321e-01    0.6503102    0.4004103  -7.99  0.003435175    2.611    0.617
        15 -13.4534    180.7603    239.0036   1.0256038747e+02   1.0411720073e+00    0.4522896    0.3625571  10.27  0.002818613    1.347    0.257
        16 -12.4000    196.8945    226.8368   9.7866289563e+01   1.1229771283e-02     0.334316     0.212999  52.44  0.001889968    1.779    0.438
        17 -12.7525    223.2974    217.4521   9.1608026628e+01  -3.1222125643e+00    0.8857574    0.3909107 -20.06  0.003760857    3.383    0.704
        18 -13.5175    207.3706    228.6253   9.6275632600e+01  -1.9385458466e+00      1.08587    0.3919346  36.92  0.004885485    2.361    0.576
        19 -12.4850    211.8416    222.7883   9.4537241740e+01  -1.9260096457e+00    0.4851323    0.2485387  23.85  0.002377899    2.161    0.537
        20 -12.0731    164.3242    228.2131   1.0401425103e+02   5.2512497726e+00    0.4262376    0.2093607  32.85  0.002095292    2.035    0.509
        21 -12.9883    188.3450    226.6147   9.9379320527e+01   1.4627742647e+00    0.4593389    0.1999655  43.33  0.002235631    1.936    0.483
        22 -11.5253    140.0802    233.6775   1.0917993376e+02   8.3992144069e+00     0.292401    0.1673722 -67.92  0.001560453    2.578    0.612
        23 -12.6730    197.3421    217.7273   9.6325940146e+01   1.1719485779e+00    0.4275019    0.1959569  41.12  0.002084485    1.850    0.460
        24 -15.8025     71.8653    193.0559   1.1747357279e+02   2.6117214347e+01       2.7092     1.760082  72.09   0.01547403    1.472    0.321
        25 -12.1654    147.3072    209.7497   1.0457487451e+02   1.1070609610e+01    0.4303386     0.314741  29.44  0.001708386    1.422    0.297
        26 -12.6413    201.8044    207.5041   9.3773896917e+01   1.8440554326e+00    0.3348898    0.2109495  34.01  0.001845418    1.377    0.274
        27 -11.7585    192.9211    209.6165   9.5794171708e+01   3.0913188617e+00     0.236373    0.1774736 -60.41  0.001336296    1.985    0.496
        28  -9.8508    163.4802    208.5045   1.0123516333e+02   8.4544756356e+00    0.1303174    0.1122205  37.35 4.987123e-05    1.020    0.019
        29 -11.9313    186.4889    213.8681   9.7706485431e+01   3.5890400439e+00    0.3714373    0.1494961  49.33  0.001551063    2.617    0.618
        30 -10.4996    205.1443    197.1951   9.1303900819e+01   2.7550491435e+00    0.1724615    0.1537261  52.04 0.0005949546    1.355    0.262
        31 -14.5689     93.0494    191.4044   1.1295770600e+02   2.3416941852e+01     1.818764     1.068258 -83.98  0.009174475    2.065    0.516
        32 -11.9341    192.2254    191.7827   9.2767643858e+01   5.9409215349e+00     0.443068    0.3440688 -67.49  0.002384119    1.955    0.489
        33 -10.9037      8.7473    186.8912   1.2914965324e+02   3.4399034062e+01    0.3229945    0.1442939 -68.58  0.001927936    1.951    0.487
        34 -12.1169    151.4804    211.3372   1.0399802906e+02   1.0083280809e+01    0.5887897    0.3543192 -29.55  0.002909993    2.495    0.599
        35 -10.7682    207.0476    166.4791   8.4857702150e+01   7.2148927282e+00    0.2198638    0.1315607  41.39  0.001034128    1.599    0.375
        36 -12.1815     20.3775    153.9555   1.2429688476e+02   4.0320401072e+01     0.597065    0.4597294  60.49  0.004210762    1.299    0.230
        37 -10.1779    214.6763    152.6676   8.0381914541e+01   7.9798100771e+00    0.1524334    0.1059746   7.60 0.0007050475    1.705    0.414
        38 -10.7157    198.5295    149.9491   8.2900320410e+01   1.1770683284e+01    0.2399825    0.1916857  38.31  0.001243538    1.223    0.182
        39 -11.5377    107.7843    147.5959   1.0274685864e+02   3.0428416913e+01    0.3287559    0.2582402  41.89   0.00130116    1.313    0.238
        40 -12.7382    106.4220    141.9600   1.0198526895e+02   3.1933097417e+01    0.7591786    0.7253552  34.21  0.003523461    1.157    0.136
        41 -11.5280    155.1870    143.2537   9.0623892385e+01   2.2213143593e+01    0.4634061    0.2056916 -37.94   0.00168181    2.504    0.601
        42 -14.8143    148.1973    130.6500   8.9309087488e+01   2.6307735641e+01     1.644342     1.313388  53.14  0.006909278    1.295    0.228
        43 -14.3736    134.6905    117.0738   8.9232892166e+01   3.2063083312e+01     1.720623     0.991024 -51.65  0.007118007    1.792    0.442
        44 -12.5210    192.7357    237.5252   1.0022648433e+02  -7.0001478893e-01    0.5273945    0.3216728  -4.02   0.00276951    2.588    0.614
        45 -10.0329    182.5001    129.4864   8.1343290626e+01   1.9017364441e+01    0.1525959    0.1476274  -2.86 5.595109e-05    1.020    0.020
        46 -12.7719    185.7126    118.4852   7.7887931994e+01   2.0381522700e+01    0.6908504    0.4873677   7.42  0.002941848    1.930    0.482
        47 -14.2836    185.5535    110.3622   7.5789828473e+01   2.1947974794e+01     1.669579     1.140109  29.11  0.007269144    1.703    0.413
        48  -9.7295    160.6713    243.2856   1.0669675671e+02   3.6931436783e+00     0.115339    0.0794784  60.08 0.0005943507    1.611    0.379
        49 -10.3522     90.0455     83.7388   9.2441095027e+01   4.7933305198e+01    0.2603545    0.1887213 -55.02 0.0007844117    1.382    0.276
        50 -12.5271    104.3026     76.3852   8.5906137989e+01   4.6885022544e+01    0.6809047    0.5721264 -33.80  0.003531966    1.109    0.098
        51 -12.4171     95.7100     74.6342   8.7924352348e+01   4.8854129791e+01    0.7030159    0.5713926  59.27  0.003674214    1.515    0.340
        52 -12.9579    102.2582     68.9589   8.4094619218e+01   4.8763244705e+01     1.095151    0.5721557  43.85  0.004628656    2.036    0.509
        53 -11.8478    177.5311     65.1044   6.4403583915e+01   3.1959091912e+01    0.7066196    0.4018664  56.56  0.002919354    1.773    0.436
        54 -11.9474    177.5935     71.6398   6.6379005014e+01   3.0865119331e+01    0.6352364    0.3532335  72.97  0.002283763    2.641    0.621
        55 -11.2043    132.5758    241.5555   1.1146332665e+02   8.3827180089e+00    0.4280803    0.1612352  41.48  0.002071436    2.156    0.536
        56 -13.7005     82.6152     49.6698   8.3467487582e+01   5.5990536621e+01     1.061137    0.6580235 -38.70  0.004706626    1.488    0.328
        57 -11.4341    250.2670     59.1029   5.1693242818e+01   1.5121479272e+01     0.725942    0.1451108 -32.90  0.002193531    3.904    0.744
        58 -12.4859    249.6404     49.2612   4.9340476673e+01   1.6606314276e+01     1.020423    0.3209577 -27.40  0.003510217    3.267    0.694
        59 -12.4296      2.8807     51.4300   1.1431563336e+02   6.4386768521e+01    0.9382004    0.1655588 -60.21  0.003685847    3.235    0.691
        60 -12.6990      9.6229     46.8227   1.1045536873e+02   6.4976081283e+01    0.5984725    0.3932037 -41.39  0.003513155    1.214    0.176
        61 -14.2595     46.7765     81.8141   1.0580144680e+02   5.4366392558e+01      1.29024    0.9343043 -82.80  0.007136798    1.701    0.412
        62 -11.4745    124.8023     41.4907   6.8004047104e+01   4.8667431920e+01     0.526809    0.3948104  75.18  0.002532384    1.758    0.431
        63 -11.3460      7.3825    241.4834   1.3214053327e+02   2.4468955421e+01    0.1943176    0.1340335  89.26  0.001190235    1.279    0.218
        64 -13.0756    172.3796    237.7375   1.0387836701e+02   2.5701083918e+00    0.4181956    0.3078541  -5.78   0.00261642    1.835    0.455
        65 -11.5074    166.0852    239.1761   1.0519835994e+02   3.3924014735e+00    0.2087953    0.1663651 -33.50  0.001428144    1.571    0.364
        66 -12.4710     14.3474    236.0262   1.3085374260e+02   2.4710919554e+01    0.3332613    0.1708507 -83.75  0.002371396    1.666    0.400
        67 -12.6975     10.2983    228.8652   1.3114406247e+02   2.6349274025e+01    0.3831655    0.2323009  76.48  0.002425861    1.186    0.157
