#   1 NUMBER                 Running object number                                     
#   2 MAG_AUTO               Kron-like elliptical aperture magnitude                    [mag]
#   3 X_IMAGE                Object position along x                                    [pixel]
#   4 Y_IMAGE                Object position along y                                    [pixel]
#   5 X_WORLD                Barycenter position along world x axis                     [deg]
#   6 Y_WORLD                Barycenter position along world y axis                     [deg]
#   7 A_WORLD                Profile RMS along major axis (world units)                 [deg]
#   8 B_WORLD                Profile RMS along minor axis (world units)                 [deg]
#   9 THETA_WORLD            Position angle (CCW/world-x)                               [deg]
#  10 FWHM_WORLD             FWHM assuming a gaussian core                              [deg]
#  11 ELONGATION             A_IMAGE/B_IMAGE                                           
#  12 ELLIPTICITY            1 - B_IMAGE/A_IMAGE                                       
         1 -11.0157    212.4251     24.3981   4.3913699094e+01   2.9337384007e+01     1.812743    0.6522908 -22.48    0.0021428    3.727    0.732
         2 -14.7037    209.3924     71.7546   5.6902518483e+01   2.3308502167e+01     9.164962     2.276506 -47.75    0.0217171    5.920    0.831
         3 -15.5376    235.2115     79.1227   5.4936237494e+01   1.6161330937e+01     7.526739      1.96353 -42.84   0.01450485    3.419    0.708
         4 -15.2173    242.8811     44.2495   4.5520291378e+01   1.9643024808e+01     3.972553     1.005459  53.65   0.01316579    4.381    0.772
         5 -13.5562    249.8428     28.2977   4.1135028988e+01   2.0205376929e+01     1.110632    0.4967948 -33.18  0.002565178    2.052    0.513
         6 -12.6276    183.4040     78.9628   6.3454584056e+01   2.8413963615e+01    0.7890027    0.5697547 -86.13  0.003462435    1.860    0.462
         7 -10.6352      1.5359     25.9170   1.0576440103e+02   6.9982036653e+01     0.386115   0.09403821 -59.55  0.001547471    3.575    0.720
         8 -14.4166    232.3142     26.0314   4.2242657886e+01   2.4420381157e+01     2.445911     1.641905   9.77  0.009665236    2.617    0.618
         9 -13.1163    248.3228     10.0783   3.7181008967e+01   2.2708674273e+01    0.8156027    0.3709782 -23.74  0.003499649    2.675    0.626
        10  -8.9662    204.4453     12.0083   4.1534078791e+01   3.2706729613e+01    0.1857335    0.1300931 -28.53 0.0005718936    1.529    0.346
        11  -9.3589    230.0899      1.8510   3.6704319213e+01   2.7681119562e+01    0.1787796    0.1622832 -72.78 0.0005394336    1.125    0.111
        12  -8.4893    159.5108      1.3726   4.3806747284e+01   4.4994723090e+01    0.1343001     0.116224  70.97 8.138276e-05    1.034    0.033
        13 -11.4007    230.3246    165.2987   7.5816554624e+01   2.7066515842e+00     0.327534    0.2094795 -19.57  0.001628546    1.618    0.382
        14  -8.4778     68.3637    166.2586   1.1185225066e+02   3.1891949132e+01    0.1222373    0.1037558 -27.24 0.0005595075    1.633    0.387
        15 -11.2861    232.6105    159.6417   7.4204885124e+01   3.2123777232e+00    0.3798765    0.2384691  61.14  0.001105063    2.515    0.602
        16 -12.0533     54.4594    150.1639   1.1307745516e+02   3.7470864173e+01    0.7167754    0.4275159 -77.63  0.001876816    1.562    0.360
        17 -11.7330     40.4677    157.5027   1.1742958626e+02   3.7318001542e+01    0.3859554    0.3486504   7.62  0.001330433    1.532    0.347
        18 -12.2904     47.6451    153.6195   1.1522680386e+02   3.7442980488e+01    0.7162516     0.582276  87.38  0.002705409    1.065    0.061
        19 -14.1152    154.5674     64.0806   6.4956965733e+01   3.8151489899e+01     1.762009     1.110949  49.44  0.004178509    1.575    0.365
        20  -9.7052    114.8675    246.2975   1.1158076504e+02   8.9612314456e+00    0.1704259    0.1578503  76.48 0.0002441634    1.219    0.180
        21  -8.8443    225.6698    205.3370   8.4540510955e+01  -2.6282645176e+00    0.1133991     0.104526  81.08  0.000705204    1.733    0.423
        22  -9.1902    213.2794    200.0441   8.5861574568e+01   2.0289541120e-01    0.1797522    0.1569901  -8.48 0.0006292665    1.115    0.103
        23 -10.2734    244.7580    197.7021   7.9734564970e+01  -4.5806782797e+00    0.2113279    0.1813346   0.62 0.0004040586    1.117    0.105
        24 -10.2808    222.8043    145.1656   7.2790878010e+01   7.5124897943e+00    0.2075322    0.1911559 -44.34 0.0004991757    1.204    0.169
        25  -9.4350    191.9901    144.0393   7.8520246680e+01   1.4011607125e+01    0.1825356    0.1711982 -18.69 0.0004625248    1.028    0.027
        26 -10.9316    208.6410    126.8708   7.1160560796e+01   1.3711223233e+01    0.2665237    0.2059981  32.38  0.001208047    1.384    0.278
        27 -12.1496    185.3137    120.1215   7.4142834520e+01   2.0151472372e+01    0.5243343    0.4146134 -49.33  0.002543819    1.289    0.224
        28 -10.6512    162.6909    120.5056   7.9218879287e+01   2.5174031218e+01    0.3053776    0.2751716 -69.48 0.0002712454    1.206    0.171
        29 -12.7412    212.7769    115.5835   6.7635063807e+01   1.4880561182e+01    0.8648295    0.5226125 -65.92  0.003242091    2.856    0.650
        30 -12.3557    204.4100    104.1711   6.6293471960e+01   1.8837369746e+01    0.5427845    0.4338908  57.15  0.001775085    1.347    0.258
        31 -11.3529    205.6405    115.9790   6.9056094813e+01   1.6382733388e+01    0.3765137     0.320834  51.01 0.0001887266    1.250    0.200
        32 -12.5091    204.4763    110.8893   6.7996012543e+01   1.7585881008e+01    0.6887169    0.4721325  12.57  0.002903152    2.145    0.534
        33  -8.9573    149.4747    118.5810   8.1860744685e+01   2.8520435977e+01     0.154393    0.1526666 -15.50 7.154246e-05    1.021    0.021
        34 -10.5377    168.0199    114.0323   7.6334171394e+01   2.5315244173e+01    0.2468416    0.2415334 -11.46 0.0009903222    1.024    0.023
        35 -11.4469    134.8169    107.4677   8.2626444744e+01   3.4147370120e+01     1.044551    0.1489619 -46.59  0.002049562    7.349    0.864
        36 -10.6979    158.0748     97.8178   7.4224200817e+01   3.0938862842e+01    0.3952615    0.2578041  35.95  0.001414318    1.725    0.420
        37  -9.5281    147.9412    102.7927   7.8035828831e+01   3.2247503501e+01    0.2455328    0.2158845  11.01 0.0007888905    1.280    0.218
        38 -12.6614    187.2140    105.3296   6.9929396274e+01   2.2601818150e+01     1.049827    0.3052205 -36.72  0.003032054    3.473    0.712
        39 -10.5537    209.1253     94.7145   6.2999485959e+01   1.9454891652e+01    0.2673794    0.1951888 -48.18 0.0006445088    1.345    0.257
        40 -10.0227    141.7157     92.8425   7.6768851467e+01   3.5742021056e+01    0.3443186    0.2713476 -60.92  0.001573353    1.415    0.293
        41  -8.6943    214.4036    195.2013   8.4748055299e+01   7.5600875833e-01    0.1618056    0.1229938 -42.21 0.0002703913    1.517    0.341
        42 -12.0567    173.2138     90.1669   6.8696032728e+01   2.8837765915e+01    0.7374943    0.4313599  35.04   0.00281823    2.120    0.528
        43 -11.0262    156.3184     88.5483   7.1983574248e+01   3.3205301970e+01    0.3546188    0.2713538 -33.07 0.0006746302    1.315    0.239
        44 -11.2936    181.5472     85.5691   6.5685135087e+01   2.7676519832e+01    0.4483061    0.3500233  31.55 0.0003544009    1.460    0.315
        45  -9.8614    182.8313    186.1475   8.9250729483e+01   7.9368816763e+00    0.2179147    0.2014384  28.62 0.0003640139    1.051    0.049
        46 -11.9453    195.7664     78.9258   6.1146034245e+01   2.5396701246e+01    0.5211831    0.4026971 -20.50  0.001307662    1.423    0.297
        47 -12.0032    172.5753     76.6538   6.4943861913e+01   3.1493522636e+01    0.4986055    0.3815283   3.72  0.001027347    1.716    0.417
        48 -11.9687     68.3258    144.3722   1.0865714279e+02   3.7099105779e+01    0.7604367    0.4938673  70.63  0.003749896    1.774    0.436
        49 -10.7464    110.4956     73.9127   7.9468974549e+01   4.6406733890e+01    0.2640064     0.250162  -5.47 0.0002889842    1.038    0.036
        50 -10.4528    151.0357     71.3275   6.8023192414e+01   3.7735527523e+01     0.300702    0.2236678 -44.35 0.0006866096    1.351    0.260
        51  -9.6913    132.4844    147.4869   9.2805872847e+01   2.5611353361e+01    0.1492705    0.1453213  84.64 -9.185493e-05    1.003    0.003
        52 -10.3630    124.7530     56.8025   6.9754858126e+01   4.6505101710e+01    0.2793051    0.2415227 -45.23 0.0004009559    1.211    0.174
        53 -11.5156    190.5952     81.2567   6.2734250898e+01   2.6248152879e+01    0.4386303    0.3615751  25.65  0.001146718    1.413    0.292
        54 -10.8037    180.2912     51.0487   5.5900205439e+01   3.3782703329e+01    0.3049881     0.236902 -43.04 0.0008308774    1.273    0.214
        55 -11.0954    181.2477    144.4852   8.0881587788e+01   1.6189621076e+01    0.4119416    0.3146976 -71.11  0.001202429    1.769    0.435
        56 -11.1649    204.1716     38.9674   4.8805341836e+01   2.9499820508e+01    0.6286828    0.2286126 -36.67  0.001456662    2.490    0.598
        57 -10.5705    191.0460     39.4796   5.0797097327e+01   3.2713734010e+01    0.3308422    0.2583244 -38.46 0.0009258905    1.271    0.213
        58 -14.0782    224.7215     64.9070   5.2838040235e+01   2.0773462725e+01     2.308621    0.7631337  55.00  0.003130237    3.068    0.674
        59  -8.7868    201.2208     30.9615   4.7006515298e+01   3.1281228510e+01    0.1794112    0.1110261 -32.84 0.0004267863    1.615    0.381
        60  -8.2526    134.7350    186.2701   9.9567482907e+01   1.6798548435e+01    0.1331317    0.1031153  72.47 -0.000275831    1.467    0.318
        61  -8.7596    201.9498     24.0599   4.5036006229e+01   3.1951392597e+01    0.1649473    0.1468991 -85.41 0.0004535817    1.032    0.031
        62  -8.7509     67.8346    181.8239   1.1393217007e+02   2.8409518665e+01    0.1706665    0.1269179  75.02 0.0002924723    1.227    0.185
        63  -9.1041    159.0725     23.6988   5.1043932540e+01   4.2846968862e+01     0.204142    0.1721618  65.06 0.0006428054    1.114    0.102
        64  -9.2965    188.4871     21.1747   4.5914685280e+01   3.5662050031e+01    0.1906258    0.1715853  82.73 0.0005743961    1.034    0.033
        65 -12.9189      9.0622    172.7277   1.2582503674e+02   3.6829135081e+01    0.7771364    0.5706853  85.68  0.003808271    1.019    0.018
        66  -9.7085    206.5181     25.8540   4.4974338336e+01   3.0605498282e+01    0.2392868    0.1838021  77.07 0.0005456989    1.248    0.199
        67  -9.2257    133.9942     13.9724   5.2247818975e+01   5.0168135177e+01    0.2200045    0.1453555  33.26 0.0003367004    1.586    0.370
        68 -13.0743    249.3920     73.9939   5.1818308798e+01   1.3899588767e+01     1.301393    0.7102072 -56.44  0.005876606    2.043    0.511
        69 -10.9662    223.5966    173.3726   7.8726417652e+01   2.6088795584e+00    0.2552864    0.2427675  -0.10 0.0005277875    1.175    0.149
        70 -13.3783    249.3807     58.5222   4.8174598309e+01   1.6206521800e+01     1.165133     0.606177 -45.11  0.002409384    1.670    0.401
        71  -9.1194    203.5125    170.0650   8.1881163165e+01   6.8919387020e+00    0.1997395    0.1352311 -35.02 0.0002929565    1.472    0.321
