#   1 NUMBER                 Running object number                                     
#   2 MAG_AUTO               Kron-like elliptical aperture magnitude                    [mag]
#   3 X_IMAGE                Object position along x                                    [pixel]
#   4 Y_IMAGE                Object position along y                                    [pixel]
#   5 X_WORLD                Barycenter position along world x axis                     [deg]
#   6 Y_WORLD                Barycenter position along world y axis                     [deg]
#   7 A_WORLD                Profile RMS along major axis (world units)                 [deg]
#   8 B_WORLD                Profile RMS along minor axis (world units)                 [deg]
#   9 THETA_WORLD            Position angle (CCW/world-x)                               [deg]
#  10 FWHM_WORLD             FWHM assuming a gaussian core                              [deg]
#  11 ELONGATION             A_IMAGE/B_IMAGE                                           
#  12 ELLIPTICITY            1 - B_IMAGE/A_IMAGE                                       
         1 -10.5061    223.3489     19.7515   4.3785700160e+01   2.6446247938e+01    0.4691063     0.244086  -9.15  0.001908784    2.704    0.630
         2  -8.7193    136.2380      9.0109   5.1301755492e+01   5.0140099008e+01    0.1803059    0.1195561 -18.83 0.0004097217    1.564    0.361
         3  -9.0579    155.3991      7.7688   4.7830290900e+01   4.5249900341e+01    0.2011305    0.1367542  -0.41 0.0009573686    1.716    0.417
         4  -9.7271    113.9309    248.6525   1.1314787089e+02   1.0642325998e+01    0.2419658    0.1142661  33.88  0.001327102    2.143    0.533
         5  -8.8868    170.2809    250.5950   1.0374949300e+02   2.2212526085e+00    0.2288165   0.08138094  43.33  0.001149934    2.191    0.544
         6  -9.0382    153.4048    250.4980   1.0659431183e+02   4.7027769937e+00    0.2343897   0.08495955  40.24  0.001190754    2.100    0.524
         7 -10.1420    144.3220    248.8819   1.0796546010e+02   6.2418847235e+00    0.2519365     0.185688 -15.29  0.001688741    2.145    0.534
         8  -9.7790     89.9935    249.7440   1.1730325143e+02   1.3753388473e+01    0.1593769    0.1073322  50.21 0.0007244626    1.112    0.100
         9  -8.2923    192.9742    248.5187   9.9692368050e+01  -8.4232521056e-01    0.1777996   0.08410592  37.83  0.001037963    1.613    0.380
        10  -9.6063    109.0860    248.1075   1.1392649639e+02   1.1399599857e+01    0.2380424    0.1885537 -29.66   0.00170304    2.077    0.518
        11  -9.0294     72.2493    248.5942   1.2018605683e+02   1.6223704781e+01    0.1418217    0.0847296  37.82 0.0009152015    1.624    0.384
        12 -10.4563    136.5834    246.2915   1.0901820277e+02   7.7244696020e+00    0.2758918    0.1486053  26.76  0.001497967    2.346    0.574
        13  -9.4987     81.7654    247.0256   1.1848055094e+02   1.5249711607e+01    0.1446413    0.1086604  31.00  0.000756315    1.650    0.394
        14  -9.6393    104.2923    246.0109   1.1456095837e+02   1.2376251248e+01    0.2117509    0.1311565  20.89  0.001179232    2.740    0.635
        15  -9.3220    189.1014    245.0112   9.9881926622e+01   1.2155022466e-01    0.4042532   0.08315647  35.98  0.001321235    5.206    0.808
        16  -8.4585     63.4729    247.5079   1.2156815530e+02   1.7482624840e+01    0.1048946   0.07707357  59.64 0.0003975733    1.049    0.047
        17 -10.0451    150.4991    245.3205   1.0650844757e+02   5.8062218924e+00    0.2483966    0.1743683  -1.65  0.001532626    2.330    0.571
        18  -9.8554    176.6117    244.3164   1.0190589948e+02   2.0500605511e+00    0.2675877    0.1634451   5.18  0.001467543    2.685    0.628
        19  -9.6516    168.6443    241.7034   1.0294369838e+02   3.5665736364e+00     0.183998    0.1338172  28.58  0.001268332    1.213    0.175
        20 -10.6308    126.9310    249.1080   1.1096696077e+02   8.7312642609e+00    0.4377529    0.1666334  34.22  0.002085186    2.730    0.634
        21  -9.8443    121.4372    242.1165   1.1121953815e+02   1.0524750577e+01    0.3458633    0.1392186  29.42  0.001359581    4.262    0.765
        22  -8.9066    114.2081    242.6104   1.1253063103e+02   1.1490439409e+01    0.1591651    0.0882609  35.49 0.0009485623    1.689    0.408
        23  -9.9188    132.9805    240.9920   1.0907946080e+02   8.9994961429e+00    0.2848629    0.1057608  49.60  0.001370007    2.401    0.584
        24  -9.7884    126.7983    241.2008   1.1018664687e+02   9.8783758774e+00    0.1483671    0.1197718  28.40  0.001068619    1.365    0.267
        25  -9.7311    120.0705    246.1832   1.1185904867e+02   1.0129056898e+01    0.2073859    0.1101007  36.32  0.001238024    1.679    0.404
        26  -8.9808    156.8054    245.9379   1.0549339033e+02   4.7899991359e+00    0.2988054    0.1831623  16.71  0.001703506    2.353    0.575
        27  -8.0783     79.3301    238.3232   1.1823272446e+02   1.6946690755e+01   0.09328705   0.08467118  14.10 0.0007049797    1.699    0.411
        28  -9.7932    160.2680    236.2326   1.0372105352e+02   5.5535668501e+00    0.2735991    0.1591329  27.75  0.001588321    1.768    0.434
        29  -9.7775    169.8412    234.9832   1.0187907827e+02   4.2542542312e+00    0.3863788    0.2310507   1.38  0.001843131    3.475    0.712
        30  -8.5728    147.7371    236.5744   1.0597657181e+02   7.4156590642e+00     0.227173   0.09161204  37.94  0.001130594    2.068    0.516
        31  -7.9271    135.6450    236.7056   1.0813826639e+02   9.2219858970e+00    0.1105645   0.08135904  19.64  0.000703192    1.690    0.408
        32  -8.5183    179.1615    235.2163   1.0028292054e+02   2.7978658184e+00    0.1951748    0.1110791  12.17 0.0009547188    2.912    0.657
        33  -9.2897     83.9839    240.8543   1.1762642356e+02   1.5927538836e+01    0.1603479    0.1216554  19.35  0.001081847    2.045    0.511
        34  -7.8797    204.6493    234.6805   9.5844845489e+01  -9.8379633387e-01    0.1194967   0.07289347  15.69 0.0007047946    1.741    0.426
        35  -8.3782    184.6406    234.7018   9.9263756059e+01   2.0271116914e+00    0.1185484    0.0757964  17.96 0.0002199623    1.709    0.415
        36  -8.2411    140.6081    234.1646   1.0696288958e+02   8.8424332345e+00    0.1386026    0.1083895 -33.83 0.0009463082    1.716    0.417
        37  -8.6933    116.7650    231.4238   1.1095295629e+02   1.2830983301e+01    0.1633553   0.09465688  34.94 0.0009056047    1.660    0.398
        38  -8.2278     85.6437    231.6732   1.1657912652e+02   1.7197617007e+01   0.09897095   0.08703227   8.63 0.0007045189    1.776    0.437
        39  -8.6166    158.5193    229.9781   1.0323904311e+02   6.6839621103e+00    0.1458393    0.0975201 -12.72 0.0008092648    2.456    0.593
        40  -8.4545    195.5150    228.9807   9.6578732432e+01   1.0727691793e+00    0.1539282   0.09158751  -6.39 0.0008102073    2.534    0.605
        41  -8.7809      5.0014    229.5028   1.3022519158e+02   2.6824240152e+01    0.1513184   0.03834835  53.74 0.0008102361    2.513    0.602
        42  -8.3697    152.5101    227.4932   1.0400419821e+02   7.9759121702e+00    0.1189477   0.09596544  38.58 -8.805668e-06    1.037    0.036
        43  -8.3804    149.3490    218.9676   1.0347512303e+02   9.7448806847e+00    0.1771154   0.09315703 -25.93 0.0007047721    4.412    0.773
        44  -8.2022      2.3080    217.6525   1.3023948870e+02   2.9158394166e+01    0.1127329   0.04856173  64.58 0.0007043774    1.704    0.413
        45  -8.5612      4.2212    211.4202   1.2967813031e+02   3.0119733116e+01     0.147063   0.06556403  50.48   0.00094909    1.693    0.409
        46  -8.4807      5.3273    205.6611   1.2925032365e+02   3.1092195297e+01    0.1168639   0.05152326  64.46 0.0007051665    1.731    0.422
        47 -10.9166    243.9414    190.2905   8.1923724223e+01  -1.7319751300e+00    0.3931167    0.2590004 -22.19  0.002413025    1.435    0.303
        48  -8.3816    231.4076    191.8318   8.4281733829e+01   6.0737018198e-02     0.173261    0.1043078 -15.16 0.0009469711    1.737    0.424
        49  -9.2103    249.7393    183.9748   7.9803527428e+01  -1.8686572199e+00    0.3626183    0.1896135 -17.19  0.001887845    1.958    0.489
        50  -9.0416    230.4977    185.9663   8.3346542488e+01   9.6229452385e-01    0.1874833    0.1141306 -27.18    0.0010432    1.622    0.383
        51 -10.5759    243.7067    175.6658   7.9170472564e+01   1.3076572893e-01    0.4085461    0.3152308  -5.74  0.002596086    1.117    0.104
        52  -8.9094    231.8892    173.4296   8.0690910121e+01   2.3993125064e+00     0.271747    0.1557779 -12.95  0.001337609    1.990    0.498
        53 -10.0124    245.3677    167.4775   7.7269471364e+01   9.2138802920e-01    0.4305311    0.1723868 -36.17  0.001922784    2.461    0.594
        54  -7.8630    224.2341    172.9951   8.1917171762e+01   3.7808943653e+00     0.166942     0.101766 -29.84 0.0008758536    1.615    0.381
        55  -7.9451    210.3581    164.2721   8.2626080815e+01   7.5634809030e+00    0.1407702   0.09570592  14.06  0.000295347    1.647    0.393
        56  -8.7768    249.5082    160.9610   7.5275901912e+01   1.0883025457e+00    0.1848494    0.0980318  -6.94 0.0007265099    2.486    0.598
        57  -8.6580    246.3294    157.3133   7.5022698215e+01   2.1148482423e+00    0.1364509   0.08844308   7.63 0.0005193563    1.673    0.402
        58  -8.2827    237.9733    157.5196   7.6422257657e+01   3.5400655004e+00    0.1938975    0.1215265  38.69  0.001029104    1.590    0.371
        59  -9.4687    244.7319    153.1459   7.4398732689e+01   2.9605049577e+00    0.4116677     0.194704  -5.23  0.001247502    5.336    0.813
        60  -9.1585    244.3779    147.8116   7.3311019136e+01   3.7638697352e+00    0.1951639    0.1115346 -19.28 0.0009517935    1.723    0.420
        61  -9.3547    234.8577    145.2706   7.4301751553e+01   5.8568150139e+00     0.272857    0.1641476  -3.84   0.00124574    2.113    0.527
        62  -8.0717    244.3216    138.0025   7.1164156682e+01   5.1629380271e+00    0.2238315    0.1012222 -12.37 0.0007046683    4.260    0.765
        63  -8.7677    242.0725    132.3414   7.0242506006e+01   6.3989238896e+00    0.2507797    0.1674462 -19.12 0.0009134925    1.397    0.284
        64  -8.7632    231.4136    129.7837   7.1367829096e+01   8.8316090170e+00    0.2037114    0.1231064 -20.08 0.0009524515    1.675    0.403
        65  -9.7718    248.0882    128.3724   6.8409397456e+01   5.8466400576e+00    0.3121006    0.1737126 -18.60  0.001459664    1.830    0.454
        66  -8.6721    239.5003    125.5101   6.9074957222e+01   7.8966256354e+00    0.2639154    0.1235938 -20.76  0.001041391    2.449    0.592
        67  -9.4105    247.8185    115.7294   6.5520391367e+01   7.7254537025e+00    0.3213244    0.2082378 -26.19  0.001663013    1.356    0.262
        68  -8.1319    231.3386    116.6632   6.8271940541e+01   1.0863577524e+01    0.1427685    0.1079688 -60.36 0.0007051235    1.755    0.430
        69  -8.7678    241.1387    107.2464   6.4479593112e+01   1.0299374006e+01    0.2886533    0.1527979 -18.26  0.001212993    2.127    0.530
        70  -8.5610    150.1608    102.2783   8.0330143919e+01   3.1616790947e+01    0.2548863    0.2003031  24.91  0.001109044    1.485    0.327
        71  -9.1612    161.4864     99.5310   7.6984566142e+01   2.9549439179e+01    0.3008777    0.1507284 -27.61  0.001042143    2.517    0.603
        72  -8.6990    177.9802     94.5207   7.2086142787e+01   2.6594335821e+01    0.2237879     0.126888  30.45 0.0008094259    2.471    0.595
        73  -7.9951    158.3327     92.3404   7.5640878801e+01   3.1694674688e+01    0.1647405    0.1245962   8.48 0.0005007003    1.749    0.428
        74  -8.3877    141.9905     89.4638   7.8611861872e+01   3.6096747050e+01    0.2858639    0.2119079 -16.38  0.001261102    1.653    0.395
        75  -8.2405    150.6152     88.1697   7.6175411455e+01   3.4338218235e+01    0.2311383    0.1480444 -27.49 0.0007033201    1.724    0.420
        76  -9.4925    183.7472     83.0001   6.7663723370e+01   2.7260953482e+01    0.2142645    0.1291013 -33.97 0.0008914205    1.585    0.369
        77  -8.1034    158.3270     83.0048   7.2876469409e+01   3.3483424512e+01    0.2605552    0.1336568 -15.37 0.0007051332    4.336    0.769
        78  -9.5545    180.4914     80.5050   6.7556743572e+01   2.8496457691e+01    0.2793242    0.1521869 -21.55  0.001027884    2.251    0.556
        79  -8.4393    150.4183     78.2370   7.3190929794e+01   3.6300851631e+01    0.3115554    0.1534946 -31.42  0.001128213    2.153    0.535
        80 -10.9733    188.4159     71.2743   6.3366526076e+01   2.8090879649e+01    0.4143871    0.3230562 -69.38  0.001964325    1.509    0.337
        81  -8.3307    114.9174     69.6521   7.9419697156e+01   4.6193988939e+01    0.2040985    0.1939589  41.09 0.0003756349    1.106    0.096
        82  -8.4625    174.4979     76.5124   6.7533083650e+01   3.0679447637e+01    0.1567988    0.1498886  -8.47 3.872103e-05    1.061    0.058
        83  -7.8730    145.4830     66.0266   7.0391306944e+01   3.9758186580e+01    0.2251089    0.1400074  -7.26 0.0008101803    2.549    0.608
        84  -8.4085    158.3178     60.1357   6.5631591450e+01   3.7565305868e+01    0.3164898    0.1475552 -24.40  0.001082354    2.544    0.607
        85 -11.3256    198.8786     58.7050   5.7913617526e+01   2.7440718203e+01    0.5210384    0.2991611  46.33  0.002208218    1.905    0.475
        86  -8.7269    176.5832     54.6404   6.0351004761e+01   3.3754235740e+01    0.3021816    0.1491377 -12.85 0.0009513763    3.335    0.700
        87 -10.7065    205.7415     50.9779   5.4641276070e+01   2.6845754810e+01    0.4407555    0.1731711 -40.02   0.00161821    2.298    0.565
        88  -7.1641    163.6662     52.3189   6.1974059925e+01   3.7454115020e+01    0.1634974    0.1169437 -65.35  0.000704881    1.697    0.411
        89  -8.2527    178.6065     49.7816   5.8454701089e+01   3.3962947623e+01    0.2283245    0.1320683 -39.97 0.0009531622    1.655    0.396
        90 -10.9399    200.3615     46.4752   5.4074084197e+01   2.8834691085e+01    0.5199149    0.2484287  36.04  0.001782019    3.232    0.691
        91  -7.9144    182.0000     47.0063   5.7011921024e+01   3.3486103241e+01    0.2487078   0.08444184 -28.90 0.0006362186    2.866    0.651
        92  -8.3323    169.0000     43.9551   5.8213438890e+01   3.7317863059e+01     0.257445   0.08549558 -28.75 0.0008056184    2.965    0.663
        93 -10.2406    210.7668     41.4045   5.1208289838e+01   2.6900986189e+01    0.2672656    0.1861635  56.48   0.00125482    1.512    0.339
        94  -8.3017    179.3138     36.3187   5.4018811782e+01   3.5664483718e+01    0.1547921    0.1126365  28.05 0.0005330049    1.650    0.394
        95  -9.1671    209.4729     32.4875   4.8801356528e+01   2.8371125956e+01    0.1448039    0.1318057 -54.56 0.0001692364    1.017    0.017
        96  -9.6375    215.9762     22.7098   4.5314944441e+01   2.7918489175e+01    0.1990298    0.1769159 -82.37 0.0008035754    1.104    0.094
        97  -8.4532    202.6684    249.6481   9.8241573739e+01  -2.3569025045e+00    0.1140291   0.06882955  15.20 0.0007046918    1.777    0.437
        98  -9.8606    165.3293    246.8341   1.0413949032e+02   3.4124899502e+00    0.3453778    0.1582654  25.06  0.001563968    3.291    0.696
