#   1 NUMBER                 Running object number                                     
#   2 MAG_AUTO               Kron-like elliptical aperture magnitude                    [mag]
#   3 X_IMAGE                Object position along x                                    [pixel]
#   4 Y_IMAGE                Object position along y                                    [pixel]
#   5 X_WORLD                Barycenter position along world x axis                     [deg]
#   6 Y_WORLD                Barycenter position along world y axis                     [deg]
#   7 A_WORLD                Profile RMS along major axis (world units)                 [deg]
#   8 B_WORLD                Profile RMS along minor axis (world units)                 [deg]
#   9 THETA_WORLD            Position angle (CCW/world-x)                               [deg]
#  10 FWHM_WORLD             FWHM assuming a gaussian core                              [deg]
#  11 ELONGATION             A_IMAGE/B_IMAGE                                           
#  12 ELLIPTICITY            1 - B_IMAGE/A_IMAGE                                       
         1 -13.2604    242.6036    113.4818   7.6632298105e+01   1.0307081357e+01     4.871703    0.8498938 -31.69   0.01373213    4.851    0.794
         2 -12.0710    143.5096     12.6399   6.3729420092e+01   4.7947733340e+01     2.981616     1.470448 -11.32   0.01187287    2.388    0.581
         3 -12.6771    169.2043     56.9936   7.4236807458e+01   3.5573703729e+01     3.588204     1.958759  87.43  0.009560365    5.494    0.818
         4 -12.8977    131.1611     38.1986   7.6253853196e+01   4.7976627334e+01     3.261373     2.154385  41.91   0.01497291    1.454    0.312
         5 -11.9053    216.7226     47.7804   6.3552474166e+01   2.4920918056e+01     1.131831    0.8843879 -28.57   0.00605113    1.220    0.180
         6 -11.8551    234.0598     64.8183   6.5792855705e+01   1.8699785732e+01     1.582393    0.6149148 -42.76   0.00598946    2.655    0.623
         7 -12.3406    227.0198     38.3812   5.9692582272e+01   2.3604287015e+01     1.992137     1.082692 -67.99  0.004485604    2.719    0.632
         8 -10.9511    247.4307     22.6159   5.3578207578e+01   2.0679577668e+01    0.6870719    0.4111727 -47.75   0.00215731    1.565    0.361
         9  -9.6827    181.8973      4.8586   5.5263123059e+01   3.8485626978e+01    0.5281767    0.4380173 -88.73  0.001788006    1.213    0.175
        10 -10.9782    178.7448     16.6384   5.9446846356e+01   3.8200493224e+01     1.122221    0.7588465  53.18   0.00430012    1.402    0.287
        11 -12.1322    195.0796     13.2302   5.6291676001e+01   3.4266239072e+01     2.914155    0.8012067  59.97   0.01006101    3.013    0.668
        12  -9.7755    227.0305      8.9951   5.1889148814e+01   2.6723742427e+01    0.3347376    0.2732788 -51.63 0.0007189525    1.151    0.131
        13 -11.0385    225.7782      4.3857   5.0790295404e+01   2.7451656336e+01    0.4259876    0.3057402  48.55  0.001403766    1.525    0.344
        14 -12.5058    237.1012      2.2409   4.9366900345e+01   2.4999271453e+01     2.108469   0.09042228  64.97  0.005912603    6.185    0.838
        15 -10.9546    249.1264      1.8093   4.8422676086e+01   2.2342160236e+01    0.4980133    0.2508264 -38.02  0.001911748    1.698    0.411
        16  -7.9284    223.5776     17.6594   5.4501091986e+01   2.6696603769e+01    0.5469611    0.2004969 -17.40  0.001976801    3.252    0.693
        17  -9.8135    125.8324     14.1506   6.7964074424e+01   5.2355478759e+01     0.301689    0.2867123 -32.84  0.001729595    1.178    0.151
        18 -11.4999    119.3265      9.7546   6.7600305779e+01   5.4446620840e+01    0.7324519    0.4748147  40.75  0.002690865    1.412    0.292
        19  -7.9983    250.7948     11.9715   5.0724235192e+01   2.1016486307e+01    0.1584509   0.09214654 -25.83 0.0003482071    1.609    0.378
        20  -9.4395      6.5986      6.2064   1.1528228767e+02   7.3872443863e+01    0.1796162   0.07526036 -46.46 0.0009560518    1.712    0.416
        21  -8.2687    171.8790      2.7532   5.5810784279e+01   4.1317375439e+01       0.2722    0.1506565 -49.58  0.000969479    2.033    0.508
        22  -8.8303    192.6016     92.4742   8.0060365407e+01   2.4212634151e+01    0.3165422    0.2419302  26.36  0.001539794    1.350    0.260
        23  -8.3451    103.8953    144.5929   1.1367821735e+02   3.2237692527e+01    0.1847325    0.1559034  42.87 0.0004480949    1.134    0.118
        24  -9.0082    191.7072    144.2138   9.3030946826e+01   1.5818787684e+01    0.2474357    0.1900948  30.45 0.0005183741    1.190    0.160
        25 -12.4129     47.5143    173.0916   1.3104501218e+02   3.3646250765e+01    0.8687016    0.7136004  68.66  0.002867001    1.023    0.022
        26  -8.1544    165.0402    132.6797   9.6203877808e+01   2.3235543174e+01    0.2033907     0.179461  27.17 0.0004113501    1.052    0.050
        27  -8.3444    222.3996    131.2389   8.4179794223e+01   1.1742805748e+01    0.1894321    0.1232465 -37.72 0.0005881546    1.630    0.386
        28  -7.4383    169.3179    128.2718   9.4208137837e+01   2.3156996956e+01    0.1513071    0.1108914  12.47 0.0002422545    1.563    0.360
        29  -9.5855    203.1483    126.4835   8.6670476082e+01   1.6364120009e+01    0.2746201    0.1881721 -54.75 0.0008962924    2.106    0.525
        30 -11.3088    186.1644    122.0583   8.9043184497e+01   2.0682756083e+01    0.6950391    0.4273731 -47.48  0.003054605    1.937    0.484
        31 -10.5457    233.0633     76.9434   6.9065538630e+01   1.7305428100e+01     0.525726    0.4053718 -13.35 0.0005576729    1.250    0.200
        32  -7.6011    140.6725    121.6873   9.9477195325e+01   3.0352538848e+01    0.1545544    0.1165661   3.14 0.0007042496    1.667    0.400
        33 -10.4596    193.5297    117.1879   8.6322902294e+01   1.9919775939e+01    0.3920403    0.2849128  63.38  0.001840698    1.804    0.446
        34  -9.2424      8.3376    115.6806   1.3580148950e+02   4.9460973669e+01    0.1820959    0.1056107  65.63 0.0007090466    1.716    0.417
        35 -10.0006    203.5203    111.5061   8.2933287239e+01   1.8679854068e+01    0.2751919    0.2301992  23.83 0.0008626442    1.140    0.123
        36 -10.8265    207.3051    109.8421   8.1798266746e+01   1.8122326798e+01    0.4581661    0.4147353 -86.39  0.002497101    1.488    0.328
        37 -10.4000    167.4719    113.0836   9.0894101576e+01   2.6340314168e+01    0.4505931    0.3770607  88.86  0.001331376    1.676    0.403
        38 -11.9375    244.0768    239.5583   1.0070418081e+02  -4.8622574498e+00    0.2131225    0.1582875  16.58 0.0003901055    1.170    0.145
        39 -11.9517    186.9819     99.6646   8.3132204807e+01   2.4319842085e+01       2.6233    0.4655548 -39.53  0.006328063    5.491    0.818
        40  -9.9857    184.4087     71.4694   7.5683801589e+01   2.9535308576e+01    0.2973735    0.2692683  39.27 0.0002988559    1.093    0.085
        41 -11.3659    177.8776     77.3011   7.8709270882e+01   3.0203911178e+01    0.9843032    0.7653669  53.08  0.001832423    1.315    0.240
        42  -8.2521      9.1334    235.2300   1.4174277527e+02   2.6028869248e+01    0.1287122   0.09970627  59.69 0.0004538637    1.175    0.149
        43  -9.8469    156.5903    217.4289   1.1314084579e+02   1.0554241571e+01    0.2186604    0.1746629  32.36 0.0002382768    1.019    0.018
        44  -9.9590    250.1742     87.6072   6.9324715827e+01   1.2286214225e+01    0.5644757    0.1796773 -28.38  0.002072369    2.794    0.642
        45  -8.5234    158.3595     90.3194   8.6839992940e+01   3.2602696385e+01    0.2903708    0.2213166  25.00  0.001033685    1.394    0.282
        46  -9.4339    161.7572     88.5809   8.5542529506e+01   3.2126146482e+01    0.3432726    0.2938795  46.34  0.000882768    1.177    0.150
        47  -9.2475    167.4635     88.8890   8.4328968299e+01   3.0729257681e+01    0.4213976    0.2764869 -62.28  0.001577046    2.344    0.573
        48  -9.6162    142.9473     86.4603   8.9515608477e+01   3.6868144733e+01    0.4002131    0.2846032  46.64 0.0007544724    1.404    0.288
        49  -8.8709    177.0146     85.9927   8.1416622260e+01   2.8964438935e+01    0.2244492    0.2102446   6.83            0    1.006    0.006
        50 -10.9925    158.4845     78.6372   8.3357498012e+01   3.4676864616e+01    0.4504311    0.3389754 -15.43 0.0008111852    1.437    0.304
        51  -8.5764      1.6285     75.7960   1.3391020249e+02   5.8925295015e+01    0.1684494   0.09165282 -85.79 0.0003098787    1.648    0.393
        52  -8.6928    202.2224     54.8279   6.7670787489e+01   2.7547820883e+01    0.3978923    0.2075067 -53.09  0.001514679    2.525    0.604
        53  -9.0453    213.5173     67.5428   6.9495464059e+01   2.3058117427e+01    0.5254759    0.3455519  19.92  0.001914314    1.910    0.477
        54 -10.3040    209.5959     62.6611   6.8750504692e+01   2.4672901225e+01     1.623092    0.5851699 -43.45  0.005450801    3.079    0.675
        55  -9.9990    194.4673     63.9825   7.1628472342e+01   2.8180330127e+01    0.3692343    0.2494285  35.27  0.001684724    1.587    0.370
        56 -10.6825    200.2010     60.1001   6.9525112415e+01   2.7319633585e+01    0.5595664    0.4424881  64.54   0.00144391    1.353    0.261
        57  -8.3094    119.0638     69.5238   9.0783756985e+01   4.5438147809e+01     0.212574    0.1979087 -16.53   3.4295e-05    1.037    0.036
        58  -8.9262     69.3362     66.3543   1.0638722536e+02   5.5146355069e+01    0.3704729    0.2313442 -72.37  0.001385682    2.461    0.594
        59  -8.0639     30.4172    213.7734   1.3722525918e+02   2.7661695320e+01    0.1248639   0.08623651 -75.41 0.0002523801    1.536    0.349
        60 -11.6683    226.6972     46.8309   6.1997591418e+01   2.2667193275e+01    0.9956461    0.5593026 -54.53  0.003705244    2.121    0.529
        61  -7.9646    244.9911     60.4745   6.3287776128e+01   1.6856143812e+01    0.1860484    0.1365018  64.11 0.0008712127    1.538    0.350
        62  -7.3933    185.6512     56.2566   7.0875568856e+01   3.1503484368e+01    0.1497255    0.1179255 -73.39 0.0003554518    1.598    0.374
        63  -8.5858    191.0244    190.9255   1.0232531591e+02   8.7536161924e+00    0.3060803    0.1822541 -63.28  0.001110866    5.348    0.813
        64  -9.1983    187.3781     49.5618   6.8524516884e+01   3.1999985609e+01     0.553673    0.3015941 -58.83  0.002025532    2.776    0.640
        65  -9.3551    185.7502     41.8049   6.6396057381e+01   3.3447838782e+01    0.5135065    0.3606043 -56.63  0.001833803    1.664    0.399
        66  -8.4512    240.2392     47.7775   6.0626583066e+01   1.9454907777e+01    0.2164948    0.1784532 -84.04 0.0009857219    1.393    0.282
        67 -10.3235    131.3636     47.0123   7.9491462259e+01   4.6589667545e+01    0.2749242    0.2548213   9.69 0.0002924512    1.019    0.019
        68 -10.6617    247.5220     43.7749   5.8814735147e+01   1.8322655445e+01    0.4338801    0.2791495 -68.49  0.001193761    1.957    0.489
        69  -8.3753     61.4943     45.9215   1.0266729909e+02   6.0584454679e+01    0.2105885    0.1244683 -47.59  0.001020911    1.576    0.365
        70  -7.5669    197.2533     43.6698   6.5154191992e+01   3.0264273436e+01     0.148912    0.1067163 -54.15 0.0004827518    1.555    0.357
        71  -8.4829    236.4806     39.5797   5.8937639927e+01   2.1270713008e+01    0.2253145    0.1787892 -38.34 0.0002041582    1.165    0.141
        72 -10.1281    110.8933     41.9591   8.3296070973e+01   5.2175225633e+01     0.408408    0.2660521 -41.40  0.001871043    1.631    0.387
        73  -7.8993    135.0000    113.0385   9.8829442830e+01   3.3268165129e+01    0.2507811   0.08604723 -44.49 0.0008070216    2.974    0.664
        74  -8.0765    250.3737     33.3411   5.5946906234e+01   1.8884459284e+01    0.4074707   0.09292049 -35.75  0.001443783    3.201    0.688
        75 -12.2403      4.8558    205.7805   1.4149629731e+02   3.1336410580e+01    0.6939659    0.4123231  86.57  0.004966194    1.417    0.294
        76  -7.5766    158.2500    202.9846   1.1077678542e+02   1.2429553031e+01    0.1314204    0.1095849 -38.96 0.0002746133    1.445    0.308
        77  -8.9618    149.4785     97.4157   9.1004926732e+01   3.3291799948e+01     0.315128    0.2561542  11.34 0.0007376986    1.344    0.256
        78 -13.1531     35.7415    181.9790   1.3428820601e+02   3.3058980012e+01     1.226091     0.821785   7.33  0.001917897    2.425    0.588
        79  -8.7478    209.4041     96.2979   7.7934886421e+01   1.9767380230e+01    0.2688357    0.2499436  15.04 0.0008556896    1.058    0.055
        80  -8.2126    174.4555    167.8125   1.0148905433e+02   1.5232756767e+01    0.1807294     0.127697 -20.75 0.0002862001    1.598    0.374
        81  -8.5268    222.2055    178.0132   9.4071320368e+01   5.2268112136e+00    0.3109018    0.1752724  60.57  0.001099265    5.068    0.803
        82  -9.3765    248.8356    161.6907   8.6208336809e+01   2.8550564245e+00    0.2284951    0.1895539  18.93 0.0006521281    1.196    0.164
        83  -8.9503    105.0777    159.8519   1.1591404306e+02   2.8847142488e+01    0.1882423    0.1744095  49.93 0.0003123231    1.023    0.022
        84  -7.5709    146.7883    157.9800   1.0570851454e+02   2.2068827049e+01    0.1692884    0.1144339 -44.32  0.000368512    1.619    0.382
        85  -9.4201    249.5277    156.7410   8.5080527729e+01   3.3546165386e+00    0.2624725    0.1923867  -0.86 0.0002224881    1.150    0.130
        86 -11.8180    242.1115    147.8933   8.4452242694e+01   5.7574546943e+00     1.225608    0.9351442  41.26  0.007252828    1.454    0.312
        87  -9.9830    237.4001    132.2060   8.1797238794e+01   8.7256409217e+00    0.3917063    0.2859295  40.61 0.0009679814    1.421    0.296
        88  -8.2392    105.1326    248.0789   1.2607003912e+02   1.3512140213e+01    0.1584828    0.1229954 -55.24  0.001225022    1.734    0.423
        89  -8.7038    171.0771    155.0937   9.9707107013e+01   1.8018150336e+01    0.2101786    0.1851064  19.57 0.0002902794    1.017    0.017
        90 -10.1028    217.7177    150.2104   8.9258425011e+01   9.8694179379e+00    0.2440384    0.2030223  24.51 0.0004848381    1.121    0.108
        91  -8.1661    135.0930     94.6043   9.3923868716e+01   3.7006033411e+01    0.2456049    0.2045318 -52.15  0.001214304    1.310    0.237
        92  -9.5733     69.5063    145.4849   1.2270050837e+02   3.6995228591e+01     0.341485    0.2731051  64.20  0.001646912    1.210    0.173
        93  -9.9407    242.0289     21.9912   5.3898489798e+01   2.1949296612e+01    0.3187326    0.1807888 -42.27  0.001621564    1.598    0.374
        94  -9.4770     66.4776    144.4750   1.2334651879e+02   3.7597938920e+01    0.4307227    0.2843354 -80.75  0.001485516    1.558    0.358
