#   1 NUMBER                 Running object number                                     
#   2 MAG_AUTO               Kron-like elliptical aperture magnitude                    [mag]
#   3 X_IMAGE                Object position along x                                    [pixel]
#   4 Y_IMAGE                Object position along y                                    [pixel]
#   5 X_WORLD                Barycenter position along world x axis                     [deg]
#   6 Y_WORLD                Barycenter position along world y axis                     [deg]
#   7 A_WORLD                Profile RMS along major axis (world units)                 [deg]
#   8 B_WORLD                Profile RMS along minor axis (world units)                 [deg]
#   9 THETA_WORLD            Position angle (CCW/world-x)                               [deg]
#  10 FWHM_WORLD             FWHM assuming a gaussian core                              [deg]
#  11 ELONGATION             A_IMAGE/B_IMAGE                                           
#  12 ELLIPTICITY            1 - B_IMAGE/A_IMAGE                                       
         1 -14.2717    119.3794     54.8450   3.3619309035e+01   4.7361023849e+01     1.457781    0.6278082  41.17  0.004973853    2.768    0.639
         2 -13.7852    100.9880     49.6319   3.6628105063e+01   5.2444790966e+01     1.067515    0.8548241  72.29  0.005641767    1.390    0.281
         3 -13.9151     56.3362     64.3807   5.7994492796e+01   5.8671312452e+01     1.831595     1.105846 -17.44  0.007598432    2.416    0.586
         4 -14.8114      6.6104     70.8419   8.3784348383e+01   6.2652208245e+01     1.174189    0.8007896 -58.52  0.005251457    1.278    0.218
         5 -15.7409     11.8216     22.8574   6.5650346869e+01   7.2604487833e+01     1.948671     1.043143 -27.13  0.008398395    1.876    0.467
         6 -14.1524     27.3438     11.5173   4.9431738411e+01   7.2482217876e+01    0.9364004    0.5790854 -12.75   0.00512695    1.809    0.447
         7 -12.5990      7.8472      2.6264   5.7574065612e+01   7.6361367967e+01    0.5638915    0.4050567  34.92  0.003660252    1.604    0.377
         8 -12.3327    120.5988     25.7366   2.3515005149e+01   5.1004426906e+01    0.5671437    0.5375064  23.80  0.003563822    1.180    0.153
         9 -13.7394    122.2821     36.9485   2.6999299755e+01   4.9233450318e+01    0.9352759    0.5211783  38.68  0.002895215    2.140    0.533
        10 -14.0363    166.6208     29.7795   1.7638851681e+01   3.9514130352e+01    0.9672927    0.6654515  76.57  0.003712666    1.370    0.270
        11 -13.9807    148.0049     29.8042   2.0181721437e+01   4.3905641034e+01     1.160246    0.6936001  75.00  0.004265994    1.624    0.384
        12 -13.3746    189.2533     24.8019   1.3881184358e+01   3.4975163339e+01     1.036212    0.6134916 -53.65  0.004663311    1.530    0.346
        13 -12.8972    187.3430     11.3439   1.0779444927e+01   3.6814832738e+01    0.5180848    0.3926514 -19.87  0.002983178    1.639    0.390
        14 -14.9782     99.0850     11.6184   2.2676849371e+01   5.7659642393e+01     1.395197    0.8048156  61.85  0.003830721    1.491    0.329
        15 -12.0710     85.6129     13.6291   2.6705002565e+01   6.0637020410e+01    0.4033092    0.3626354 -71.95  0.001515297    1.292    0.226
        16 -11.9714     60.1952     15.3085   3.5565417801e+01   6.6048562301e+01    0.5243983     0.276999  35.70  0.002531767    1.854    0.461
        17 -13.4828    214.9039     10.1680   8.5076492027e+00   3.1154377910e+01       0.5216    0.3328584 -80.73   0.00261704    1.406    0.289
        18 -11.8753    123.3613     10.9774   1.7975613035e+01   5.1848169770e+01    0.2456606    0.2198029 -66.36 0.0004626732    1.161    0.138
        19 -13.6974     41.8455      4.5052   3.7516813333e+01   7.0867565895e+01    0.7256532    0.5157756  18.32  0.003837968    1.349    0.259
        20 -11.5209     75.4839      9.7398   2.7773782281e+01   6.3331529175e+01    0.3269101    0.2426884  -4.82  0.001429872    1.545    0.353
        21 -11.5507     46.9045     12.9232   3.9886863269e+01   6.8954213899e+01    0.2952923    0.2487012  49.31  0.001132782    1.292    0.226
        22 -11.3900    153.1952      8.7687   1.3350854137e+01   4.4866745396e+01     0.368487     0.210005  72.83  0.001969164    1.549    0.354
        23 -10.2998     80.4233      7.2612   2.5277827092e+01   6.2438961415e+01    0.1611241    0.1203245 -37.75 0.0008877756    1.549    0.355
        24 -11.9789    225.4926      3.5186   6.5013310932e+00   2.9739495422e+01    0.2267608    0.1536602  39.28  0.001410992    2.461    0.594
        25 -11.7560    118.6444      2.4592   1.5766725255e+01   5.3727088533e+01    0.6267984    0.2512697  89.80  0.002191389    3.869    0.742
        26 -10.9917     67.7443      2.6851   2.6702058741e+01   6.5700733260e+01    0.2845635    0.1643905  35.12  0.001490998    1.693    0.409
        27 -11.1232    232.5393      1.7533   5.7869416632e+00   2.8577700407e+01    0.1919952    0.1287666 -87.39  0.000862053    1.361    0.265
        28 -11.4860     79.9706      1.6275   2.2854255075e+01   6.3021522390e+01    0.7870943          nan  59.43  0.001961655    6.552    0.847
        29 -10.9533     61.5224      1.4753   2.8053780903e+01   6.7164346614e+01    0.3601107     0.113688  60.31  0.001280917    2.916    0.657
        30 -10.8488    122.5016    181.5314   6.4466677063e+01   2.0261839238e+01    0.3094962    0.2071206  86.95  0.001257142    2.848    0.649
        31 -12.3491    109.7433    248.8775   7.6843106566e+01   8.8224271989e+00    0.3525444    0.2298042  63.83  0.001920627    2.233    0.552
        32 -11.8196     51.1675    248.5227   8.9683632481e+01   1.5773928138e+01    0.3616134    0.2987365 -64.78  0.002519082    1.446    0.308
        33 -12.6456     28.6628    245.8324   9.4380395605e+01   1.8599812470e+01    0.4920892    0.3183734  68.47   0.00269459    1.472    0.321
        34 -12.1224      2.8492    249.6363   9.9906007589e+01   2.0218832925e+01    0.3725261    0.2267322  43.74  0.001759014    1.261    0.207
        35 -13.6849      9.6124    245.6192   9.8381271763e+01   2.0403708969e+01    0.9060125    0.3833686  47.54  0.003965722    1.786    0.440
        36 -11.1027     49.0014    181.5362   8.4372373593e+01   3.0593724188e+01    0.2776772    0.1799115 -51.91  0.001392911    1.645    0.392
        37 -12.1555    124.0769    166.9545   6.1425693081e+01   2.3198273042e+01     0.525397    0.3643149  88.06   0.00219476    2.539    0.606
        38 -13.2701     22.1365    180.8082   9.1759449171e+01   3.3496250317e+01    0.8302531     0.409671 -60.74  0.003944339    1.996    0.499
        39 -12.4036     76.9059    156.7499   7.2784873575e+01   3.3151814714e+01    0.7277468    0.4025618  32.32  0.003132831    1.753    0.429
        40 -13.0470     73.7869    153.3916   7.3163389485e+01   3.4444778084e+01    0.8117577    0.5226327  24.14  0.002667425    1.627    0.385
        41 -12.0209    111.2099    155.8364   6.2702195930e+01   2.7909207920e+01    0.5455645    0.3727646  81.57  0.002229123    2.447    0.591
        42 -11.1186    188.5077    155.5010   4.4569660716e+01   1.4470277179e+01    0.1363328    0.1214739 -19.21 0.0008105929    1.016    0.016
        43 -11.2124     85.2387    153.5353   6.9723253421e+01   3.2702297085e+01     0.490158    0.1887677 -43.89  0.001631577    3.026    0.670
        44 -12.0780      8.8355    150.3740   9.3175637861e+01   4.2188855455e+01    0.4249822    0.2856333  12.85  0.002290024    1.697    0.411
        45 -11.0201    189.3137    150.6479   4.3419086564e+01   1.5212242175e+01    0.1320972    0.1083436 -72.71 0.0007045924    1.730    0.422
        46 -11.1165    103.4285    149.5735   6.3641163173e+01   3.0710388769e+01    0.3227116    0.2574774 -21.84   0.00102441    1.424    0.298
        47 -11.6837     60.2941    147.6697   7.6434784899e+01   3.7756261386e+01    0.4128762    0.3221637  -3.53  0.002064423    1.529    0.346
        48 -10.6733     38.0915    145.5107   8.3304701644e+01   4.0927385172e+01     0.208541    0.1393525  24.82 0.0006655911    1.554    0.357
        49 -12.3339     40.6535    137.2095   8.1280830316e+01   4.2827491675e+01      0.48004    0.2823805  69.34  0.002036194    2.185    0.542
        50 -10.1465     10.5089    133.6353   9.1109147323e+01   4.6400763559e+01     0.131072    0.1202314  78.57 0.0001121803    1.067    0.063
        51 -12.0488    136.9186    132.7107   5.0928820529e+01   2.8409636815e+01    0.4571764    0.2570495  31.16  0.001864719    2.014    0.504
        52 -13.7292    106.1221    123.9068   5.7239481900e+01   3.6308984057e+01     1.298683    0.6490455  33.99  0.004981677    2.095    0.523
        53 -13.0524    111.9184    116.7112   5.3787993590e+01   3.6851217288e+01    0.5067145    0.3769878  32.30  0.001688497    1.384    0.278
        54 -13.4561    102.4119    118.5980   5.7065683987e+01   3.8245097655e+01    0.9260508    0.5743884  27.04  0.003885023    1.827    0.453
        55 -12.3852     28.8038    121.9382   8.3176835209e+01   4.8021061057e+01    0.5454932    0.3373103 -56.09  0.002645841    1.484    0.326
        56 -12.6733     32.3303    112.5521   8.0329444949e+01   5.0141796672e+01    0.7553237    0.2743503 -50.24  0.002808908    2.507    0.601
        57 -12.2227    180.8860    121.8072   3.8747311330e+01   2.2003726473e+01    0.4157777    0.2907178 -25.82  0.001777227    1.515    0.340
        58  -9.7913     58.7110    124.7275   7.2874106025e+01   4.3890704272e+01    0.1473361    0.1110361 -26.58 0.0002583852    1.510    0.338
        59 -11.5289     78.9984    119.0075   6.4656864628e+01   4.2292607254e+01    0.3740351    0.2426277 -59.27  0.001557597    1.588    0.370
        60 -13.0550     84.6546    114.8852   6.1793065143e+01   4.2346350674e+01    0.9540913    0.3922834  35.63  0.002980233    2.425    0.588
        61 -12.1250     78.8928    110.1343   6.2578734926e+01   4.4483980425e+01    0.4245456     0.384589  76.62  0.001969001    1.240    0.193
        62 -12.9613      5.2796    117.7705   9.1300871600e+01   5.0853949959e+01     1.160157    0.4485876 -59.60  0.004918333    2.141    0.533
        63 -12.1302     42.4018     90.3279   7.1634482421e+01   5.4695101194e+01    0.4004923    0.3025676 -78.80 0.0002108539    1.553    0.356
        64 -12.3057     49.3532     98.8027   7.0809546688e+01   5.1725841210e+01    0.8733112    0.5046991  16.10  0.003754122    2.014    0.504
        65 -12.1076     49.0073     93.4899   6.9665683208e+01   5.3084878449e+01    0.4894442    0.4194671  25.98  0.002542391    1.195    0.164
        66 -14.4464     24.5476     93.6449   8.0007659671e+01   5.5721120892e+01     1.692101     1.225075  -0.50  0.008918386    1.522    0.343
        67 -12.1261     36.6493     92.8757   7.4671339516e+01   5.4726433090e+01    0.4638228    0.2704518  22.43     0.001694    1.796    0.443
        68 -13.1033      2.2078     96.8192   9.0020458098e+01   5.6413600726e+01    0.8598477    0.3388982 -75.49  0.003547678    2.321    0.569
        69 -13.8982     18.3039    111.7627   8.5625703751e+01   5.1560951908e+01    0.8310199    0.5777383   3.49   0.00314255    1.636    0.389
        70 -14.0640     13.5303    103.6092   8.6318158896e+01   5.4016514338e+01     1.162053    0.5520603  25.61  0.002146913    2.191    0.543
        71 -11.8660    121.6383    112.2193   4.9921609257e+01   3.5902407432e+01    0.3407132    0.2855912 -76.74 0.0008859879    1.428    0.300
        72 -11.5570     62.3500    109.8160   6.8395097449e+01   4.7174592872e+01     0.695652    0.4522143  79.97  0.002790436    2.472    0.595
        73 -14.5473    105.9059    103.6738   5.2165542893e+01   4.0966245301e+01     1.195941     1.054401  35.86  0.004867761    1.130    0.115
        74 -12.6692    136.2701    103.1264   4.3756010144e+01   3.4747451901e+01    0.5996878    0.3405775  52.11  0.001713552    1.862    0.463
        75 -12.9400    121.1113    102.2912   4.7445753532e+01   3.8137232708e+01    0.4010732    0.3155543  33.99  0.001962576    1.318    0.241
        76 -10.8811     64.5080    101.5329   6.5604576850e+01   4.8902080501e+01    0.2803165    0.2416317  -1.54 0.0005486104    1.238    0.192
        77 -11.9626     61.5116     97.5466   6.5731392430e+01   5.0328259692e+01    0.4902033    0.3907916  73.31   0.00169314    1.595    0.373
        78 -11.9985    163.2193     97.7891   3.6394604515e+01   2.9990992001e+01    0.3701967    0.3310509  81.16 0.0005535174    1.219    0.179
        79 -12.9310    137.0423     94.7377   4.1314592517e+01   3.6243049851e+01    0.5214916    0.4569907  77.75  0.002011388    1.264    0.209
        80 -11.8822     91.2701     97.0103   5.4936154041e+01   4.5327104321e+01    0.5972468    0.2237128  36.32  0.001978509    2.819    0.645
        81 -10.8048    118.8262     96.1798   4.6389190920e+01   3.9896941161e+01    0.2069769    0.1786883   6.66 0.0003985068    1.323    0.244
        82 -13.3267    188.0555     84.2454   2.8626285950e+01   2.7069110481e+01    0.5666591     0.362206  42.92  0.001977595    1.844    0.458
        83 -12.1895    186.9942     79.2890   2.7585981171e+01   2.8080605177e+01     0.266915    0.1968186 -32.37 0.0007138749    1.359    0.264
        84 -10.7757    242.5023     84.4617   2.1659406495e+01   1.6814697149e+01    0.1195849   0.09648497 -45.02 0.0002491488    1.007    0.007
        85 -13.2611    163.9986     71.5866   2.9396102528e+01   3.4318382373e+01     0.691002    0.5312869  47.26  0.003714217    1.393    0.282
        86 -14.0560    169.2986     76.9365   2.9881099642e+01   3.2272268016e+01     1.333982    0.5096192  53.42  0.004560867    2.645    0.622
        87 -11.8626    158.4562     83.4985   3.3615014039e+01   3.3571192357e+01    0.3314736    0.2679292  63.89 0.0007994068    1.285    0.222
        88 -12.6855    161.0720     80.1952   3.2231454056e+01   3.3555383711e+01    0.4432606     0.359837  26.03  0.001484093    1.509    0.337
        89 -11.0095    126.1036     83.9002   4.0955953395e+01   4.0749300030e+01    0.2901207    0.1930556  24.65  0.001004868    2.050    0.512
        90 -13.0228     79.4090     58.8762   4.6890415894e+01   5.5535871549e+01     1.163781    0.6260261 -35.83  0.005012094    1.993    0.498
        91 -10.4875     41.6536    250.3090   9.1855176353e+01   1.6440607579e+01    0.1291922   0.06624641  52.18 0.0007044433    1.704    0.413
        92 -13.1951    172.0520    242.7201   6.2955645267e+01   2.0381254108e+00    0.6049824    0.3816918  20.21  0.003687555    1.328    0.247
        93 -12.6475    100.7994    238.8045   7.7721905982e+01   1.1745911725e+01    0.5682799    0.3251323  19.46  0.002948217    1.730    0.422
        94 -12.8491     87.4584     65.1836   4.6316375703e+01   5.2715519715e+01    0.5431625     0.415181  18.31 0.0009499606    1.500    0.333
        95 -12.9811     54.6407     80.5134   6.3831438539e+01   5.5388512653e+01    0.8222746    0.4479761 -43.73  0.003579007    1.800    0.444
        96 -13.7428     61.3271     75.6234   5.9581987979e+01   5.5449976409e+01    0.7424193    0.5142364 -31.57     0.001623    1.533    0.348
        97 -10.9261     42.6210    106.5256   7.5180045899e+01   5.0600532019e+01    0.2937016    0.1790771 -21.82  0.001250083    2.124    0.529
        98 -12.9370    216.4662     80.9639   2.3907850129e+01   2.1945162088e+01    0.4402571    0.3714231  86.12  0.001722334    1.308    0.236
        99 -11.9321    114.1383     79.8809   4.2929469589e+01   4.4174687473e+01    0.4444982    0.3523054 -47.60  0.001544256    1.298    0.230
       100 -11.1925     42.6834     79.3234   6.8653813860e+01   5.7309366666e+01     0.471063    0.2760331 -83.10  0.001783083    3.130    0.681
       101 -10.7909     41.6272     75.7768   6.8132365957e+01   5.8272205189e+01    0.3820436    0.2990298  79.29  0.001740315    1.772    0.436
       102 -12.3268    135.3594     79.2945   3.7370296792e+01   3.9518431465e+01    0.7794206    0.3437035  57.83  0.002869585    2.530    0.605
       103 -10.5918     89.7946     80.6020   5.0581206152e+01   4.9176977225e+01    0.2182343    0.1391811  51.46 0.0009526658    1.684    0.406
       104 -11.6862    147.3037    239.0159   6.7524290366e+01   5.7198289379e+00     0.172761    0.1489559   5.67 0.0007410217    1.085    0.079
       105 -14.0982      5.2696     63.5709   8.2948558032e+01   6.4459685580e+01    0.8036997    0.5922666 -12.02  0.003990473    1.363    0.266
       106 -10.7717    236.9779     80.0000   2.1340014662e+01   1.8379583563e+01     0.173415    0.0689706  60.66 0.0008113055    3.004    0.667
       107 -11.4015     27.6547     75.9905   7.4671634367e+01   5.9789511964e+01    0.3745816    0.2746728 -87.97  0.001917619    1.759    0.431
       108 -10.7139     26.0000     72.0206   7.4447940508e+01   6.0893268403e+01    0.2857161    0.1628527 -42.02  0.001364866    1.627    0.385
       109 -13.0690    198.9942     70.2301   2.3701345345e+01   2.6971038150e+01    0.6183841    0.4303393  43.59  0.002463595    1.764    0.433
       110 -10.6369    117.8582     71.6095   3.9377901129e+01   4.4884692648e+01    0.2393524     0.203696 -21.64 0.0005272111    1.293    0.227
       111 -12.3064    135.0701     66.1977   3.3571511566e+01   4.1852608252e+01    0.5306977     0.393908  39.74  0.001631049    1.453    0.312
       112 -11.9299     38.4471     67.8176   6.7258269701e+01   6.0490717877e+01     0.773091     0.339089  21.48  0.003063693    2.557    0.609
       113 -11.6775    158.6973     64.7044   2.8462561644e+01   3.6609440459e+01    0.5163792    0.2127704 -44.65  0.002034229    2.388    0.581
       114 -10.7752    200.0253     61.6915   2.1557469050e+01   2.7989744957e+01    0.1790784    0.1622208 -80.72  0.001161163    1.094    0.086
       115 -11.5919     36.3476     54.3284   6.3855145021e+01   6.3683148585e+01      0.51465    0.1954056 -40.95  0.001982483    2.668    0.625
       116 -11.3377     34.6154     60.4844   6.6815119386e+01   6.2585787999e+01     0.770777    0.2068018 -52.21  0.002638825    3.293    0.696
       117 -12.1524     38.7246     59.7467   6.4537035033e+01   6.2229243448e+01    0.3928506    0.2969021 -87.84  0.001964362    2.065    0.516
       118 -13.1651    177.8566     57.9035   2.3578774818e+01   3.3287948268e+01    0.6540729    0.5139315 -55.66  0.002049581    1.193    0.162
       119 -11.5095     24.5944     59.1146   7.1524192690e+01   6.3994255675e+01    0.4296986    0.2623298 -45.37  0.002094502    1.476    0.322
       120 -12.9214     65.7422     49.3071   4.8480203305e+01   5.9935664617e+01    0.6700187    0.6176147  65.86   0.00391451    1.303    0.233
       121 -11.2551     17.6801     55.4535   7.4140551635e+01   6.5452030799e+01    0.3164326    0.1942438 -59.72   0.00164211    1.600    0.375
       122 -12.8676     91.8384     57.5962   4.2224903526e+01   5.3163662921e+01    0.8235205    0.5869577 -56.35  0.003456327    1.697    0.411
       123 -12.1059    136.1206     50.6443   2.8600831757e+01   4.4024986947e+01    0.4779349    0.3685742 -41.95  0.001946922    1.328    0.247
       124 -10.3406     23.5263     49.9428   6.9144833105e+01   6.6096794436e+01    0.1847829    0.1545694 -28.91  0.000419014    1.061    0.057
       125 -13.7678     73.6986     74.1069   5.4233185521e+01   5.3630228874e+01     1.463006    0.6997893  21.74  0.004577817    3.870    0.742
       126 -12.3874    152.9546     46.5138   2.4306925381e+01   4.0606618988e+01    0.5434732    0.2277068  55.26  0.001570848    2.268    0.559
       127 -12.2413    159.0060     43.0199   2.2354145950e+01   3.9651035795e+01    0.4818322    0.3315652  73.79  0.001854536    1.423    0.297
       128 -10.4042     38.6784     46.0577   5.9574590741e+01   6.5033912232e+01    0.1917117    0.1592409 -28.05 0.0007813135    1.140    0.123
       129 -10.5321     30.1130     45.9182   6.4060918951e+01   6.6186847070e+01    0.2264594    0.1430034 -20.62  0.001130449    1.728    0.421
       130 -12.9357    204.7309     40.0449   1.5983997365e+01   2.9879555013e+01    0.9502485    0.4076339 -87.64  0.003578044    4.043    0.753
       131 -12.4153    212.5398     43.1236   1.5922730669e+01   2.7904399149e+01    0.3944187    0.2748709  54.24  0.001713288    1.708    0.414
       132 -13.1950    219.6521     41.4980   1.4907593074e+01   2.6697058026e+01    0.5436555    0.3477563 -84.84  0.001847088    1.644    0.392
       133 -13.0588      5.8278     42.9530   7.7278901136e+01   6.9082845210e+01    0.9252522    0.4292691  15.86  0.004506317    2.184    0.542
       134 -11.0236     27.7377    235.4813   9.4015328580e+01   2.0733693871e+01    0.1950468    0.1566417  56.12  0.001333085    1.049    0.047
       135 -11.6749     16.2843    235.5219   9.6532611447e+01   2.1799539539e+01    0.3063681     0.144872  61.27  0.001639022    1.938    0.484
       136 -12.4693     23.7099    216.4120   9.3821922971e+01   2.5119451187e+01    0.8341866    0.3416177  43.85  0.004034989    1.993    0.498
       137 -13.1726     26.5864    225.6664   9.3707511778e+01   2.2866637695e+01    0.7125317    0.3739779 -58.66  0.003818445    2.167    0.538
       138 -11.6869    135.0378     39.3887   2.5289073337e+01   4.5839574982e+01    0.4416787    0.2865991  78.12  0.001386456    1.648    0.393
       139 -12.0222    109.8865     41.9480   3.1537848806e+01   5.1518983791e+01    0.5244417    0.2067359  57.98 0.0007596653    2.397    0.583
       140 -12.4155    131.3802     33.4890   2.4078703701e+01   4.7472349033e+01    0.4347499    0.3470354  36.52  0.001373216    1.409    0.290
       141 -13.7611     20.7791    223.9920   9.4942796948e+01   2.3767199179e+01    0.6898712    0.6138554  80.95  0.003635632    1.156    0.135
       142 -12.7310    113.7881     37.7193   2.9120101145e+01   5.1170977842e+01    0.4149066    0.3337536  66.63  0.001269572    1.185    0.156
       143 -12.1543     40.5566     40.3372   5.6277803855e+01   6.5837765614e+01    0.5610879    0.2919776  37.48  0.002653686    1.893    0.472
       144 -12.2265     32.8816     40.2355   6.0299437464e+01   6.6943478362e+01     0.341173    0.2568367   9.68 0.0006945269    1.275    0.216
       145 -12.4346     75.9678     37.0200   3.9633485583e+01   5.9885748412e+01    0.4621554    0.2756611  43.42 0.0009362851    1.540    0.351
       146 -11.7181     70.8413     36.1481   4.1115554997e+01   6.1084563040e+01    0.3080406    0.2679425  61.78 0.0008730552    1.300    0.231
       147 -12.5662    242.1609     36.1790   1.2005297687e+01   2.3126678712e+01    0.4377245     0.269801  85.07  0.001838604    1.732    0.423
       148 -10.9151    104.7394     37.2176   3.1118569734e+01   5.3384671555e+01    0.2427887    0.1760438 -36.75  0.001273664    1.481    0.325
       149 -12.5566     44.4628     33.4443   5.1281460531e+01   6.6426035329e+01     1.005677     0.425232  36.79  0.004330289    2.243    0.554
       150 -11.6206     42.6954     29.0791   5.0137376662e+01   6.7427455051e+01    0.2134823    0.1715974  37.78 0.0005084693    1.270    0.213
       151 -13.4128     92.0678    229.8408   7.8736252509e+01   1.4560976519e+01     0.557963    0.4728157  28.50  0.003558465    1.034    0.033
       152 -13.6044     64.1120    214.2982   8.3824045282e+01   2.1251964413e+01    0.6159752    0.4461337  61.06  0.003141217    1.402    0.287
       153 -12.2970    139.6517     21.4845   1.8895514110e+01   4.6847657811e+01    0.6531016    0.2492954  64.73  0.001103852    2.280    0.561
       154 -10.7449    113.2061     32.1806   2.7295795334e+01   5.2023534243e+01    0.1874351    0.1555367 -76.98 0.0003296482    1.334    0.250
       155 -12.5701     59.4069    212.7659   8.4841048701e+01   2.2143602134e+01    0.3381739    0.2126886 -52.87  0.001192227    1.786    0.440
       156 -10.6558    249.0202    225.0000   4.6554196868e+01  -4.1373729344e+00    0.1585482   0.05452885  30.21 0.0008067971    2.973    0.664
       157 -13.2068     57.6498     26.8226   4.2157435001e+01   6.5076472825e+01     1.109145    0.3618797  45.53  0.004047753    2.764    0.638
       158  -9.9123     87.7228     27.7508   3.2046115164e+01   5.8561982293e+01    0.1327224   0.09480816  32.04  0.000288436    1.455    0.313
       159 -11.1157     40.0000     24.9322   4.9507659100e+01   6.8519517435e+01    0.2341519    0.1792326 -27.32  0.001392641    1.315    0.240
       160 -11.6685     30.5459     25.4724   5.4968428019e+01   6.9884096227e+01    0.3905717     0.239698  16.43  0.001946076    1.690    0.408
       161 -12.3758     35.3820     23.4487   5.1233342442e+01   6.9486546019e+01    0.2886445    0.2483865  15.00 0.0008074163    1.070    0.065
       162 -10.7001      5.8274    219.1444   9.8109617182e+01   2.6105275553e+01     0.193113    0.1315136  58.11 0.0007811645    1.221    0.181
       163 -13.0455     65.4591    223.1036   8.4348763666e+01   1.9217875870e+01     0.848857    0.6272321  29.58  0.005043012    1.222    0.182
       164 -11.7662    224.1657     20.8356   1.0147516368e+01   2.8212437969e+01    0.2238701    0.1729228  71.66 0.0009656792    1.431    0.301
       165 -11.0366     50.8990     20.3544   4.1942219887e+01   6.7254586230e+01    0.4086465    0.1960445  56.43  0.001718541    2.741    0.635
       166 -11.2220     45.9381     20.5272   4.4324418181e+01   6.8143366008e+01    0.3149788    0.2160276  10.93   0.00101028    1.597    0.374
       167 -11.4705     71.1459     16.4902   3.2248260220e+01   6.3591959663e+01    0.2512071    0.2214794  49.02 0.0007035352    1.084    0.078
       168 -11.1302    156.5259    214.5238   6.1974430737e+01   8.6628658998e+00    0.1320034    0.1116337   6.74 0.0001261769    1.009    0.009
       169 -12.2928      4.6688    211.8676   9.8053332877e+01   2.7772213575e+01      0.48387    0.2167271 -66.17  0.002460453    2.282    0.562
       170 -12.1555     72.4552    207.1073   8.0973486806e+01   2.1798552995e+01    0.3402913    0.2597148 -83.83  0.001917408    1.478    0.323
       171 -10.4659    149.3406    206.7020   6.2308130530e+01   1.1101105640e+01    0.1285721    0.1024565  55.78  0.000486969    1.664    0.399
       172 -11.9142     57.6194    203.6116   8.4390373803e+01   2.4393005779e+01    0.5273882    0.2853145  83.82   0.00232022    2.507    0.601
       173 -12.9395     15.9503    198.1807   9.4597632368e+01   2.9912174045e+01    0.9585846    0.2166447 -59.29  0.003361184    4.221    0.763
       174 -13.3242     29.9407    169.3161   8.8546136568e+01   3.5623959538e+01      1.15304    0.8245233  14.13  0.005512587    1.572    0.364
       175 -15.0681      8.5694    183.0916   9.5574496744e+01   3.4071161427e+01     1.425662     1.212387 -73.36  0.009195998    1.196    0.164
       176 -15.0414     15.2971    174.7406   9.3184440520e+01   3.5567224937e+01     2.238611    0.9532669  53.34  0.009722907    2.332    0.571
       177 -13.1576     39.9251    195.3822   8.8208961079e+01   2.8270307911e+01    0.7711781     0.397467  46.21  0.003711485    1.771    0.435
       178 -11.6983    201.1260    191.3492   4.9028351149e+01   6.3648696277e+00    0.2872806    0.2151931  18.34  0.001451279    1.282    0.220
       179 -10.5293     81.0322    193.0000   7.7029647245e+01   2.3850541538e+01    0.2352306   0.07454065  29.48 0.0008013959    2.935    0.659
       180 -11.1090    198.7590    181.6180   4.7698983420e+01   8.3106283949e+00    0.2182708    0.1636781  38.03  0.001287443    1.511    0.338
       181 -12.5921    216.8863     28.5765   1.2335606776e+01   2.8776412890e+01     0.322867    0.1891649 -48.79  0.001824856    1.416    0.294
