#   1 NUMBER                 Running object number                                     
#   2 MAG_AUTO               Kron-like elliptical aperture magnitude                    [mag]
#   3 X_IMAGE                Object position along x                                    [pixel]
#   4 Y_IMAGE                Object position along y                                    [pixel]
#   5 X_WORLD                Barycenter position along world x axis                     [deg]
#   6 Y_WORLD                Barycenter position along world y axis                     [deg]
#   7 A_WORLD                Profile RMS along major axis (world units)                 [deg]
#   8 B_WORLD                Profile RMS along minor axis (world units)                 [deg]
#   9 THETA_WORLD            Position angle (CCW/world-x)                               [deg]
#  10 FWHM_WORLD             FWHM assuming a gaussian core                              [deg]
#  11 ELONGATION             A_IMAGE/B_IMAGE                                           
#  12 ELLIPTICITY            1 - B_IMAGE/A_IMAGE                                       
         1 -14.3237    200.6441     17.1400   6.5752311883e+01   3.3209486568e+01     2.466707     1.509636  33.53   0.01041224    2.419    0.587
         2 -13.7232    205.5941     10.1083   6.3463448431e+01   3.2778144423e+01     1.286156    0.7104513  48.77  0.001354838    2.038    0.509
         3 -13.1800      2.2672     13.4632   1.1846039182e+02   7.0468806709e+01     1.009301    0.4275599 -46.90  0.006095226    2.014    0.503
         4 -13.5900      2.3099      4.7795   1.1491781658e+02   7.1693512022e+01     1.693622    0.8453052 -39.16   0.01148839    1.607    0.378
         5 -10.4391    222.8058    244.4063   1.1324811495e+02  -9.2373906081e+00    0.1817421     0.095387  30.69 0.0004966933    1.718    0.418
         6  -9.9798    204.8300    250.3879   1.1745490288e+02  -7.1258808599e+00    0.1793235   0.09536314  32.94 0.0006642583    1.657    0.396
         7  -9.6078    183.8362    250.2561   1.2128300353e+02  -3.6068004077e+00     0.167704    0.1311501  19.06 0.0005939335    1.340    0.254
         8 -10.5475    152.6332    243.7743   1.2618561671e+02   2.7594219817e+00    0.2024833    0.1620974 -71.51  0.001269273    1.513    0.339
         9 -11.1692    150.0719    248.4972   1.2729734406e+02   2.4310744434e+00    0.4379048     0.273839  51.98  0.002502124    1.377    0.274
        10 -10.7881    143.5095    249.3019   1.2861764873e+02   3.4180737505e+00    0.3568824    0.2357287  71.18  0.001605603    1.823    0.451
        11 -11.1859    143.9789    244.6123   1.2792314582e+02   4.1128807232e+00    0.5039256    0.1447518  46.54  0.001930547    2.905    0.656
        12 -10.1868    135.5693    250.5490   1.3023621671e+02   4.5525113005e+00    0.2377406    0.1859298 -65.37 0.0005117828    1.504    0.335
        13 -10.9806    132.3293    249.0624   1.3064966462e+02   5.3430563366e+00    0.3358026    0.2045856  63.42  0.001405649    1.689    0.408
        14 -10.4238    122.6651    250.0666   1.3253758399e+02   6.7767279614e+00    0.3982277    0.1994242  58.45  0.002005077    1.955    0.489
        15  -9.5968    108.6621    242.4571   1.3423154952e+02   1.0393557642e+01    0.2204636    0.1210797 -63.12  0.001196873    2.028    0.507
        16 -10.1572    126.5195    248.6539   1.3166753644e+02   6.3806680615e+00    0.3295593    0.2106952  70.73  0.001722018    1.730    0.422
        17 -10.5692    121.4879    244.9653   1.3215587889e+02   7.8510337134e+00    0.3795185    0.1494902  52.22  0.001235192    2.280    0.561
        18 -11.9003    126.3120    240.8188   1.3075402863e+02   7.7739118256e+00    0.4393339    0.3685277 -68.40  0.001901231    1.353    0.261
        19 -10.6235    115.5035    250.2630   1.3385906073e+02   7.9110613447e+00    0.5162745     0.214247  43.77  0.002503076    2.011    0.503
        20 -11.3805    110.0204    247.6488   1.3456166988e+02   9.2497963194e+00    0.5665579    0.3289974  32.89  0.002979376    2.144    0.533
        21 -11.2944     99.0682    247.5794   1.3652706882e+02   1.0993384431e+01    0.5475549     0.307511  59.30  0.002908654    1.538    0.350
        22 -10.8756    103.5138    237.9865   1.3468003598e+02   1.2038128783e+01     0.411615    0.2964631  47.69  0.002552453    1.264    0.209
        23 -12.0277    110.1127    230.2330   1.3252541094e+02   1.2421732722e+01    0.7902282    0.3367726  46.43  0.002994421    1.998    0.500
        24 -11.0879     98.6010    231.2904   1.3484187607e+02   1.4083719308e+01    0.3666418    0.2963573 -55.53 0.0008393818    1.541    0.351
        25  -9.7295     93.9401    217.4783   1.3411949154e+02   1.7551162729e+01    0.2833813    0.1735798 -82.40  0.001492586    1.769    0.435
        26 -10.6386     92.6744    226.0782   1.3537381116e+02   1.6030127038e+01    0.2746975    0.1684885  61.12 0.0004107502    1.452    0.311
        27 -12.0287     98.5741    223.5885   1.3394819850e+02   1.5588009246e+01     0.511681    0.3027737  40.50  0.001259262    1.687    0.407
        28 -10.3141     87.5326    250.6566   1.3887068299e+02   1.2203600951e+01     0.490327     0.175142  39.45  0.001817496    2.828    0.646
        29 -10.5660     88.4837    247.1533   1.3836633718e+02   1.2690574094e+01    0.2873258    0.1483765  42.56  0.001474324    1.786    0.440
        30 -10.6650     80.9097    246.0208   1.3959073644e+02   1.4022156885e+01    0.5430192    0.2568335 -89.91  0.002512346    2.988    0.665
        31 -10.9256     83.7846    242.2297   1.3871967499e+02   1.4296325029e+01     0.406683     0.232872  41.95  0.002334665    1.699    0.411
        32 -11.4548     89.9790    236.1507   1.3698139679e+02   1.4501546747e+01    0.4204709    0.2328222 -72.82  0.002313359    1.911    0.477
        33  -9.9385     83.2873    238.3692   1.3842805826e+02   1.5092721645e+01    0.3192579    0.1353806  43.40  0.001582397    2.092    0.522
        34  -9.9523     86.2296    236.9836   1.3775416468e+02   1.4913576070e+01    0.2574226     0.152428  87.10  0.001421098    1.831    0.454
        35  -8.8163     74.6753    250.5956   1.4108382563e+02   1.4092991378e+01    0.2186879   0.09896442  40.80  0.001145985    2.152    0.535
        36 -11.4431     55.3921    196.5067   1.3939805976e+02   2.7576826564e+01    0.9134402    0.4764307 -64.89  0.004879122    1.753    0.430
        37 -14.7319     17.0999    168.7785   1.4440173512e+02   3.7935515776e+01     2.366364      1.20704 -58.10     0.013443    1.856    0.461
        38 -12.9644     46.2605    248.6346   1.4566912541e+02   1.8277425664e+01     1.439252    0.4727162  38.97   0.00682159    3.201    0.688
        39 -11.8734     42.8656    237.6752   1.4542600992e+02   2.0748888436e+01    0.3694607    0.2506308 -87.42  0.002576695    1.247    0.198
        40 -12.8924      8.2785    196.5980   1.4842940672e+02   3.2772381962e+01    0.8806937    0.4333671 -85.96 0.0005976183    1.617    0.382
        41 -13.1439     44.5283    228.4682   1.4442664658e+02   2.2324683364e+01    0.4917608    0.3930324  76.13 0.0008672921    1.136    0.119
        42 -14.4385     51.9933    217.1516   1.4211317225e+02   2.3651939945e+01     1.633726     1.171736  66.43   0.01083404    1.152    0.132
        43 -14.5467     29.7054    246.3073   1.4816724512e+02   2.0715284134e+01     2.194925     1.007633  37.63   0.01269268    2.530    0.605
        44 -14.1873      9.3251    207.7978   1.4902227062e+02   3.0372970731e+01     1.384738    0.9554557 -76.75   0.01006361    1.305    0.234
        45 -13.3703     13.1673    238.3014   1.5028199205e+02   2.4035017018e+01    0.6330255    0.2801365  63.58  0.003895074    1.803    0.445
        46 -10.3731    103.5772    244.8757   1.3542801821e+02   1.0770182790e+01    0.4318004    0.2048435  73.58  0.001725469    3.647    0.726
        47 -10.5118    165.5502    241.7852   1.2346873903e+02   8.3412093266e-01    0.3027814     0.180563  30.92 0.0006830642    1.769    0.435
        48 -12.2858    135.9189    228.7610   1.2732817221e+02   8.2894470715e+00    0.6940103    0.3860003 -44.73  0.003439374    2.267    0.559
        49 -11.7172    132.7807    224.3874   1.2733581817e+02   9.6531124492e+00    0.4641667    0.3274151  74.38  0.001795359    1.584    0.369
        50 -11.4482    135.8033    240.9753   1.2898660736e+02   6.1336255687e+00     0.284532    0.2672781  54.98  0.001561499    1.183    0.154
        51 -11.2441    134.9869    237.0372   1.2862717962e+02   6.9628360224e+00    0.3626268    0.2495337  42.14 0.0009516791    1.311    0.237
        52 -10.6699    173.1912    239.9486   1.2175250140e+02  -2.1069792121e-01    0.2619752    0.2062685 -58.88 0.0008461621    1.580    0.367
        53 -10.9985    145.6791    240.8487   1.2710203404e+02   4.4528211799e+00    0.2902187    0.1563516  50.95 0.0009597742    1.618    0.382
        54 -10.6012    115.8868    239.7855   1.3258219144e+02   9.6977409444e+00    0.2208007    0.1901236  72.79 0.0007414932    1.098    0.089
        55 -11.3118     96.8566    239.7969   1.3610691499e+02   1.2754577273e+01    0.2930685    0.1924107 -56.24  0.001202344    1.823    0.451
        56 -10.3722    165.8784    235.6242   1.2250362499e+02   1.7776675364e+00    0.2637204    0.2219327 -59.90  0.001541415    1.417    0.295
        57 -10.3266    161.9429    232.9367   1.2286177890e+02   2.9269359322e+00    0.2471631    0.1734832  55.28 0.0008866822    1.360    0.265
        58 -11.0836    129.4780    234.6263   1.2936487565e+02   8.3416681110e+00    0.3754009    0.2448977 -86.73  0.001976888    2.021    0.505
        59  -9.7645     69.6534    234.8571   1.4054076562e+02   1.7740342931e+01    0.3809963    0.1929995  35.50  0.001963348    2.403    0.584
        60 -10.9024    122.2773    232.7630   1.3050623577e+02   9.9110857831e+00    0.3304027    0.2955985 -52.92  0.001211151    1.393    0.282
        61  -9.7691     77.6073    232.7411   1.3889918637e+02   1.7006790369e+01    0.3930075    0.1899158  86.65  0.001769376    2.863    0.651
        62 -11.0171    156.7101    231.7234   1.2369645468e+02   4.0690339713e+00    0.2368751    0.2250788  58.84 0.0005456376    1.120    0.107
        63 -10.8369    141.7043    230.7806   1.2648065947e+02   6.9039172393e+00    0.3225892    0.2416761 -22.67  0.000960269    2.088    0.521
        64  -8.9069     92.4411    232.5110   1.3613499254e+02   1.4816143110e+01    0.1246532    0.1014929  69.22 7.703001e-05    1.033    0.032
        65 -10.3080    180.0357    228.5512   1.1867686421e+02   4.0797250939e-01    0.2932514    0.2217369  84.06  0.001295429    1.978    0.495
        66 -10.7952    165.3658    227.0449   1.2129847350e+02   3.3148323924e+00     0.547043    0.2904959 -64.41  0.002335967    3.068    0.674
        67 -10.4518    160.7846    223.6615   1.2167478432e+02   4.7392749167e+00     0.275223    0.2328573  30.04 0.0005337085    1.212    0.175
        68  -9.2373    164.3344    220.9765   1.2054657872e+02   4.5630781108e+00    0.2418016    0.1287474 -34.87   0.00106218    2.608    0.617
        69 -10.3826     84.4217    229.8110   1.3734091197e+02   1.6564926031e+01    0.2477582    0.2135182  23.53  0.001087209    1.737    0.424
        70 -10.4662     79.8323    228.4597   1.3805412860e+02   1.7514875465e+01    0.3979071    0.3186928 -41.39  0.002465886    1.952    0.488
        71 -10.0325     78.9576    224.5436   1.3780801188e+02   1.8419982318e+01    0.2324523    0.1887168  16.39 0.0008746518    2.066    0.516
        72 -10.8301     77.7761    221.0754   1.3766266834e+02   1.9291001047e+01    0.2649241    0.1857768  74.57 0.0004207883    1.245    0.197
        73  -9.1851    150.4953    229.5368   1.2458693238e+02   5.5621405386e+00    0.2521257     0.103151  51.48   0.00103116    2.394    0.582
        74 -11.8342    244.6048    240.7885   1.0876989456e+02  -1.2155477225e+01    0.2616771    0.1810545 -15.68   0.00134543    1.439    0.305
        75  -9.2001    198.1892    228.1264   1.1511770552e+02  -2.7646742352e+00    0.1695857    0.1547745  71.24  0.001077134    1.368    0.269
        76 -10.1172    190.8291    228.1160   1.1652393013e+02  -1.4568891993e+00    0.1850241     0.160828  48.62   0.00029205    1.167    0.143
        77  -8.3915     71.2808    228.2939   1.3961834016e+02   1.8789110223e+01    0.1006361   0.09455737 -60.72 0.0003136772    1.534    0.348
        78 -10.5280    149.6497    222.7645   1.2374847891e+02   6.9305071393e+00     0.316949    0.2528148  -1.73  0.001447994    1.837    0.456
        79 -10.8920    117.3401    224.3541   1.3037834143e+02   1.2336360655e+01    0.2325904    0.2040918  67.43 0.0002954689    1.064    0.060
        80  -8.8688     73.4537    225.4763   1.3893553378e+02   1.9036680571e+01    0.1259891   0.09619482  73.58 0.0001928597    1.045    0.043
        81  -8.9948    219.8236    223.5617   1.1025522273e+02  -5.8353204709e+00    0.1642858    0.1129272  46.48 0.0009149288    1.497    0.332
        82 -11.8836    142.0986    221.4753   1.2506223186e+02   8.5356301960e+00    0.3698603    0.3329804  61.27  0.002320778    1.047    0.045
        83 -11.2932    137.9005    214.2474   1.2482751838e+02   1.0671221015e+01    0.5971143    0.3169472  36.80  0.001301759    1.944    0.486
        84 -10.4105    105.1841    219.1855   1.3210977086e+02   1.5388937711e+01    0.3224282    0.1953685  75.66 0.0004191403    1.928    0.481
        85 -11.1590     70.5455    219.1741   1.3883651524e+02   2.0723496217e+01    0.4977763    0.2997761 -72.00   0.00223245    1.580    0.367
        86  -9.4514     89.0990    219.3951   1.3529463387e+02   1.7920663405e+01    0.3156337    0.1411269 -46.68  0.001303057    3.499    0.714
        87  -8.8999    155.6991    223.3471   1.2263449734e+02   5.7238608727e+00    0.2188441    0.1199423  46.86  0.000522186    1.598    0.374
        88 -10.3911    245.9995    218.9890   1.0467517162e+02  -9.5020934508e+00    0.2096585    0.1355925   4.62  0.001144749    1.719    0.418
        89 -10.5853    110.3236    221.9654   1.3144958557e+02   1.3984548275e+01    0.3128904    0.2523996 -52.37    0.0011542    1.504    0.335
        90  -9.0127    175.6988    216.3276   1.1751926852e+02   3.2751387434e+00    0.1330901     0.103895  75.38 0.0003344868    1.641    0.391
        91  -9.5159    101.1723    216.1416   1.3252034514e+02   1.6660093391e+01    0.1942936    0.1611222  72.19 0.0003052097    1.021    0.020
        92  -9.8473    102.0177    211.9815   1.3181465756e+02   1.7372022212e+01    0.3741404    0.1875177  60.72  0.001680385    2.159    0.537
        93 -10.3341     88.3103    213.0766   1.3470257503e+02   1.9336696951e+01    0.2716357    0.1946281 -82.00 0.0006306135    1.335    0.251
        94  -9.1155    152.3029    211.9905   1.2153112093e+02   8.4466194943e+00    0.1814988    0.1724338  67.43 0.0003996255    1.079    0.074
        95  -9.1423    131.4532    212.1832   1.2583536235e+02   1.2243024344e+01    0.1753598    0.1259496 -78.86 0.0003871564    1.611    0.379
        96  -9.6087     68.4560    211.4988   1.3842899476e+02   2.2604757551e+01     0.213991    0.1764172  89.31 0.0006887972    1.107    0.097
        97 -10.4519     72.6955    210.1024   1.3744713709e+02   2.2294021340e+01    0.3802764    0.2284543  60.63 0.0008793631    1.508    0.337
        98  -9.5444     33.4297    211.4478   1.4501729039e+02   2.7083548191e+01     0.160225    0.1475657  73.33 0.0005540196    1.413    0.292
        99  -9.9559    135.5206    208.1158   1.2437558192e+02   1.2311556305e+01    0.2842987    0.2496738  10.43  0.001433447    1.485    0.327
       100  -9.6248    108.7977    207.8695   1.2987531448e+02   1.7089765610e+01    0.2392201    0.1533575 -64.90  0.001215267    1.611    0.379
       101  -8.6141    197.7244    207.9874   1.1168469879e+02   5.9491296765e-01    0.1522846    0.1204321 -36.29 0.0003012715    1.364    0.267
       102 -11.5141     92.6324    204.9363   1.3281030174e+02   2.0364952550e+01    0.6393155     0.350773  49.32  0.001598346    1.661    0.398
       103 -11.6970    247.3513    205.4179   1.0189719601e+02  -7.7864259807e+00    0.4491492    0.2968225  17.99  0.002482891    1.559    0.359
       104 -10.6170    174.8296    205.9932   1.1591154412e+02   5.2933090356e+00    0.2974437     0.227341 -20.55  0.001565372    1.646    0.393
       105  -9.5030    125.9276    205.7377   1.2600761329e+02   1.4534313011e+01    0.1971133    0.1608638  58.03 0.0004995574    1.094    0.086
       106  -8.9145    114.4222    206.5238   1.2852115426e+02   1.6404594534e+01    0.3315755    0.1712924 -79.61  0.001281498    3.149    0.682
       107 -10.9804    115.2488    200.2854   1.2743192036e+02   1.7565729218e+01    0.2930861    0.2394915 -45.73 0.0002126881    1.474    0.322
       108 -10.4098    120.0125    199.1214   1.2624299053e+02   1.6968453232e+01    0.4488138    0.2517664  67.03  0.001601701    2.299    0.565
       109  -9.5378    149.4616    204.4762   1.2088653229e+02   1.0432270309e+01    0.2805188    0.2064524 -25.85   0.00140566    1.902    0.474
       110  -9.5570    102.6883    195.7106   1.2943118131e+02   2.0702561138e+01    0.2085622    0.1316693 -57.71 0.0004226541    1.621    0.383
       111 -10.5850    102.5125    202.6034   1.3044826181e+02   1.9251967933e+01    0.4428067     0.258358  60.72    0.0013442    1.725    0.420
       112 -10.3776     98.6038    197.0159   1.3048884735e+02   2.1098209093e+01    0.5126387    0.2659111  53.02  0.002288488    1.845    0.458
       113 -10.1621     37.4880    202.9445   1.4353406508e+02   2.8391299590e+01    0.2697948    0.1654552 -80.21 0.0009720377    1.358    0.264
       114  -9.5017    166.9519    203.2290   1.1703970045e+02   7.3240501985e+00    0.1950944    0.1635268  45.84 0.0003061255    1.089    0.081
       115 -10.6298    169.7052    200.2012   1.1593209485e+02   7.3648862621e+00    0.2516387    0.2246478  34.33 0.0003206575    1.090    0.082
       116  -9.6444    133.0868    202.8500   1.2405681389e+02   1.3821183481e+01    0.2088756    0.1729629  74.36 0.0003581146    1.193    0.162
       117  -9.3333     76.3160    203.1681   1.3592404958e+02   2.3240367256e+01    0.2914358    0.1783824  38.57  0.001563356    1.779    0.438
       118  -9.7116    138.0852    201.8007   1.2283400804e+02   1.3107849267e+01      0.20675    0.1716969  69.68  0.000431385    1.178    0.151
       119  -9.9609     64.1973    202.0813   1.3824155272e+02   2.5195412582e+01    0.2565082    0.1796439  31.90 0.0007542578    1.854    0.461
       120 -10.3812    196.8386    200.5161   1.1047516351e+02   2.0538880117e+00    0.3512674    0.2169175  47.37    0.0017085    1.574    0.365
       121 -10.1722     44.1347    199.3590   1.4192160556e+02   2.8368498056e+01      0.27517    0.2026607  52.83 0.0009701929    1.353    0.261
       122  -8.8673    158.5417    199.5092   1.1813671569e+02   9.6672281116e+00    0.1415105    0.1299975  52.50 8.471582e-05    1.004    0.004
       123  -9.2766     86.2792    199.2733   1.3338896213e+02   2.2577498071e+01    0.1901022    0.1643549 -78.63 0.0001793076    1.161    0.139
       124  -9.8003     85.9767    195.9880   1.3302082933e+02   2.3339481738e+01    0.2008527    0.1682028  80.58 0.0003232867    1.015    0.015
       125  -8.6032    149.7110    198.7296   1.1986210479e+02   1.1525301404e+01    0.1313554    0.1110522   9.91 0.0001958745    1.507    0.336
       126 -10.0342    134.0620    197.9165   1.2305373893e+02   1.4655074738e+01     0.211714    0.1863259  70.62 0.0003330901    1.062    0.059
       127 -11.8955     69.3050    194.8103   1.3635946582e+02   2.6065588263e+01    0.4586712    0.3744549 -18.87   0.00264284    2.121    0.529
       128 -10.0550     77.3162    188.7302   1.3390080814e+02   2.6255057568e+01    0.2062069    0.1547077 -76.12 0.0002592951    1.211    0.174
       129 -11.9447     73.7102    187.5800   1.3452313579e+02   2.7039448620e+01    0.3489937    0.2595729 -59.56 0.0008727726    1.395    0.283
       130 -10.4395    112.7854    194.0224   1.2700733233e+02   1.9335855602e+01    0.4430045    0.2782859 -68.80   0.00213535    1.688    0.408
       131  -9.2850    107.3342    196.0470   1.2848611239e+02   1.9842580573e+01    0.1932532    0.1622219 -83.21 0.0006627628    1.138    0.121
       132  -9.9523    159.6102    194.1404   1.1695516703e+02   1.0519239518e+01    0.2930401    0.2231176  79.62 0.0008482405    1.639    0.390
       133 -10.7141     38.7901    192.4154   1.4229344588e+02   3.0498948307e+01    0.2920636    0.1742309 -63.05 3.852046e-05    1.604    0.376
       134  -9.1555     42.2274    189.2194   1.4128464464e+02   3.0797249288e+01    0.1684813     0.114614  75.10 0.0007061497    1.295    0.228
       135  -9.1084     30.7278    194.9505   1.4410600719e+02   3.0856096658e+01    0.1640766    0.1219574  85.73 0.0003842642    1.027    0.027
       136 -10.5406    248.7135    193.7625   9.9393591106e+01  -6.2687502544e+00    0.3296142    0.1795922  21.52  0.001490255    2.352    0.575
       137 -11.3899    249.7576    187.7901   9.8022759673e+01  -5.5251868600e+00    0.4152603    0.2714646 -23.71  0.002230468    1.490    0.329
       138 -10.7338    120.5576    192.7598   1.2512528497e+02   1.8224626878e+01    0.3598301    0.2956878 -47.52 0.0009580696    1.394    0.283
       139  -9.2169     82.0310    194.2740   1.3362743877e+02   2.4320275508e+01    0.1763326    0.1452162  63.48 0.0002181927    1.124    0.110
       140  -9.0514     84.7142    192.3356   1.3279994081e+02   2.4337451821e+01    0.1947509    0.1649905  21.95 0.0003630825    1.642    0.391
       141 -10.4086     25.9498    192.8496   1.4483851972e+02   3.1818141590e+01    0.2555887    0.1447184 -89.51 0.0009502437    1.491    0.329
       142  -9.7388    172.8809    192.4046   1.1383885166e+02   8.2366331565e+00    0.2681288    0.1882578  -3.97  0.001180288    2.288    0.563
       143  -9.4586     47.5257    192.8422   1.4059194006e+02   2.9367861578e+01    0.1754003    0.1025122 -70.57 0.0009885601    1.493    0.330
       144 -15.0491      5.5281    242.2983   1.5167208879e+02   2.4087222674e+01     2.101258     0.724424 -79.23   0.00682279    2.393    0.582
       145 -10.2551    191.4698    191.4542   1.0982248534e+02   4.7289275257e+00    0.2695308     0.234828   8.29 0.0005839975    1.217    0.178
       146  -9.4995    135.2203    190.0424   1.2148043453e+02   1.6087341962e+01    0.2143785    0.1781081  78.97 0.0004970587    1.236    0.191
       147 -10.4724     31.5284    189.8772   1.4348453709e+02   3.1863130491e+01    0.3435916    0.2307883  47.82  0.001618245    1.538    0.350
       148 -11.3814     27.8837    183.8661   1.4364143919e+02   3.3561128621e+01    0.3878677    0.3666143  73.42  0.002929132    1.376    0.273
       149  -9.6315    175.9614    187.0140   1.1216535223e+02   8.6690648561e+00    0.1686991    0.1664846  37.40 0.0003672593    1.046    0.044
       150  -9.2798     67.7783    186.7330   1.3568378385e+02   2.8071497886e+01    0.1766354    0.1605816  38.21 0.0005555661    1.403    0.287
       151  -8.6200     45.3000    187.3102   1.4045876271e+02   3.0853441195e+01    0.1137537   0.08863311 -51.71 0.0003120231    1.602    0.376
       152 -11.1738    141.0743    183.7043   1.1907371053e+02   1.6309438402e+01    0.4775022    0.2567098  60.85  0.001138102    2.349    0.574
       153  -9.6720     36.7794    184.1563   1.4187172599e+02   3.2536394040e+01    0.2444584     0.158079  42.49 0.0006890943    1.677    0.404
       154 -10.4912     54.4043    182.0147   1.3795771385e+02   3.0911903712e+01    0.2204173    0.1965151  37.96 0.0004701317    1.437    0.304
       155 -12.2717    248.1073    172.1605   9.5118158850e+01  -2.7338964965e+00    0.6508006    0.4873312  -0.53  0.003558694    1.461    0.316
       156 -13.7816    245.1219    158.2720   9.2698299541e+01   1.4844161985e-01     2.720002     1.006955 -44.90   0.01006337    2.814    0.645
       157 -12.9097    248.4998    114.1811   8.2368162959e+01   7.1636883792e+00       1.4684    0.9282325 -21.37  0.006706737    1.963    0.491
       158 -12.5625    248.4912    134.0176   8.6821171103e+01   3.6998364578e+00     1.189404    0.6500444 -35.53  0.005423503    1.692    0.409
       159  -9.6237     86.1523    183.5030   1.3125516949e+02   2.6087830638e+01    0.3433007    0.2060777  31.12  0.001021142    2.118    0.528
       160  -9.2793    104.0897    180.6876   1.2682419877e+02   2.3789065021e+01    0.1868043    0.1642266  63.22 0.0003077302    1.090    0.083
       161 -12.5981    248.5759    101.3567   7.9447690822e+01   9.3642618511e+00    0.9768217    0.4863977 -37.04  0.004250328    1.854    0.461
       162  -9.3741    176.1199    179.8213   1.1071674750e+02   1.0056620064e+01    0.1985623    0.1728315   5.00 0.0003480021    1.316    0.240
       163  -9.2588    170.0898    180.1043   1.1205926990e+02   1.1235952986e+01    0.2075453    0.1918331  12.69            0    1.171    0.146
       164  -8.6737     81.6785    184.2763   1.3234881847e+02   2.6600971788e+01    0.1386331   0.09128781  72.48 0.0002621088    1.578    0.366
       165 -10.2507    129.4674    179.9111   1.2097522863e+02   1.9366428263e+01    0.4704483    0.2190528  56.95  0.001736397    2.623    0.619
       166  -9.1411     48.0772    179.7391   1.3903754682e+02   3.2207241737e+01    0.1644891    0.1356888  63.17 0.0005293703    1.211    0.174
       167 -11.5066     83.1621    175.6902   1.3077541186e+02   2.8328066504e+01    0.3707385    0.3445157 -53.77  0.001174089    1.289    0.224
       168  -9.0721    179.2861    174.6989   1.0900661248e+02   1.0426166377e+01    0.2014618    0.1248964 -44.16 0.0001754501    1.672    0.402
       169  -9.5378    114.9717    176.4984   1.2365698485e+02   2.2816403128e+01    0.2750092    0.1903182 -78.72 0.0007463733    1.623    0.384
       170  -8.9584    109.3292    176.9686   1.2502410061e+02   2.3717865657e+01    0.2398592    0.1145098 -77.95 0.0007041194    4.520    0.779
       171 -11.8394     69.0713    174.3548   1.3376114793e+02   3.0699368390e+01    0.4896921    0.3067105 -48.51  0.002524959    1.840    0.457
       172 -10.3232     76.3863    175.1885   1.3223324553e+02   2.9459742465e+01    0.4281027    0.2134872  61.89  0.001435978    2.444    0.591
       173 -10.8431     68.9879    166.9303   1.3272140368e+02   3.2425598007e+01    0.2919523    0.1993517 -56.51 0.0003084043    1.435    0.303
       174 -10.3707     80.8693    163.7274   1.2945145636e+02   3.1448163901e+01    0.2562079    0.2113596  47.68   0.00147578    1.286    0.223
       175 -10.7884     95.5764    172.8708   1.2749718908e+02   2.7000878160e+01    0.3486775    0.2480557 -81.87  0.001137295    1.447    0.309
       176 -12.6662     88.3118    167.1023   1.2824562142e+02   2.9509658833e+01    0.8600094    0.7323529 -61.82  0.004990894    1.179    0.152
       177 -10.8380     89.9474    160.6539   1.2677735518e+02   3.0753601449e+01    0.3535086    0.2426652 -64.13 0.0006283906    1.360    0.265
       178 -11.0784     28.8648    171.3109   1.4218635954e+02   3.6237985376e+01    0.3665616     0.264533 -73.58   0.00154316    1.164    0.141
       179  -9.2026    154.5842    172.4898   1.1393457413e+02   1.6001605040e+01     0.146929    0.1422515  69.04  8.24412e-05    1.021    0.021
       180  -9.0874    167.0262    170.2671   1.1073614751e+02   1.3891180629e+01     0.204383    0.2001169  55.69  0.001133581    1.018    0.018
       181  -9.1792    100.5547    170.4691   1.2594567456e+02   2.6720369343e+01    0.1433306    0.1270834  87.20 -1.741705e-05    1.021    0.021
       182 -10.7541     43.5831    168.8190   1.3872150706e+02   3.5209502332e+01    0.3513623    0.3139999 -54.99  0.001611289    1.364    0.267
       183  -9.9351     48.0298    168.5105   1.3769743777e+02   3.4761259145e+01    0.2475505    0.1855321  63.97  0.001522138    1.300    0.231
       184  -9.0983    126.6784    168.3070   1.1947323919e+02   2.2482287749e+01    0.1533322    0.1115196  79.09 0.0007033302    1.641    0.391
       185  -9.3968    107.1127    168.3212   1.2404312422e+02   2.6081103505e+01    0.1999577    0.1698958  60.73 0.0004639307    1.138    0.121
       186  -9.0591     58.5147    167.4906   1.3520274826e+02   3.3698614467e+01     0.132535    0.1099006 -86.58 0.0002930112    1.009    0.009
       187  -9.1818    136.4167    165.5031   1.1667032763e+02   2.1207969170e+01    0.1497638    0.1397254  85.13 5.631943e-05    1.031    0.030
       188  -8.8994     53.9526    164.9597   1.3590035331e+02   3.4859446289e+01    0.1585251    0.1244825 -78.24 0.0003662495    1.071    0.067
       189 -10.6562     47.0878    163.1714   1.3722936098e+02   3.6097965808e+01    0.2748601    0.1814196  55.70            0    1.550    0.355
       190  -9.2032     36.9583    162.5323   1.3943635246e+02   3.7377230910e+01    0.1618026    0.1177397  45.12 0.0005316419    1.520    0.342
       191 -12.4119     14.4645    154.1664   1.4349833479e+02   4.1414616280e+01    0.4433422     0.304699 -79.25  0.002834731    1.117    0.105
       192 -12.4835     20.1966    146.5147   1.4134805760e+02   4.2644628196e+01    0.5434237    0.2290351 -44.03  0.002423078    3.220    0.689
       193 -10.0772     33.1541    153.8427   1.3923751477e+02   3.9759457099e+01    0.2111322     0.168295 -77.65 0.0003829756    1.031    0.030
       194 -13.1947     24.0966    156.1220   1.4156913958e+02   4.0120810678e+01    0.8545831    0.4614803  34.24  0.004864723    2.182    0.542
       195 -11.1754     23.9467    149.4900   1.4083289528e+02   4.1636861973e+01    0.2695685     0.191358 -70.23 0.0006367434    1.138    0.121
       196  -9.1847    123.2097    160.6593   1.1881141558e+02   2.4883948572e+01    0.1945692    0.1381871  35.09 0.0002590853    1.560    0.359
       197 -11.1237     95.9669    157.4492   1.2475866326e+02   3.0519909445e+01     0.475377    0.2157497 -59.52 0.0009310387    2.124    0.529
       198  -9.7817     96.5004    152.3107   1.2368209278e+02   3.1637077935e+01    0.2317815    0.2068661  -6.09  0.001274922    1.470    0.320
       199 -10.8062    101.5024    151.0464   1.2220446252e+02   3.1081431204e+01    0.4161857    0.3212978 -69.17  0.001616098    1.253    0.202
       200  -9.8244    104.2427    145.9671   1.2051904175e+02   3.1793905955e+01    0.3289044    0.2480596 -35.07  0.001620222    1.585    0.369
       201  -9.2377    104.4206    142.4516   1.1975718608e+02   3.2586658494e+01    0.2684204    0.1895042 -27.46  0.001080942    1.973    0.493
       202 -11.1356     73.5189    157.8197   1.3025513240e+02   3.3913953003e+01    0.4380669    0.3592924  89.31  0.002526453    1.133    0.117
       203  -9.8806     79.0340    158.9366   1.2911055972e+02   3.2845558379e+01    0.2080848    0.1798206 -85.69 0.0004094354    1.030    0.029
       204  -9.1451     52.4941    158.4857   1.3535093620e+02   3.6538102856e+01    0.1314139    0.1090069 -81.73 0.0004235017    1.003    0.003
       205  -9.7166     47.5872    157.7863   1.3640107934e+02   3.7283186897e+01    0.2100226    0.1742927  52.93 0.0007920073    1.311    0.237
       206 -11.0667    133.5546    142.5872   1.1252429951e+02   2.6968067523e+01    0.9309263    0.2884801 -52.20  0.002787799    3.411    0.707
       207  -9.9504    132.1806    152.2257   1.1495024518e+02   2.5051737477e+01    0.2742804    0.2271996 -74.39 0.0003601638    1.261    0.207
       208 -10.6394      9.1670    155.8419   1.4482568223e+02   4.1477704045e+01    0.1832935     0.124464  85.69 0.0005319421    1.255    0.203
       209  -9.2560    228.3603    155.2514   9.5030881889e+01   3.9620313743e+00    0.2029117    0.1273634 -46.09  0.000522292    1.620    0.383
       210  -8.5263    121.6768    155.7044   1.1819314341e+02   2.6314306558e+01    0.1442341    0.1211401  -9.69 0.0002699585    1.620    0.383
       211 -11.4346    113.9752    150.8439   1.1908633373e+02   2.8890891766e+01    0.3701662    0.3289139 -25.75  0.001031956    1.356    0.262
       212 -11.5632     57.4026    150.5717   1.3301947180e+02   3.7779865610e+01    0.6076095    0.2647744  47.79  0.002689842    2.500    0.600
       213  -9.8837     53.1608    146.3745   1.3341485830e+02   3.9282870330e+01     0.203368    0.1837025  72.17 0.0006667867    1.168    0.144
       214  -8.7068    148.6804    152.6596   1.1114388302e+02   2.1553442843e+01       0.1554    0.1247969  -4.66 -1.818854e-05    1.715    0.417
       215 -10.3972     90.2630    149.9436   1.2478806847e+02   3.3220970844e+01    0.2380436     0.207641  50.57  0.000348512    1.208    0.172
       216 -11.3451     58.8667    133.4841   1.2983456538e+02   4.1605507883e+01    0.3101895    0.1644364 -57.29 0.0008147552    1.615    0.381
       217 -13.1666     67.3705    144.1786   1.2950716509e+02   3.7983730103e+01    0.8296784    0.5596378  88.72  0.004230782    1.685    0.407
       218 -12.2663     74.0530    139.1580   1.2690565661e+02   3.8237335184e+01    0.7329572    0.5342844  77.01  0.002758501    1.574    0.365
       219 -10.7036     35.4582    148.9573   1.3807134644e+02   4.0646771335e+01    0.2218888    0.1724609  58.84 0.0008126309    1.365    0.267
       220 -10.9232     32.2203    145.6856   1.3841041135e+02   4.1722905261e+01    0.2415219     0.134888 -55.48 0.0008771281    1.620    0.383
       221 -11.0634     37.3212    143.8853   1.3693471437e+02   4.1625300971e+01    0.2451882    0.1952761  89.93  0.000260724    1.147    0.128
       222 -13.0174      2.0896    127.3206   1.4340103833e+02   4.8302875458e+01     1.073062    0.2561389 -71.78  0.004250008    3.262    0.693
       223 -11.1563     42.6885    141.2321   1.3523128694e+02   4.1674717725e+01    0.3824707    0.1635689  58.16  0.001227479    3.507    0.715
       224 -11.6910     48.2991    138.2963   1.3336992511e+02   4.1737603464e+01    0.4859556    0.2423937  19.62  0.002131268    3.222    0.690
       225  -9.3707    118.9859    138.5200   1.1523122709e+02   3.0803043925e+01    0.2149929    0.1488943  44.50  0.000405557    1.481    0.325
       226 -11.2317     32.2583    140.5417   1.3770750934e+02   4.2900734571e+01    0.2860334     0.135662 -80.94  0.001317762    2.238    0.553
       227 -10.6966    112.0921    136.2303   1.1647637224e+02   3.2642832580e+01    0.3807451    0.3154641  15.25  0.001242944    1.531    0.347
       228  -9.7309    134.4775    155.5376   1.1509765302e+02   2.3838199896e+01    0.2872237     0.220982 -54.93 0.0007018348    1.295    0.228
       229 -13.0405     46.0886    131.8456   1.3289690674e+02   4.3485463678e+01    0.6563879    0.4629597  62.73  0.003702754    1.614    0.380
       230 -11.1091     33.7364    159.9101   1.3984524028e+02   3.8313779842e+01    0.4200022    0.2838731 -40.42   0.00225094    1.976    0.494
       231  -9.6252    106.7048    128.9044   1.1623744558e+02   3.5335935885e+01    0.4271574     0.223679 -65.57  0.001610064    2.441    0.590
       232 -11.8329     67.9784    128.4798   1.2648761637e+02   4.1593214792e+01    0.4899357    0.3597439  64.16            0    1.574    0.365
       233 -12.2602     31.5125    126.8562   1.3590597233e+02   4.6110376053e+01    0.3400292     0.267112  51.24  0.001713917    1.463    0.317
       234 -12.2987      2.4852    144.9681   1.4521287133e+02   4.4384945992e+01    0.4647875    0.3103572 -89.39    0.0031205    1.242    0.195
       235  -9.4550     85.8733    126.2172   1.2119669724e+02   3.9502645502e+01    0.3310204    0.2112651   3.32  0.001294662    3.174    0.685
       236 -10.4997    209.7873    125.8330   9.1749300343e+01   1.3480739608e+01    0.3072535    0.2553541 -34.81 0.0004986929    1.188    0.158
       237  -9.5247     65.9632    182.0001   1.3547042752e+02   2.9387781366e+01    0.1913152     0.164508 -88.15 0.0003288363    1.072    0.067
       238 -10.0609    117.4512    128.8445   1.1342727983e+02   3.3329096864e+01    0.2776403    0.2007314  -5.96  0.001168236    2.261    0.558
       239 -11.6023     37.9662    122.8467   1.3355455825e+02   4.6409930476e+01    0.4198512    0.1937861 -53.53   0.00172261    1.813    0.448
       240 -12.8561     19.6720    121.5711   1.3821075309e+02   4.8325585095e+01    0.4748029    0.3106695 -32.53  0.002839709    1.913    0.477
       241 -10.7762     55.0907    120.8764   1.2853491123e+02   4.5000254038e+01    0.2575469     0.199595  19.72  0.001497924    1.617    0.382
       242 -12.5024     10.0156    119.2286   1.4039589588e+02   4.9563559398e+01     0.365812    0.3060013  11.59  0.002180742    1.611    0.379
       243  -8.5792    130.6532    119.2417   1.0771660529e+02   3.2835603256e+01    0.1526852    0.1193532  78.01 0.0002462241    1.569    0.363
       244  -8.6970    143.3681    121.6783   1.0515963035e+02   2.9571865676e+01    0.1655378    0.1238018  88.74  0.000703661    1.795    0.443
       245 -11.7938     30.5738    117.7945   1.3471523209e+02   4.8258693376e+01    0.3031946    0.2540071 -82.00  0.001062231    1.151    0.131
       246 -11.6646     15.3601    114.7074   1.3834578522e+02   5.0188058150e+01    0.3231446    0.1695646 -67.06 0.0005041592    1.476    0.323
       247 -11.8915    248.1605    142.2217   8.8689690314e+01   2.3355829284e+00    0.6608068    0.4848032 -29.81  0.003361944    1.283    0.221
       248 -11.4518    168.2379    113.4499   9.7230492069e+01   2.5655737629e+01    0.3944451    0.3246996 -80.16 0.0007242117    1.414    0.293
       249  -8.6279     82.0126    114.2376   1.1960336737e+02   4.2869207527e+01    0.1636034     0.120792  36.79 0.0008453048    1.494    0.331
       250 -10.2360     64.4414    112.8613   1.2428511840e+02   4.5677144431e+01    0.3497333   0.08924516 -49.84  0.001162836    3.315    0.698
       251 -12.9741      8.6045    142.8980   1.4361248592e+02   4.4395713568e+01    0.5119074    0.3349624 -62.95  0.003357772    1.289    0.224
       252  -9.3876    203.5005    111.5307   8.9454970309e+01   1.7686200561e+01    0.1515345    0.1485749 -38.05 9.409783e-05    1.050    0.048
       253 -10.5212     69.9212    111.0704   1.2232412477e+02   4.5350773269e+01    0.1999117    0.1980936 -48.15 -0.001320134    1.120    0.107
       254 -10.3094     54.9944    111.2388   1.2664984303e+02   4.7220624096e+01    0.1875949      0.14399 -21.08 0.0005308024    1.597    0.374
       255 -11.8222     29.1048    107.6332   1.3338408644e+02   5.0672273714e+01    0.5143524    0.3015142  79.77  0.002067939    2.610    0.617
       256 -10.7183     62.5015    107.1307   1.2359503018e+02   4.7227182763e+01    0.2117449    0.1841085  85.08 0.0006229099    1.307    0.235
       257  -9.7689    114.3675    107.0680   1.0886072012e+02   3.8821879338e+01    0.2109255    0.1826577 -52.50 0.0005288253    1.121    0.108
       258 -13.3663     31.1803    227.5704   1.4665496792e+02   2.4101069900e+01     1.543878    0.8364887  55.47  0.009816245    1.543    0.352
       259  -9.8584     32.9852    100.0004   1.3082373972e+02   5.2022059595e+01    0.1553551    0.1183682 -58.00 0.0003628417    1.065    0.061
       260  -9.2536     62.6686     99.6997   1.2184551721e+02   4.8862735426e+01    0.1366685    0.0954734 -27.14 0.0003448794    1.648    0.393
       261  -9.3355     21.8465     98.1607   1.3378303675e+02   5.3350838958e+01    0.1621899    0.1135759 -45.88 0.0002536961    1.269    0.212
       262 -10.1460     46.7497     90.0572   1.2446423059e+02   5.2833520063e+01    0.3140617    0.1605853  24.70  0.001405881    2.385    0.581
       263  -9.2091     23.6009     90.2203   1.3173105446e+02   5.4929896452e+01    0.1875488   0.08311375 -52.89 0.0009601487    1.713    0.416
       264 -10.1486      2.0000     88.9925   1.3808892430e+02   5.6604376372e+01     0.197631   0.04988259 -66.23 0.0008083035    2.983    0.665
       265  -8.9496    123.9873     51.0321   8.9571064533e+01   4.7369395287e+01    0.1674977    0.1563457  -9.51  0.000330556    1.077    0.072
       266  -9.8008    169.0925    249.1292   1.2385001435e+02  -9.2737287791e-01    0.1817327    0.1481902  27.79 0.0004326667    1.232    0.188
       267  -9.7621    199.7604    245.7693   1.1766915189e+02  -5.6475119740e+00    0.1569216    0.1344416  52.62 0.0004163365    1.313    0.238
       268 -12.1104    249.6471    240.5125   1.0784449703e+02  -1.2872256689e+01    0.5408924    0.2562969 -33.54  0.002915307    2.215    0.549
