#   1 NUMBER                 Running object number                                     
#   2 MAG_AUTO               Kron-like elliptical aperture magnitude                    [mag]
#   3 X_IMAGE                Object position along x                                    [pixel]
#   4 Y_IMAGE                Object position along y                                    [pixel]
#   5 X_WORLD                Barycenter position along world x axis                     [deg]
#   6 Y_WORLD                Barycenter position along world y axis                     [deg]
#   7 A_WORLD                Profile RMS along major axis (world units)                 [deg]
#   8 B_WORLD                Profile RMS along minor axis (world units)                 [deg]
#   9 THETA_WORLD            Position angle (CCW/world-x)                               [deg]
#  10 FWHM_WORLD             FWHM assuming a gaussian core                              [deg]
#  11 ELONGATION             A_IMAGE/B_IMAGE                                           
#  12 ELLIPTICITY            1 - B_IMAGE/A_IMAGE                                       
         1 -14.4775    152.3091     57.0287   8.5722905410e+01   3.9761068132e+01     1.344405     1.168893  37.04  0.000954015    1.166    0.142
         2 -14.9291    163.6091     42.1543   7.8690987490e+01   3.9115592227e+01     1.370884     1.071694 -14.96  0.003733088    1.419    0.295
         3 -14.8261    180.5775      8.5903   6.5684802865e+01   3.8661230855e+01     2.053016    0.9473907  63.00    0.0068791    1.909    0.476
         4 -11.0668    133.8118    246.1919   1.2971565141e+02   7.7662920658e+00    0.1463687    0.1199975  51.76 0.0003077286    1.058    0.055
         5 -19.9334     73.7549    170.9761   1.3257791331e+02   3.0996153949e+01     17.30749     6.905519 -66.79   0.07453375    2.488    0.598
         6 -10.9793     21.6845    240.8156   1.4841018910e+02   2.3601610179e+01    0.1274138   0.08503395  81.01 0.0009901697    1.177    0.150
         7 -10.4957     13.8585    238.8396   1.4954905447e+02   2.4746131594e+01    0.1119878   0.05504436 -81.01 0.0007505192    1.808    0.447
         8 -13.2783    154.0026    185.6949   1.1729695471e+02   1.4463073831e+01    0.5490641    0.3767145 -67.33  0.002760149    1.910    0.476
         9 -10.7160    131.3374    237.7399   1.2919704905e+02   9.4443305521e+00    0.1162575    0.1111419 -76.74 0.0002032069    1.286    0.223
        10 -11.2894     36.2671    186.5618   1.4226837612e+02   3.2322912694e+01    0.2549646    0.2091811 -26.31 0.0008764435    2.063    0.515
        11 -12.5454    117.4776    180.7654   1.2427411595e+02   2.2027375562e+01    0.7843794    0.3833724  68.00  0.002564959    4.364    0.771
        12 -10.9032    108.5317    182.5186   1.2648932093e+02   2.3184550291e+01    0.2401352    0.1962316  68.49  0.001419445    1.142    0.124
        13 -12.3210    199.4454    179.2480   1.0697442008e+02   6.9449789410e+00    0.5026901    0.2965657 -59.19  0.002124499    2.900    0.655
        14 -13.4194    195.6817    169.5402   1.0577372834e+02   9.2869822572e+00    0.5464644     0.481292 -52.68 0.0008398048    1.328    0.247
        15 -12.4308    193.5972    164.7502   1.0520179312e+02   1.0522543736e+01    0.3596263    0.3381834  19.83  0.001355161    1.028    0.027
        16 -12.1146      4.6641    178.5817   1.4794554898e+02   3.7024254237e+01    0.2676252    0.2324912  77.50  0.001550035    1.267    0.211
        17 -13.4748    177.5979    171.2531   1.0973688055e+02   1.2556222180e+01    0.5617619    0.4680572 -50.71  0.003128461    1.337    0.252
        18 -12.2922    169.9888    176.5083   1.1231615852e+02   1.3097773995e+01     0.287144    0.2270701  55.38 0.0007354852    1.301    0.232
        19 -14.3393    145.3460    170.0067   1.1632881383e+02   1.9105687445e+01    0.9669601    0.6324404  77.60  0.004162166    2.423    0.587
        20 -11.6580    141.4800    174.4925   1.1798765756e+02   1.8952108647e+01    0.2544701    0.2332659  62.20 0.0007291781    1.045    0.043
        21 -13.2821    137.8961    171.0381   1.1815162155e+02   2.0314500022e+01     0.636525    0.4570317  49.73  0.002006606    1.310    0.237
        22 -12.0066    165.5315    172.1557   1.1241237062e+02   1.4768111217e+01    0.2735285    0.2250462  74.71  0.001466951    1.465    0.317
        23 -11.6984    125.9499    171.8947   1.2094895986e+02   2.2345791222e+01    0.3103002    0.2586357 -75.68  0.001066425    1.267    0.210
        24 -10.3828     30.9578    232.3689   1.4645399256e+02   2.4077709393e+01    0.1776424    0.1091148  79.55  0.001267529    1.301    0.232
        25 -10.7698     34.6631    169.7637   1.4109195118e+02   3.6059598801e+01    0.1683845    0.1595857  52.27 0.0007834187    1.367    0.269
        26 -11.8164    230.1888    166.7120   9.8776225078e+01   3.1312316248e+00    0.3239473    0.1679718 -46.92  0.001420974    2.447    0.591
        27 -10.8909    123.0246    166.0353   1.2058457513e+02   2.4094792333e+01    0.2898275      0.18625  59.20 0.0007543638    1.659    0.397
        28 -10.7963     25.2993    165.0570   1.4268153084e+02   3.8025913090e+01    0.1780908    0.1728456  32.09  0.001079612    1.445    0.308
        29 -11.1318     25.6616    230.0239   1.4720084495e+02   2.5068573406e+01    0.1703669   0.08036233 -82.86  0.001065285    1.902    0.474
        30 -11.8623    129.7246    161.4821   1.1823017786e+02   2.3813910965e+01     0.352455    0.2414003  40.82  0.001101436    1.434    0.303
        31  -9.8811      4.6212    162.6598   1.4689424608e+02   4.0356253213e+01    0.1099336   0.07139373 -51.97  0.000700969    1.886    0.470
        32 -10.7512    192.3418    157.7006   1.0396881169e+02   1.2012305097e+01    0.2980884    0.2015707   8.20  0.001323123    2.084    0.520
        33 -13.0856    162.9753    154.8031   1.0946754099e+02   1.8600154264e+01    0.4072279    0.3564689 -43.46   0.00111956    1.191    0.160
        34 -12.5099    160.3185    152.3088   1.0952007052e+02   1.9638307889e+01    0.3383991     0.259698 -31.12 0.0009994408    1.444    0.307
        35 -14.2250    143.7737    143.4432   1.1134755729e+02   2.4848954164e+01     1.127038    0.5192245 -59.95  0.003820515    3.193    0.687
        36 -14.7555    133.2961    144.6956   1.1407020702e+02   2.6688495286e+01     1.592784    0.6471853 -57.33  0.005410742    3.107    0.678
        37 -14.0021    135.6279    128.0103   1.0980329487e+02   2.9802508523e+01      1.78374    0.3722465 -49.88  0.004299677    5.520    0.819
        38 -11.9803    140.0452    120.8195   1.0700187766e+02   3.0410817736e+01    0.3823273    0.2643137  51.89  0.001275428    1.481    0.325
        39 -12.1990    134.6871    110.0284   1.0559076216e+02   3.3843776043e+01     1.094104     0.180758 -45.73  0.002444277    6.065    0.835
        40 -10.6834     25.3962    224.8435   1.4695342007e+02   2.6030935784e+01    0.1576468   0.09551959 -76.62  0.000723189    1.565    0.361
        41 -11.8770    174.3789    148.6756   1.0570216563e+02   1.7410438575e+01    0.3323459    0.2833377 -82.42  0.001129469    1.454    0.312
        42 -10.4678     22.4935    221.2672   1.4724210344e+02   2.6990427760e+01    0.1114268   0.08405142 -81.87 0.0003797914    1.348    0.258
        43 -10.0638    139.0277    250.1785   1.2924115019e+02   6.3740586334e+00    0.1638672     0.127412  37.12 0.0005814292    1.199    0.166
        44 -10.1735      1.4814    140.0460   1.4584896001e+02   4.5477616344e+01    0.1592149    0.1101792 -81.32 0.0003139678    1.100    0.091
        45 -11.8221      6.1953    138.3547   1.4459997122e+02   4.5514630867e+01    0.3398896    0.2438691  45.46  0.002367208    1.544    0.352
        46 -11.0814    172.3042    138.7999   1.0392176676e+02   1.9759051265e+01    0.2320824    0.1889327 -61.03 0.0005829857    1.397    0.284
        47 -11.9096     27.2359    136.4291   1.3928260384e+02   4.4220346052e+01    0.3381008    0.2344419  -3.21  0.001947976    2.391    0.582
        48 -11.5243     22.9859    154.9818   1.4226153864e+02   4.0449647452e+01    0.3994174    0.2024779 -70.99  0.002223192    1.619    0.382
        49 -12.6613    160.5987    127.8437   1.0391123749e+02   2.4490750325e+01     0.450706    0.3487014 -55.93  0.001649137    1.392    0.281
        50 -11.6427    111.5748    213.5256   1.3003986964e+02   1.6678777137e+01    0.1921412    0.1529619  75.79  0.000103609    1.224    0.183
        51 -12.7107    108.9149    209.1302   1.3002273024e+02   1.7909592205e+01    0.4517882    0.3161416 -89.34  0.002378728    1.623    0.384
        52 -10.8582    167.5352    112.5401   9.8532639034e+01   2.5977377049e+01    0.3450316    0.2373965 -80.71  0.001363718    2.372    0.578
        53 -11.3379     16.4631    250.1180   1.4965134503e+02   2.2580373010e+01    0.1314353   0.07596671 -89.71 0.0009909341    1.476    0.322
        54 -11.7964    116.3812    212.1855   1.2892948294e+02   1.6152861522e+01    0.2730223    0.1996744 -83.78   0.00133216    1.557    0.358
        55 -10.8034    205.3290    110.2409   9.0333840437e+01   1.7655528853e+01    0.3108198    0.2068594  45.42 0.0008828031    1.544    0.352
        56 -13.1100     11.8866    205.7993   1.4821141917e+02   3.0958774672e+01    0.3919104    0.2904253  24.37  0.002833895    2.036    0.509
        57 -13.1304    161.0036    198.0208   1.1795017477e+02   1.0972876757e+01     0.467232    0.3207982 -64.19  0.002455758    1.928    0.481
        58 -12.6955    163.5261    202.6815   1.1820861091e+02   9.7237771723e+00    0.4296712    0.2792335  52.50    0.0014398    1.509    0.337
        59 -11.2793    153.8119    194.9922   1.1890304298e+02   1.2811494121e+01    0.3184975     0.238971  77.33  0.001177198    1.734    0.423
        60 -12.0453    156.4574    199.3604   1.1907896745e+02   1.1563116943e+01    0.5179045    0.3528293  75.71  0.002544442    2.209    0.547
        61 -11.1480    125.0424    243.9673   1.3103024849e+02   9.4576126260e+00    0.1681111    0.1410238 -70.60 0.0009066997    1.435    0.303
        62 -10.7500    139.5943    200.5250   1.2266363470e+02   1.4357524192e+01    0.3018945    0.2008771  46.14 0.0007959479    1.316    0.240
        63 -10.1742    113.1553    195.9169   1.2742765236e+02   1.9738891137e+01    0.4425298    0.2941159  -6.56  0.001716828    4.358    0.771
        64 -13.0557    167.7162     34.0990   7.5404199850e+01   3.9128833349e+01     0.443158    0.3919865  29.82 0.0008530099    1.206    0.171
        65 -11.0242     13.4119     59.9032   1.3087422062e+02   6.2444402892e+01     0.163333    0.1566177 -66.76 0.0004126844    1.241    0.194
        66 -10.4762    142.5863     33.1326   7.9766084858e+01   4.5630112887e+01    0.2413684     0.192123  74.45 0.0007058317    1.352    0.261
