#   1 NUMBER                 Running object number                                     
#   2 MAG_AUTO               Kron-like elliptical aperture magnitude                    [mag]
#   3 X_IMAGE                Object position along x                                    [pixel]
#   4 Y_IMAGE                Object position along y                                    [pixel]
#   5 X_WORLD                Barycenter position along world x axis                     [deg]
#   6 Y_WORLD                Barycenter position along world y axis                     [deg]
#   7 A_WORLD                Profile RMS along major axis (world units)                 [deg]
#   8 B_WORLD                Profile RMS along minor axis (world units)                 [deg]
#   9 THETA_WORLD            Position angle (CCW/world-x)                               [deg]
#  10 FWHM_WORLD             FWHM assuming a gaussian core                              [deg]
#  11 ELONGATION             A_IMAGE/B_IMAGE                                           
#  12 ELLIPTICITY            1 - B_IMAGE/A_IMAGE                                       
         1 -11.2808    249.6624      5.6891   2.8895218232e+02   6.2408797882e+00   0.04064319   0.01480228 -66.01  0.003082551    3.095    0.677
         2  -8.3916     57.4888    247.4731   2.9257620913e+02   4.5576480705e+00  0.006384858  0.006267758  -3.02 0.0001040762    1.030    0.029
         3  -8.5771    250.3715    249.8394   2.9036990643e+02   3.4922454748e+00   0.00954402   0.00548627 -49.81 0.0008129489    1.682    0.405
         4  -8.7483     89.4443    250.1500   2.9222361161e+02   4.3558710904e+00   0.01105571   0.00747114  30.20  0.001182115    1.458    0.314
         5  -9.0991     74.9782    250.4767   2.9239212811e+02   4.4299095224e+00   0.01698958  0.006259182  25.24  0.001349078    2.681    0.627
         6 -10.1114     65.2320    248.9662   2.9249564980e+02   4.4992622119e+00   0.02682912   0.01197067  32.77  0.002206488    2.140    0.533
         7 -10.1500     51.0012    249.9417   2.9266523227e+02   4.5646461845e+00   0.02369514   0.01114981  25.56  0.002140541    2.095    0.523
         8 -10.0877     37.8187    240.7617   2.9276400226e+02   4.7387930603e+00   0.02695399   0.01553605  62.93  0.002377547    2.605    0.616
         9 -11.2140     15.4117    232.0593   2.9297188436e+02   4.9569491178e+00   0.04644856   0.01978069  32.61  0.004066806    2.230    0.552
        10 -11.8948      4.2679    225.6329   2.9306317076e+02   5.0890484583e+00   0.06404169   0.04258325 -68.10  0.006801567    1.595    0.373
        11 -10.3088     21.8993    244.6780   2.9297007685e+02   4.7799917095e+00   0.02927211    0.0125366  23.68  0.002503513    2.362    0.577
        12 -12.1382     27.7749    240.7527   2.9287968036e+02   4.7927390179e+00   0.06032611   0.04439858  78.34  0.006508857    1.739    0.425
        13 -11.5658     16.0174    240.4564   2.9301344832e+02   4.8590757246e+00   0.05283185   0.02330409  26.38  0.004655403    2.213    0.548
        14 -10.3047      5.7000    235.7178   2.9310495642e+02   4.9677275722e+00   0.02273793   0.01307125  35.88  0.001745971    1.726    0.421
        15 -10.4281     18.8372    249.0668   2.9303072456e+02   4.7469402183e+00   0.02073932   0.01457854  32.35  0.001524424    1.410    0.291
        16 -11.1845      3.4986    243.4098   2.9317476656e+02   4.8928271880e+00    0.0291441   0.02189714  55.27  0.002891467    1.522    0.343
        17 -11.0415     10.5191    248.4757   2.9312314289e+02   4.7981521671e+00   0.03039643   0.02360461  15.08  0.003512439    1.308    0.236
        18 -10.5198      4.1815    249.1044   2.9319979160e+02   4.8249976903e+00   0.02191153   0.01342089  25.82  0.002189966    1.613    0.380
        19  -9.0413    233.4594    244.0937   2.9053089140e+02   3.6481928640e+00   0.01684562  0.005987833 -45.69  0.001283912    2.903    0.656
        20  -8.2247    218.5411    244.9812   2.9070760755e+02   3.7187257130e+00  0.009863534  0.004427595 -40.71 0.0008082196    2.495    0.599
        21  -9.9705     44.5594    244.6274   2.9270870029e+02   4.6590830891e+00   0.02084336   0.01112714  28.01  0.001473751    1.825    0.452
        22  -9.3267     83.1513    244.4623   2.9226314495e+02   4.4537622707e+00   0.01740178   0.00629226  24.89  0.001365251    2.752    0.637
        23  -9.0639    226.0000    241.0026   2.9059868255e+02   3.7232404598e+00   0.01091304  0.003658133 -62.44 0.0008086074    2.985    0.665
        24  -9.5848     53.7174    239.3646   2.9257272481e+02   4.6692502606e+00   0.01920442   0.01167361  53.32  0.001582058    2.011    0.503
        25  -9.7640     72.6481    239.4051   2.9235484701e+02   4.5671608571e+00   0.02172899   0.01054099  32.30  0.002009594    1.984    0.496
        26  -9.3665    249.4875    238.0030   2.9031117485e+02   3.6301717424e+00  0.009928023  0.006317491 -60.86 0.0007109889    1.567    0.362
        27  -9.8621     44.6102    236.5363   2.9266129362e+02   4.7499819466e+00   0.02040703   0.01100314  40.88  0.001310888    1.925    0.481
        28  -9.2872     80.7323    236.2164   2.9224323174e+02   4.5596580198e+00   0.01894371  0.007977226  28.02  0.001630458    2.278    0.561
        29  -8.7214     92.6986    235.5979   2.9210178566e+02   4.5023150841e+00   0.01263458  0.006401334  18.73  0.001138851    2.121    0.528
        30  -9.7803     62.6575    230.7637   2.9241990408e+02   4.7181721984e+00   0.02287196    0.0125753  55.94  0.002024166    2.490    0.598
        31  -9.8632     35.0087    233.0412   2.9275171387e+02   4.8408585499e+00    0.0142593  0.008315347  59.74  0.001242517    2.401    0.584
        32  -9.4874     31.5379    229.0247   2.9276847349e+02   4.9047289664e+00   0.01491442  0.008127321  40.97  0.001185076    1.907    0.476
        33  -9.1730     27.5534    232.2748   2.9283319837e+02   4.8894625606e+00   0.01380047  0.009586807  68.48 0.0009927006    1.888    0.470
        34  -9.3200     47.9776    229.3298   2.9258077255e+02   4.8131208340e+00   0.01740089  0.009129783  49.06  0.001561941    2.296    0.564
        35 -10.0112     39.1084    228.5754   2.9267862175e+02   4.8691975350e+00   0.02222737  0.009188842  36.95  0.001892788    2.367    0.577
        36  -8.3865     93.9681    227.0000   2.9203730397e+02   4.5923496869e+00   0.01081468  0.003652547  24.82 0.0008041026    2.954    0.661
        37  -9.2881     27.2249    225.0921   2.9279542893e+02   4.9721656727e+00   0.01317069  0.007302654  49.51  0.001217893    2.146    0.534
        38  -9.9217     69.4385    223.3143   2.9229859716e+02   4.7656934815e+00   0.01588039   0.01076799  -0.58  0.001647109    1.720    0.418
        39  -9.6751     21.6331    227.8927   2.9287608279e+02   4.9705724511e+00   0.02013922  0.009233756  26.72  0.001694932    2.126    0.530
        40  -8.8789     33.2624    223.4579   2.9271638071e+02   4.9582143481e+00  0.009152014  0.005808854  36.87 0.0006326979    1.581    0.368
        41  -8.5259     99.5285    221.5247   2.9194147551e+02   4.6241299252e+00  0.006504693  0.006147769 -21.86 0.0003765014    1.029    0.028
        42  -9.5194     54.4574    221.3314   2.9245976766e+02   4.8684729823e+00   0.01181561  0.005916562  25.09  0.001086052    1.978    0.495
        43  -9.5871     44.9553    219.9739   2.9256142906e+02   4.9347601355e+00   0.01067235  0.007673831  60.18  0.001134926    1.683    0.406
        44 -10.4218     34.1482    248.5793   2.9285150811e+02   4.6703824549e+00   0.03307441   0.01130864  32.00  0.002629929    2.687    0.628
        45  -8.3266    110.4872    218.5034   2.9179767600e+02   4.5992128254e+00  0.006494021  0.006175099 -20.95 0.0002376218    1.020    0.020
        46 -10.4489     12.8583    216.0956   2.9290898743e+02   5.1505300509e+00   0.01636339  0.008819953  29.84  0.001084847    1.801    0.445
        47 -11.1398     10.7371    226.2420   2.9299212435e+02   5.0475446159e+00   0.03420308   0.01963165  -7.27  0.003034318    2.481    0.597
        48  -8.2769     19.3269    215.6591   2.9283188756e+02   5.1207951188e+00   0.00686041  0.004859904  61.09 0.0007051382    1.735    0.424
        49  -9.0404     58.4875    212.4748   2.9236199513e+02   4.9466328500e+00  0.006378295  0.006276526   2.32 0.0004996475    1.036    0.035
        50  -8.6177     44.0742    212.4813   2.9252818910e+02   5.0239166089e+00   0.01012814  0.006314289  23.89 0.0005933596    1.598    0.374
        51  -9.1842      1.7808    212.1071   2.9301363115e+02   5.2547966768e+00   0.01010106  0.008696552  61.40  0.001204357    1.299    0.230
        52  -9.2672     64.9694    211.4741   2.9228147531e+02   4.9231016206e+00  0.009901999  0.004508694  46.33 0.0008101008    2.605    0.616
        53  -8.1977     12.6628    211.2863   2.9288341583e+02   5.2057756110e+00  0.006696968  0.004817104  56.31 0.0006413725    1.631    0.387
        54  -9.0344     96.7979    210.6003   2.9190955045e+02   4.7618829959e+00  0.009490066   0.00573151  35.20 0.0007758048    1.641    0.391
        55  -8.4469    108.5505    209.5213   2.9176784745e+02   4.7108132903e+00  0.006405469  0.006227012 -18.73 0.0001111907    1.013    0.012
        56  -9.2790     77.8514    207.8234   2.9211181272e+02   4.8950279185e+00  0.009360429  0.007712507  57.35  0.001088219    1.361    0.265
        57  -8.4289     35.5185    207.5447   2.9259823238e+02   5.1254389825e+00  0.006385809  0.006247892  -4.54 9.364168e-05    1.025    0.025
        58  -8.4628      6.4696    204.9702   2.9291827949e+02   5.3101237843e+00  0.009183016  0.005636755  81.49 0.0008097102    2.546    0.607
        59  -9.0954     87.2675    204.4302   2.9198358746e+02   4.8826431862e+00   0.01240369  0.006464911  17.33  0.001128498    2.094    0.522
        60  -9.9261     25.9773    249.0433   2.9294832649e+02   4.7089493355e+00    0.0199871   0.01163738  33.91  0.001158855    1.688    0.408
        61  -9.3995     71.7727    199.9788   2.9213638227e+02   5.0160752459e+00    0.0124374  0.007819698  39.26   0.00128084    1.623    0.384
        62  -8.6209     82.9735    200.0000   2.9200737680e+02   4.9556389249e+00   0.01089657   0.00365278  24.82 0.0008073286    2.976    0.664
        63  -8.5462    106.1930    198.3895   2.9173037595e+02   4.8488948280e+00  0.009753456  0.005576865  36.28 0.0008467035    1.738    0.425
        64  -8.8161     90.9787    196.0059   2.9189190921e+02   4.9575928893e+00   0.01608773  0.006954514  16.35  0.001282852    2.780    0.640
        65  -8.5991    115.1872    193.1499   2.9159627244e+02   4.8595023473e+00   0.00921795  0.007679924  56.19  0.001078885    1.334    0.250
        66  -8.9098     80.0186    189.3450   2.9197959963e+02   5.0915640326e+00   0.01145004  0.003322079  43.81 0.0007050505    4.437    0.775
        67  -8.2404     89.3010    184.6534   2.9184533095e+02   5.0945063730e+00  0.006737038   0.00491493  63.45  0.000703826    1.685    0.406
        68  -9.5782     68.2652    191.6201   2.9212832757e+02   5.1290960164e+00   0.01573381  0.006822069  39.05   0.00134963    2.333    0.571
        69  -9.1056     67.3242    178.6811   2.9206408743e+02   5.2799294948e+00   0.00676005  0.004872737  59.82  0.000591057    1.674    0.403
        70  -9.8671    100.9765    175.9700   2.9166026095e+02   5.1295089587e+00  0.009034761  0.008921758  -5.08  0.001165112    1.038    0.036
        71  -8.9221    232.3774    133.1589   2.8989678958e+02   4.9021770697e+00  0.009258612  0.006272731 -77.94 0.0008206562    1.746    0.427
        72  -9.6460    238.7527    123.8606   2.8976911464e+02   4.9722446473e+00    0.0176793   0.00844534 -75.86  0.001409013    2.979    0.664
        73  -9.4455    230.8819    113.5947   2.8979976201e+02   5.1303126876e+00   0.01683818  0.006813974 -57.81  0.001426115    2.322    0.569
        74  -9.4762    240.8612    109.1602   2.8965897287e+02   5.1261369778e+00    0.0204131  0.004747921 -52.59  0.001382885    3.596    0.722
