#   1 NUMBER                 Running object number                                     
#   2 MAG_AUTO               Kron-like elliptical aperture magnitude                    [mag]
#   3 X_IMAGE                Object position along x                                    [pixel]
#   4 Y_IMAGE                Object position along y                                    [pixel]
#   5 X_WORLD                Barycenter position along world x axis                     [deg]
#   6 Y_WORLD                Barycenter position along world y axis                     [deg]
#   7 A_WORLD                Profile RMS along major axis (world units)                 [deg]
#   8 B_WORLD                Profile RMS along minor axis (world units)                 [deg]
#   9 THETA_WORLD            Position angle (CCW/world-x)                               [deg]
#  10 FWHM_WORLD             FWHM assuming a gaussian core                              [deg]
#  11 ELONGATION             A_IMAGE/B_IMAGE                                           
#  12 ELLIPTICITY            1 - B_IMAGE/A_IMAGE                                       
         1 -16.2838    173.9955     90.7776   3.2587894312e+01   2.8936120028e+01     4.897384     1.817192 -42.93   0.01419375    2.514    0.602
         2 -14.1543    247.8235     15.7144   7.6867199977e+00   2.4397008867e+01     0.337763    0.3326897 -78.78  0.001941444    1.451    0.311
         3 -16.8982    233.0691     60.6099   1.7727708416e+01   2.1720256139e+01     9.275764     4.142117 -19.21   0.03002406    6.204    0.839
         4 -17.5220    249.1410     72.0183   1.8521055076e+01   1.7413072388e+01     11.14713     2.635037 -30.53    0.0294067    8.079    0.876
         5 -16.1687    235.4915     41.1374   1.3502957251e+01   2.3742850291e+01     2.889154     1.622345  63.41   0.01746191    2.010    0.503
         6 -16.9039    245.8575     33.0282   1.1130186251e+01   2.2837039925e+01     4.976056     2.579104  89.18   0.02840248    2.186    0.542
         7 -10.8853    155.0163     15.1540   1.4970098689e+01   4.3821281570e+01    0.2708767    0.1780104   3.92  0.001247592    2.396    0.583
         8 -11.0371    206.4515      3.4954   7.5961488383e+00   3.3522977637e+01    0.3972566    0.1508475 -38.34  0.001936211    2.181    0.541
         9 -10.8435    106.8245      4.5281   1.8431036800e+01   5.6422326767e+01    0.2175394    0.1841521 -21.44 0.0007639141    1.374    0.272
        10 -17.6635    236.9477     86.0448   2.2582974627e+01   1.7528224557e+01     8.894574     1.997178  48.22   0.02901205    6.574    0.848
        11 -12.7210    204.8620    199.4897   4.9773202949e+01   4.5560189572e+00    0.3901446    0.2861502   2.05  0.001937105    1.246    0.198
        12 -10.9037    248.8340    195.1617   4.1702605873e+01  -1.8871793737e-01    0.1622137    0.1059857 -12.18 0.0003140128    1.329    0.248
        13 -11.8975    226.2710    193.2845   4.4948436639e+01   2.7532275156e+00    0.3139249    0.1969777 -24.75  0.001145532    1.352    0.260
        14 -11.4364    247.0481    249.0200   5.0512242734e+01  -6.8534462554e+00    0.2186725    0.1285424  26.21 0.0009382202    1.744    0.427
        15 -11.0267    173.8452    220.8210   5.9333604392e+01   5.2396337317e+00    0.1617829    0.1442023  30.12 0.0005147688    1.348    0.258
        16  -9.9803    136.2292    221.2055   6.7455010136e+01   1.0284028398e+01    0.1672236    0.1422437  42.43 0.0003830748    1.294    0.227
        17  -9.6431    110.7177    168.2846   6.5184205401e+01   2.5114158400e+01    0.1424092    0.1138516  66.11  0.000258678    1.520    0.342
        18 -11.7768    209.6173    164.3060   4.2455619329e+01   9.6051837974e+00     0.224404    0.2105973  63.27  0.001470512    1.482    0.325
        19 -11.5162    210.0218    156.4816   4.0856624606e+01   1.0848643420e+01    0.4472848    0.2308214 -24.16  0.002021288    2.265    0.558
        20 -15.2405      9.6215    144.0790   9.2389226497e+01   4.3752924908e+01     6.422179     2.279408  -1.41   0.01928725    5.730    0.825
        21 -14.5514     44.4964    133.7045   7.9425438161e+01   4.3320760974e+01     1.050047    0.8459542 -54.66  0.003045977    1.200    0.167
        22 -13.1210     36.4896    135.9082   8.2509927316e+01   4.3606005674e+01    0.4203069    0.3147924   7.32 0.0009529531    1.522    0.343
        23 -11.5024    178.0136    156.9512   4.6941721504e+01   1.5968112907e+01    0.2078806     0.188307 -16.13 0.0003664827    1.015    0.015
        24 -12.2103    133.7050    145.5643   5.4616308355e+01   2.6224331932e+01     1.161861    0.3210992 -54.12  0.002926642    5.350    0.813
        25 -10.1701    132.3194    138.6438   5.3444789774e+01   2.8000563474e+01    0.3150356    0.2169801 -76.80  0.001300305    2.301    0.565
        26 -13.0207     66.3977    143.4387   7.3763365512e+01   3.8019324552e+01     1.894852     1.211911  74.89  0.007748542    2.184    0.542
        27 -11.5294    143.9877    145.9645   5.2161041680e+01   2.4236422719e+01    0.6471713    0.3416561 -65.52  0.002112827    3.772    0.735
        28 -11.9829    199.0214    143.9861   4.0248730682e+01   1.4759516071e+01    0.3188746    0.2109889 -38.13  0.001527936    1.355    0.262
        29 -13.2901    201.0300    131.1773   3.7196294651e+01   1.6643344416e+01    0.6444079    0.4521574 -68.50  0.003213473    2.143    0.533
        30 -12.3063    213.1860    132.3472   3.5437264928e+01   1.4372552767e+01    0.3363967    0.2718579 -63.91  0.001604413    1.539    0.350
        31 -13.1963    161.3408    128.7124   4.4302024600e+01   2.4471735149e+01     0.503917    0.4597389  44.54  0.001803597    1.160    0.138
        32 -11.4082    236.6963    216.5233   4.7151200759e+01  -1.7520771075e+00    0.2761305    0.1673544 -16.68  0.001130205    1.396    0.284
        33 -10.0573     92.8305    121.8284   6.0805684428e+01   3.9233751657e+01    0.2300165    0.2056404 -12.37 0.0005031757    1.196    0.164
        34 -11.9638    249.9738    203.4777   4.2927638902e+01  -1.4409221470e+00     0.276645    0.1502446 -30.34  0.001164405    1.471    0.320
        35 -11.2455    240.3708    206.9876   4.4996932620e+01  -8.6326751748e-01    0.2029574    0.1490034  12.97 0.0005523153    1.304    0.233
        36 -11.3071    250.5151    184.5269   3.9626809458e+01   1.0917793328e+00    0.2687145   0.08900262 -34.71 0.0005525494    2.473    0.596
        37 -14.0050     52.4398    133.2587   7.6621848062e+01   4.2493018903e+01    0.9681051    0.5664324 -50.12  0.001839873    1.673    0.402
        38 -12.2659    245.2523    184.6988   4.0438733394e+01   1.6861837009e+00    0.2452017    0.1864753  32.55  0.001711457    1.606    0.377
        39 -11.2789    203.8600    188.3261   4.7980905746e+01   6.4782229432e+00    0.1831138    0.1599467  39.98  0.001066722    1.486    0.327
        40 -13.4723    186.2460    172.2719   4.8335746036e+01   1.1817473065e+01    0.7565789    0.5317867 -74.97  0.003362599    3.079    0.675
        41 -11.3895    148.6936    100.9261   4.0269296393e+01   3.2516737809e+01    0.2149355    0.1889806 -46.25 0.0006501416    1.114    0.102
        42 -10.7078    113.5394     95.3081   4.7620833293e+01   4.1198946466e+01    0.2665727    0.2365857  50.95 0.0005381644    1.139    0.122
        43 -10.6637    157.4374     90.4793   3.5667419293e+01   3.2563223230e+01    0.2647229    0.2115397 -60.62 0.0004870833    1.323    0.244
        44 -10.8113    158.4578     87.4932   3.4675260703e+01   3.2871450185e+01    0.4281673    0.2511443  62.76  0.001884917    1.951    0.487
        45 -11.1071    194.8676     79.0954   2.6369612804e+01   2.6477696430e+01    0.2130515    0.1621854 -59.92 0.0005248262    1.295    0.228
        46 -11.8585    190.6194     76.2134   2.6295588410e+01   2.7801774369e+01     0.363146    0.2710817  85.61  0.001609724    1.535    0.349
        47  -9.4395    142.7058     79.7032   3.5831698733e+01   3.7777278057e+01    0.1424271    0.1156627  13.61 0.0002480523    1.564    0.360
        48 -10.2273    201.3375     76.9037   2.4950509020e+01   2.5499405772e+01    0.1850073    0.1479562 -41.99 0.0005073571    1.133    0.117
        49 -10.5660    158.5094     74.8928   3.1288011218e+01   3.5017777902e+01    0.3299133    0.1994536 -51.92  0.001081766    1.728    0.421
        50 -11.7857    198.0046     56.2662   2.0520195433e+01   2.9165032080e+01    0.3770492    0.2102033 -31.07 0.0009294183    1.837    0.456
        51 -11.6998    193.3785     65.1797   2.3242552867e+01   2.8876809106e+01    0.5331555    0.2107939 -43.67  0.001128797    2.250    0.555
        52 -11.9336    196.5396     63.4167   2.2405548292e+01   2.8468607922e+01    0.4822596    0.2279499 -29.44  0.002046059    2.323    0.570
        53 -13.4156    176.8822    170.9714   4.9970906720e+01   1.3541147253e+01    0.5559064    0.5067948   1.46  0.002893336    1.067    0.063
        54 -10.6071    185.8717     64.7594   2.4170352944e+01   3.0537256021e+01    0.2492614    0.1711778 -45.77 0.0004957755    1.335    0.251
        55 -11.8535    208.2971     56.2284   1.9321975513e+01   2.7054128012e+01    0.3821357    0.2891402  -5.49  0.001573124    1.932    0.482
        56 -10.4421    205.1601     53.9023   1.9136947432e+01   2.8004601010e+01     0.219033     0.176943  16.97  0.000420663    1.822    0.451
        57 -12.1672    206.6084     47.5405   1.7516122094e+01   2.8545440979e+01    0.3050274    0.2688453 -35.29 0.0002735225    1.239    0.193
        58 -10.6636    201.1830     46.7967   1.7920903002e+01   2.9763013231e+01      0.26805    0.2249696  28.23  0.001544069    1.644    0.392
        59 -11.5683    204.4557     40.4842   1.6112564037e+01   2.9882117500e+01    0.3171273    0.1903367 -61.52  0.001431183    1.599    0.375
        60 -11.6639    203.1738     36.3460   1.5282201130e+01   3.0655434151e+01    0.3061619    0.2149459  65.98  0.001319403    1.495    0.331
        61 -12.1796    124.2979     38.2263   2.7010496046e+01   4.8581019090e+01    0.3618045    0.2216796  48.99  0.001350618    1.585    0.369
        62 -11.8985    169.2151     35.5086   1.8859472202e+01   3.8229790353e+01    0.3147218    0.2269742 -40.34  0.001274311    1.366    0.268
        63 -11.2085    144.3593     35.1470   2.2354897738e+01   4.4136323982e+01    0.1902976    0.1139506 -44.75 0.0005236454    1.689    0.408
        64 -12.4098    183.9600     32.3653   1.6294782320e+01   3.5271005157e+01    0.3012873    0.2211992 -25.62 0.0006331062    1.558    0.358
        65 -10.5948    153.8956     20.8140   1.6731829737e+01   4.3503349908e+01    0.1901538    0.1655898  59.94  0.000582996    1.202    0.168
        66 -11.3365     12.0014    206.2847   9.6039618277e+01   2.8404772076e+01     0.178537    0.1488479  54.86  0.001180569    1.044    0.042
        67  -9.4838    181.4444    205.4738   5.5298001191e+01   6.7521471910e+00    0.1282041    0.1090824  -1.37  5.32365e-05    1.039    0.038
        68 -13.0470    192.3301    194.4490   5.1245477214e+01   7.0796672192e+00    0.9871198    0.5403436 -61.67  0.003431745    5.348    0.813
