#   1 NUMBER                 Running object number                                     
#   2 MAG_AUTO               Kron-like elliptical aperture magnitude                    [mag]
#   3 X_IMAGE                Object position along x                                    [pixel]
#   4 Y_IMAGE                Object position along y                                    [pixel]
#   5 X_WORLD                Barycenter position along world x axis                     [deg]
#   6 Y_WORLD                Barycenter position along world y axis                     [deg]
#   7 A_WORLD                Profile RMS along major axis (world units)                 [deg]
#   8 B_WORLD                Profile RMS along minor axis (world units)                 [deg]
#   9 THETA_WORLD            Position angle (CCW/world-x)                               [deg]
#  10 FWHM_WORLD             FWHM assuming a gaussian core                              [deg]
#  11 ELONGATION             A_IMAGE/B_IMAGE                                           
#  12 ELLIPTICITY            1 - B_IMAGE/A_IMAGE                                       
         1 -12.6538     74.8677     50.6573   8.5616714462e+01   5.7435230904e+01     1.363314    0.8093256 -53.77  0.006368165    2.011    0.503
         2 -12.1105    124.7314     27.8082   6.1970437552e+01   5.0794968768e+01    0.8167282    0.6533346   7.93  0.002868889    1.333    0.250
         3  -9.9552     60.2725     22.0990   7.9365185815e+01   6.4515217022e+01    0.7509829     0.237852 -34.94  0.002711871    2.926    0.658
         4 -12.1364     60.5968     45.7948   8.9042028289e+01   6.0517287247e+01     1.037992    0.4909189 -43.26  0.004825053    1.880    0.468
         5 -10.9370    178.4452     21.2220   4.9772323578e+01   3.7928636620e+01    0.6159807    0.3462973  33.08  0.002556088    2.400    0.583
         6 -11.4742    182.8366     25.3027   5.0382727417e+01   3.6303240639e+01    0.6897764     0.376526  50.79  0.003040212    1.831    0.454
         7 -10.3939     21.9796      4.4906   8.8086003373e+01   7.2004861933e+01    0.4025921    0.1768196 -48.20  0.001583443    2.913    0.657
         8 -11.3637     12.3188     24.2613   1.0187466313e+02   6.9585499517e+01    0.6870717    0.3586578 -48.70  0.002715399    1.496    0.332
         9 -11.5490     19.8994     22.4812   9.7463696244e+01   6.9316625014e+01    0.6178655    0.2749547 -46.76  0.001998184    1.805    0.446
        10 -12.7091     17.7362     13.8108   9.4827988711e+01   7.0968746377e+01    0.5371349    0.4304299  28.91 0.0007808972    1.635    0.388
        11 -11.9282     22.5183     10.7933   9.0966184404e+01   7.1008541854e+01    0.4490258    0.2526376  24.50  0.002141779    1.914    0.477
        12 -12.0506    105.9720     20.1194   6.3604753362e+01   5.6060653440e+01    0.5584052    0.4103613 -42.46 0.0003708153    1.565    0.361
        13 -12.4263    106.1553     32.5281   6.8581407089e+01   5.4406776636e+01     1.086656    0.5756901   4.85  0.003548256    4.127    0.758
        14 -11.4073    150.6426     25.3825   5.5667562556e+01   4.4660523557e+01     1.564913    0.6087859  58.32  0.005935734    2.288    0.563
        15 -12.2012    132.2231     15.0124   5.5516339049e+01   5.0460014070e+01     1.127502    0.5433406  73.67  0.001973823    2.607    0.616
        16  -9.7852    141.4638     12.2758   5.2754107180e+01   4.8437287953e+01    0.2539241    0.2148137  34.29   0.00064597    1.170    0.146
        17 -11.1431    165.1106     17.6335   5.0626417121e+01   4.1807111196e+01    0.6691828    0.2895863  49.52  0.002665119    2.233    0.552
        18 -11.2588    137.8369     22.0013   5.6955206959e+01   4.8297419779e+01     1.055399    0.3285728  47.90  0.003590394    2.980    0.664
        19 -11.1224    146.0800     16.7400   5.3502597324e+01   4.6805947226e+01    0.5135254    0.4266679  70.05  0.002847018    1.172    0.147
        20 -12.5049    163.7833     27.9836   5.4200424689e+01   4.0950251187e+01     0.659008    0.3813806  40.94 0.0005203879    1.893    0.472
        21 -11.0320    198.8266     28.4928   4.9131437518e+01   3.1766875817e+01    0.5960643    0.4244013  -7.59  0.002913509    1.802    0.445
        22 -10.7957    214.5588     23.4240   4.5849201179e+01   2.8396950485e+01    0.4731362    0.3694276  -0.93  0.002527427    1.680    0.405
        23 -10.5941     87.0865      7.4628   6.3350920988e+01   6.1477302366e+01    0.5558864    0.3195434  50.99  0.002334545    1.656    0.396
        24 -11.1649     91.0311     20.7648   6.8110753799e+01   5.9155995533e+01    0.6222982    0.4794474 -22.29  0.003183309    1.270    0.212
        25 -11.1678     85.9820     13.6591   6.6506004120e+01   6.1027297230e+01    0.4241245    0.3078539   5.48  0.001388016    1.361    0.265
        26  -9.4504     50.4733      6.4503   7.5725953829e+01   6.8124532986e+01    0.3553496    0.1108441  42.41  0.001500184    3.236    0.691
        27 -10.2488     47.1207     19.3409   8.3489446243e+01   6.6837531652e+01    0.3131894     0.260519 -13.95  0.001527815    1.073    0.068
        28 -12.2429     48.4518     12.9561   7.9863213601e+01   6.7572861995e+01    0.7883191    0.3309192  35.59  0.003819157    2.450    0.592
        29 -11.0942     32.5297     12.5210   8.6856589901e+01   6.9682531496e+01    0.2196004    0.2005055  30.40 0.0001387893    1.562    0.360
        30 -11.5262     35.7273     18.6233   8.8238700127e+01   6.8376932873e+01    0.5344366    0.2141317 -34.72  0.001763514    2.189    0.543
        31 -10.2907    120.1264     19.0179   5.9659172448e+01   5.2945232020e+01    0.5238389    0.1852457 -27.17  0.001959885    2.854    0.650
        32 -11.9167     68.3685     18.1949   7.4505361081e+01   6.3737461066e+01    0.4983846    0.4507982  37.86  0.003269376    1.331    0.249
        33 -12.0679    238.5341     15.9509   4.1607577236e+01   2.3478662478e+01    0.9192234    0.4499103  68.89  0.003159804    1.996    0.499
        34 -11.9009    233.8255      7.0889   3.9885498189e+01   2.5579569139e+01    0.8720102    0.4232224  85.40  0.004040938    2.119    0.528
        35 -11.8825    246.9050      6.9991   3.8843932672e+01   2.2566199332e+01    0.6127658    0.4838291  -4.71  0.003424261    1.754    0.430
        36 -10.9316    242.7016      3.8743   3.8441729910e+01   2.3863483330e+01    0.3548386    0.2240989  73.68  0.001993412    1.538    0.350
        37 -10.9512    218.7856      3.2785   4.0218393031e+01   2.9594939359e+01    0.3226051     0.283853 -45.78  0.001127327    1.175    0.149
        38 -11.1327    223.5005      1.9853   3.9495760434e+01   2.8582135571e+01    0.5993538    0.2387377  78.52  0.002524539    2.456    0.593
        39  -9.7664    191.5597     16.6718   4.6674723476e+01   3.5034400837e+01    0.3120974    0.2620439   5.70  0.001731633    1.462    0.316
        40 -11.3696    192.4086      7.8054   4.4038552581e+01   3.5756786156e+01     0.654086     0.422974  32.81  0.002453763    2.004    0.501
        41 -10.0716    225.9239     15.3877   4.2612627765e+01   2.6543800144e+01    0.3623151    0.1772671 -33.48  0.001553404    1.933    0.483
        42 -12.3775    104.6246     12.8492   6.0922783851e+01   5.7177798172e+01    0.4992492    0.4494917 -19.75  0.001567567    1.186    0.157
        43 -11.5314    211.9359      9.8339   4.2538861334e+01   3.0599139030e+01    0.4384877     0.312115   5.81 0.0006577401    2.018    0.504
        44  -9.1238     78.4804      7.4964   6.5997168046e+01   6.3179184372e+01    0.2156179    0.1599393  45.55 0.0007360665    1.342    0.255
        45  -9.9239     62.0000     11.1349   7.3507989628e+01   6.5720139275e+01    0.2958994    0.1395845 -30.38 0.0008549119    1.985    0.496
        46 -10.5833     65.7194     10.3744   7.1751313347e+01   6.5183717433e+01    0.4268022    0.2133856  37.34  0.001934909    1.917    0.478
        47  -9.8916     62.9560      6.8018   7.1000059974e+01   6.6075934620e+01     0.401944    0.2244447  31.95  0.001891218    1.710    0.415
        48 -10.4447     76.8227      3.4471   6.4581369091e+01   6.3914860120e+01    0.3857179    0.2286988  -0.39  0.001763184    1.812    0.448
        49 -10.3208     72.9764      2.7577   6.5484293992e+01   6.4714118511e+01    0.4214801    0.2262927  25.27  0.002051033    1.944    0.486
        50  -9.1315      4.6043     11.0538   1.0058650907e+02   7.2420105824e+01    0.3222408    0.1389179 -39.61  0.001868064    1.702    0.413
        51  -9.6942    169.1331      9.7140   4.7510440785e+01   4.1586662200e+01    0.3813418    0.1658294  45.60  0.001507996    2.452    0.592
        52 -10.1092    163.3174      5.8890   4.7101150407e+01   4.3461082145e+01    0.5750084    0.2447777 -16.20  0.002262192    2.895    0.655
        53  -9.1075    157.4613      2.5289   4.6831610664e+01   4.5273840265e+01    0.2338215    0.1879299  43.46  0.001184428    1.239    0.193
        54  -9.0468    161.0185      1.0000   4.5840210048e+01   4.4493185735e+01    0.3551663   0.07116321  66.37  0.001080065    3.814    0.738
        55  -8.9079    157.3285      7.8047   4.8595146110e+01   4.4825664917e+01    0.2076184    0.1743695  67.65 0.0005215335    1.088    0.081
        56  -9.4795    151.5758      7.6189   4.9418391608e+01   4.6320089727e+01    0.4874596    0.1968773  61.05  0.001297195    2.107    0.525
        57 -11.3911     40.7451      5.8466   7.9636577544e+01   6.9591152226e+01    0.4562773    0.2190218 -16.34  0.001454089    2.455    0.593
        58  -9.2444      1.1348      7.3718   1.0091793936e+02   7.3255358550e+01    0.1825873   0.05169274 -49.37 0.0005357087    2.556    0.609
        59 -10.2913    183.9234      5.2831   4.4281998179e+01   3.8189621312e+01     0.428416    0.2297597 -43.91  0.001626964    1.888    0.470
        60 -10.4470    175.6878      5.1433   4.5234130214e+01   4.0330801201e+01     0.491877    0.2386065  77.86    0.0020986    2.063    0.515
        61  -9.2495    122.5594      1.0000   5.2076832432e+01   5.4127028636e+01    0.4402959   0.07004503  64.71  0.001136299    5.736    0.826
        62  -9.7352    117.1965      2.5982   5.3785956424e+01   5.5270214382e+01    0.3331685    0.1580512  55.04 0.0008501227    1.799    0.444
        63 -10.6874    105.3752      1.7777   5.6044050535e+01   5.8072193851e+01    0.3988493    0.2784321  82.49 0.0008363155    1.895    0.472
        64  -9.7115    113.4783      3.4890   5.4936912157e+01   5.6065051342e+01    0.2817033     0.225344 -62.90  0.001046965    1.606    0.377
        65 -10.0521    109.6698      1.6954   5.5033669997e+01   5.7100919553e+01    0.3062096    0.1575798  45.01  0.001188269    1.704    0.413
        66 -10.4649    142.4947      3.2774   4.9370470349e+01   4.9019410926e+01    0.3692443    0.2701176  56.76  0.001331243    1.214    0.176
        67 -11.7421    133.4186      2.8019   5.0746991565e+01   5.1326875384e+01     0.458408    0.2829744  61.63  0.001428102    1.446    0.308
        68  -9.7418    207.8572      3.0830   4.1158172762e+01   3.2316214898e+01    0.2765223    0.1858735  83.20 0.0007089644    1.373    0.272
        69  -9.6605    204.4646      1.5501   4.1073464137e+01   3.3317002916e+01    0.2296024     0.179508  73.99 0.0005310273    1.185    0.156
        70  -9.7141     13.4874      1.8578   9.1292434086e+01   7.3199586660e+01    0.2428747    0.1513851  -0.42  0.001612733    1.567    0.362
        71 -10.9882      3.0244      1.7914   9.7236291693e+01   7.4034576780e+01    0.3559929     0.167115   7.19  0.002060166    2.505    0.601
        72 -10.4814     82.1981      1.3227   6.1916496487e+01   6.3062876661e+01     0.197118    0.1053679  50.69 0.0003201969    1.729    0.422
        73  -8.5892    151.9110      1.0000   4.7122323541e+01   4.6826392064e+01    0.2211487   0.07112773  68.51  0.000488999    2.795    0.642
        74  -9.8898    133.2569    140.2424   9.3742176763e+01   2.7103181478e+01    0.3077532    0.2709259  -3.17 0.0009483751    1.394    0.283
        75 -10.0741    143.0434    249.6472   1.0914105568e+02   4.7554780851e+00    0.1838355    0.1514101  69.19  0.001110631    1.305    0.233
        76 -12.0909     23.5897    136.0065   1.2101770532e+02   4.4239492718e+01    0.7681715     0.383777  47.87  0.002416004    2.100    0.524
        77 -12.3318     29.8892    133.0053   1.1907485233e+02   4.4367368817e+01    0.3907779    0.2741475 -86.43 0.0003093433    1.217    0.178
        78 -10.2896     80.4202    136.4365   1.0641254864e+02   3.7404829774e+01    0.4736933    0.3568091  -8.38  0.002330765    2.144    0.534
        79  -9.8929     40.1260    137.5601   1.1704549333e+02   4.2281359225e+01    0.2129469    0.1470714 -84.39 0.0003873697    1.264    0.209
        80  -9.4903    192.0302    136.5072   7.9665230992e+01   1.5217545690e+01    0.2442723    0.2002575 -36.29  0.001066677    1.211    0.174
        81  -9.0832    216.6195    135.2127   7.4582137811e+01   1.0129025862e+01    0.2046305    0.1336966 -24.58 0.0006826669    1.598    0.374
        82 -10.5528     93.4288    134.1003   1.0255639861e+02   3.5898870533e+01    0.4793015    0.1276614 -54.47  0.001503264    3.426    0.708
        83  -9.5613     92.4940    128.9509   1.0177012953e+02   3.7271521187e+01    0.2792511    0.2192333  45.53 0.0009874786    1.332    0.249
        84 -10.4205     47.3039    135.4695   1.1491641683e+02   4.1992981341e+01    0.4268989    0.1479565 -60.60  0.001316733    2.360    0.576
        85  -9.5801    107.6367    146.0390   1.0124957936e+02   3.0665463219e+01    0.2382852    0.1906031  61.09 0.0004805827    1.250    0.200
        86 -10.4031     74.1199    132.7885   1.0742059286e+02   3.9200818794e+01    0.2620177    0.2211153 -36.85   0.00148739    1.411    0.291
        87  -9.9589     62.5949    131.6967   1.1030524768e+02   4.1037846105e+01    0.4143339    0.2238451 -48.81  0.001763635    1.911    0.477
        88  -9.0978     87.5225    123.5022   1.0199226784e+02   3.9376131893e+01    0.1796025     0.145005  25.81 3.776996e-05    1.485    0.327
        89 -10.4478     82.2380    125.5084   1.0385003377e+02   3.9730573988e+01    0.4635327    0.3209594 -12.79  0.001760568    2.549    0.608
        90  -8.9369    223.8395    126.8292   7.1296262927e+01   1.0048480070e+01    0.1997607    0.1648206 -52.59 0.0004012796    1.342    0.255
        91 -10.2176     18.5691    124.7280   1.2100179038e+02   4.7278593794e+01    0.3726902    0.1519985 -69.53  0.001747065    1.887    0.470
        92 -10.0939     42.0383     93.7615   1.0928214179e+02   5.2442736647e+01    0.5817624    0.3715522 -74.20  0.003111715    1.542    0.351
        93  -8.7569     25.4102     87.2911   1.1338544044e+02   5.5447175387e+01    0.8819315     0.535335 -89.95  0.004647379    1.991    0.498
        94 -11.5642      9.4699     97.4627   1.2004960786e+02   5.4234943903e+01     1.133675    0.5361441 -86.98   0.00555566    2.251    0.556
        95 -11.9463      7.2259     88.8892   1.1949816029e+02   5.6326461460e+01    0.5786273    0.4523757  26.73  0.002964184    1.642    0.391
        96 -12.4057     42.0618     85.2228   1.0744028344e+02   5.4415263114e+01      0.96891    0.4395135  18.82  0.004209417    3.162    0.684
        97 -11.0068     17.3776    100.8680   1.1817751749e+02   5.2917702197e+01    0.5209757    0.2713795  26.72  0.002452193    2.359    0.576
        98 -11.5938     35.1733     92.8179   1.1128761752e+02   5.3330187739e+01     1.454871    0.5922967 -70.78   0.00608119    2.513    0.602
        99 -11.8768     22.2764     94.9570   1.1575064033e+02   5.3923339565e+01    0.5781364    0.4435198   9.70  0.003666657    1.710    0.415
       100 -12.3184     18.3079     90.2846   1.1621401242e+02   5.5293720900e+01    0.3458276    0.2319058 -61.55 0.0003866038    1.164    0.141
       101 -11.7372      2.4161    112.1111   1.2386127507e+02   5.1312570457e+01     1.301243    0.4395911 -81.07  0.005472988    2.696    0.629
       102 -11.5824      3.8936    105.6970   1.2272813296e+02   5.2688805879e+01      0.48312     0.336244 -85.49  0.002190335    1.203    0.169
       103 -12.1787     18.7346    106.2054   1.1855532783e+02   5.1578455144e+01    0.2735819    0.2142563 -54.53 0.0002636593    1.232    0.188
       104 -11.7630     22.5913    113.9680   1.1854457566e+02   4.9465934930e+01    0.8258814    0.3504542  12.51  0.003499712    4.188    0.761
       105 -12.5978     25.2103    107.6756   1.1689113261e+02   5.0725644190e+01    0.8995312    0.5545548 -36.02  0.003505858    1.988    0.497
       106 -10.8335     56.3238    123.5087   1.1062116323e+02   4.3786169658e+01    0.4806581    0.3831483   5.15  0.001975711    1.750    0.429
       107 -11.8313    104.3120    122.0551   9.7105169195e+01   3.6844085171e+01    0.4622142    0.4446431 -56.41  0.001153377    1.073    0.068
       108  -9.4857    104.0719    130.6039   9.9043768896e+01   3.4887655257e+01    0.2221546    0.2006602 -34.52  0.000604552    1.245    0.197
       109 -10.5578     32.9430    119.1386   1.1640028900e+02   4.7345466909e+01    0.3595253    0.2745945 -79.17  0.001732125    1.098    0.090
       110  -9.4435     22.9496    126.9218   1.2012115089e+02   4.6407622877e+01    0.1801158     0.141746 -84.38 -0.001320134    1.044    0.042
       111  -9.3195    148.2330    119.9317   8.5325285718e+01   2.8385457068e+01    0.2531003    0.1825495 -16.00 0.0007538431    1.914    0.478
       112  -9.6848    185.1593    118.8651   7.6760047921e+01   2.0163015444e+01    0.2183634    0.1872922   0.55 0.0007597538    1.312    0.238
       113 -10.9262     46.4617    120.7377   1.1289476532e+02   4.5591104001e+01    0.5930349     0.342832  74.97  0.002259386    2.258    0.557
       114 -10.2785    113.2555    115.9783   9.3267373306e+01   3.6577890882e+01    0.3182234    0.2173592  39.40 0.0002575463    1.553    0.356
       115 -10.5517    107.9330    112.1024   9.3765297731e+01   3.8485768476e+01      0.53517    0.3841311 -87.23   0.00172151    1.901    0.474
       116 -10.8724    101.9552    109.1039   9.4686378066e+01   4.0286118713e+01    0.6498761    0.5225759  -2.40  0.003198643    1.666    0.400
       117  -9.7487     67.8023    114.2217   1.0563639795e+02   4.4525923254e+01    0.3066887    0.2153696  78.37  0.001537009    1.745    0.427
       118  -9.8361     67.0100    110.5255   1.0510760139e+02   4.5514995661e+01    0.2910251     0.252232  28.84  0.001705889    1.349    0.258
       119  -9.9431     35.8453    113.4573   1.1471993029e+02   4.8414230437e+01     0.376826    0.1965635  74.21  0.001634456    2.835    0.647
       120  -9.2883    126.8566    113.8400   8.9134088141e+01   3.4331227288e+01    0.2367104    0.2148033 -11.84 0.0009333062    1.250    0.200
       121 -11.1308    170.2749    110.4265   7.7763129825e+01   2.5312147623e+01    0.4619142    0.3869628 -36.78  0.001398397    1.187    0.157
       122  -9.7840     94.4471    112.0420   9.7514976624e+01   4.0931559783e+01    0.2927969    0.2385108  41.80   0.00153901    1.314    0.239
       123  -9.7990     48.8064    112.1306   1.1075167029e+02   4.7383487857e+01    0.2446239    0.1956986  28.94  0.001419571    1.504    0.335
       124 -10.4388     91.0446    103.7617   9.6488366551e+01   4.3443450243e+01    0.4178686    0.3686292  14.91  0.001470102    1.324    0.245
       125 -11.3639     79.8508    108.2714   1.0084456401e+02   4.4194049083e+01    0.7065119    0.4204786  39.06  0.002767524    1.830    0.454
       126 -10.3056     85.8662    103.7532   9.8007872278e+01   4.4304799156e+01    0.4169863    0.2595935 -30.51  0.001487002    2.123    0.529
       127  -9.9578    120.7798    108.8750   8.9460808380e+01   3.6696910048e+01    0.4176966    0.3047313 -15.31  0.001818094    1.944    0.486
       128  -9.6047     58.3915    108.2281   1.0718433037e+02   4.7182061758e+01    0.2363704    0.1477375 -68.95 0.0002653261    1.500    0.333
       129 -10.8491    157.8096    106.3353   7.9495292169e+01   2.9071390699e+01    0.5037064    0.3645539  15.93  0.002122459    1.923    0.480
       130 -10.8276    143.6290    106.1039   8.2836795606e+01   3.2380209391e+01    0.4114946    0.3316419  74.45  0.001460268    1.462    0.316
       131 -11.8406    145.4107    100.5954   8.0885332575e+01   3.3138403392e+01    0.5689772    0.4833574 -20.69  0.001815896    1.295    0.228
       132 -10.4892     57.1707     97.8710   1.0537494764e+02   4.9780855483e+01    0.2694922    0.2620461 -15.04  0.001030587    1.184    0.155
       133 -10.4666     57.5931    102.2889   1.0619901502e+02   4.8688810185e+01    0.3633401    0.1919531 -61.33  0.001157607    1.660    0.397
       134 -10.8273     64.4741     99.3391   1.0343472261e+02   4.8501681211e+01    0.2577198    0.2106994  20.99 0.0006438824    1.465    0.317
       135 -10.7786     68.6743     95.4622   1.0121946442e+02   4.8834557136e+01     0.437388    0.3888261  19.17  0.001962588    1.303    0.233
       136  -9.2038     82.2088    102.7493   9.8849229958e+01   4.5124256456e+01    0.1945738    0.1582867 -33.57 0.0004825616    1.324    0.245
       137 -10.2514     52.1131     98.1468   1.0701498405e+02   5.0319633858e+01     0.660719    0.1649007 -52.41  0.002294627    3.142    0.682
       138 -10.4725     50.6446     92.1433   1.0617457398e+02   5.1891135575e+01     0.325265    0.1487038 -53.26 0.0009572049    1.811    0.448
       139  -9.3326    120.8053    101.1866   8.7406632713e+01   3.8403747622e+01    0.2170438    0.1854695 -14.03  0.001030637    1.359    0.264
       140 -10.8331     89.5207     90.1856   9.3386752254e+01   4.6804245470e+01    0.5121202    0.3317233 -37.80  0.001734715    1.571    0.363
       141  -9.3433     91.3628     85.5800   9.1524707457e+01   4.7508797575e+01    0.3512407     0.186165  42.33  0.001497991    2.033    0.508
       142 -11.1163     78.2285     97.1052   9.8665362321e+01   4.7055192319e+01    0.4100924     0.348662  69.63 0.0009631177    1.348    0.258
       143 -10.9395     82.1229     92.6555   9.6326023187e+01   4.7468918993e+01    0.4894362    0.3873249  76.18  0.002025424    1.599    0.374
       144 -10.5431     76.8597     92.8674   9.8014580350e+01   4.8240667931e+01    0.3368422    0.2896731   4.11 0.0008240569    1.379    0.275
       145  -9.9688    210.5623     97.8155   6.6412635437e+01   1.8101727637e+01    0.3341694    0.2811589  38.46  0.001669878    1.269    0.212
       146  -8.8863     45.5369    105.5506   1.1050973892e+02   4.9304780475e+01    0.1327205    0.1112444 -65.01 0.0001612278    1.017    0.017
       147 -11.0124    120.3543     85.3020   8.2974995765e+01   4.1917564504e+01    0.4130298    0.3467228  63.12  0.002069975    1.328    0.247
       148 -10.3077    117.5013     93.1316   8.6060444265e+01   4.0849865051e+01    0.4399365    0.2781495  35.03  0.001417362    1.778    0.438
       149 -10.6140    121.6129     89.1876   8.3785280484e+01   4.0831860355e+01    0.4836207    0.3101248  32.83  0.001560367    1.814    0.449
       150 -10.3231    126.0243     93.4947   8.3845291237e+01   3.8969709269e+01    0.3893314    0.3554733   0.06  0.001307802    1.203    0.169
       151 -10.1925    122.4966     93.5392   8.4808288620e+01   3.9715403417e+01    0.3310482    0.2597822 -35.83 0.0007924559    1.281    0.219
       152  -9.4096    160.4899     93.5070   7.5309292051e+01   3.1027573007e+01    0.4208825    0.2395556  66.39  0.001536476    2.387    0.581
       153 -10.6072    152.8822     91.5078   7.6499860715e+01   3.3249862465e+01    0.6012328    0.3979976  59.74  0.002563725    1.661    0.398
       154 -12.1182    102.0797     89.8757   8.9532119019e+01   4.4613355415e+01    0.6159962    0.4746196 -32.47 0.0004182196    1.344    0.256
       155 -10.1600    105.0357     76.3704   8.4605192393e+01   4.6923715552e+01    0.4135693    0.3809936 -63.51  0.002261888    1.169    0.145
       156 -11.1793    113.3253     84.5721   8.4721483019e+01   4.3541699427e+01    0.6837554    0.3812407 -37.83   0.00198183    1.810    0.448
       157 -11.0001    109.2247     80.6455   8.4705340929e+01   4.5200323253e+01    0.4389115    0.3399415  -9.11  0.001435592    1.603    0.376
       158  -9.1833    137.9508     93.2096   8.0653395232e+01   3.6384593392e+01    0.2731229    0.1849688  18.80  0.001082252    2.174    0.540
       159  -9.7082     66.9457     88.3560   1.0000199488e+02   5.0712169168e+01    0.3166056    0.1949079 -36.41  0.001270617    1.741    0.425
       160  -9.4849     66.1728     74.2114   9.6398094126e+01   5.3977104223e+01    0.2354151    0.2122592  77.82 0.0009025788    1.356    0.262
       161  -9.9950     60.1810     83.2479   1.0090453720e+02   5.2776768187e+01    0.3191011    0.2604571 -26.47  0.001847459    1.307    0.235
       162 -10.6629     46.9065     74.3414   1.0313409265e+02   5.6358713218e+01     0.325573    0.1649509 -55.65  0.000271298    1.665    0.399
       163 -10.3842     67.3073     81.7794   9.8147481072e+01   5.2148790851e+01    0.4391013    0.3385914 -30.14  0.002413078    1.349    0.258
       164 -13.0714     52.5559     73.6420   1.0095820658e+02   5.5866161875e+01    0.5306394    0.2918502 -58.18  0.001009319    1.667    0.400
       165 -11.1715     79.2035     83.1018   9.4637139989e+01   5.0081732979e+01    0.6022798    0.5249907 -78.64  0.002136118    1.304    0.233
       166 -11.3731     73.6065     78.1038   9.5029998218e+01   5.2046461818e+01    0.6494629    0.4494293 -24.66  0.003223626    1.694    0.410
       167  -9.1462    200.2549     88.0053   6.5646115830e+01   2.2302960539e+01    0.2220985     0.202186 -39.68 0.0007350408    1.057    0.054
       168 -10.3964    183.3321     85.4912   6.8156237622e+01   2.6931986269e+01    0.7977191    0.2835473 -48.03  0.002362645    3.393    0.705
       169 -10.4057    165.6240     83.3798   7.1228203733e+01   3.1725375484e+01    0.4451351    0.3489086 -54.74  0.001415632    1.351    0.260
       170 -11.2162    143.0747     84.0624   7.6667680117e+01   3.7057193832e+01    0.4047695    0.3502476  41.43 0.0008466499    1.181    0.153
       171 -10.5403    127.5895     82.9685   8.0307496436e+01   4.0823957052e+01    0.4279407     0.280952 -40.93  0.001596221    1.485    0.327
       172  -9.9058    127.4459     76.9754   7.8488298533e+01   4.2058654175e+01    0.3532147    0.2821532 -59.73 0.0009309871    1.398    0.285
       173  -9.6763    123.9954     73.2154   7.8217953248e+01   4.3566970561e+01    0.3596003    0.2380647  59.07  0.001333202    1.737    0.424
       174 -11.4570    123.9657     68.4732   7.6683586982e+01   4.4483752152e+01    0.7456194    0.5193682  24.45  0.002504906    1.769    0.435
       175 -10.5234    119.9754     68.7655   7.7867043485e+01   4.5313641983e+01    0.3125969    0.2767428 -51.56 0.0007679015    1.179    0.152
       176 -10.4766    232.4021     76.8100   5.7496960269e+01   1.6496977036e+01    0.6422067    0.2858464 -48.48  0.002461446    2.347    0.574
       177  -9.2408    170.3544     77.9706   6.8620877363e+01   3.1544032794e+01    0.2227303    0.2040233 -35.48 0.0005789059    1.085    0.078
       178  -9.7931    175.1061    246.8725   1.0309314028e+02   4.9321585478e-02    0.2633762      0.12894  43.42  0.001439925    1.622    0.383
       179 -10.2027     94.1122     76.5589   8.7980376613e+01   4.8960885654e+01    0.5733004    0.3203535  35.74  0.001720901    1.983    0.496
       180 -10.0856     86.0682     68.0602   8.7837607466e+01   5.2154052959e+01     0.361938    0.2733576  80.83   0.00153829    2.103    0.524
       181 -10.3940     98.8750     61.6855   8.1630890625e+01   5.1050100133e+01    0.5689017    0.3141921 -20.14  0.002104667    2.759    0.637
       182 -11.7165     85.7328     73.7002   8.9742232548e+01   5.1042607829e+01    0.6414977    0.5176357  38.81  0.002200202    1.342    0.255
       183 -10.7110     79.4301     67.5525   8.9862876336e+01   5.3376384641e+01    0.4971915    0.4595055  72.16  0.002168275    1.320    0.242
       184 -11.0925     91.3865     62.5151   8.4269222237e+01   5.2309810951e+01    0.4558557    0.3735983  50.68  0.001749231    1.385    0.278
       185 -11.6746     89.2235     57.3853   8.3184234652e+01   5.3690124720e+01     0.669365    0.5882723   6.78  0.003084425    1.151    0.131
       186  -8.9603     38.2993     78.6294   1.0720782511e+02   5.6289068061e+01    0.1280167   0.09409481  85.88 0.0007030547    1.740    0.425
       187  -9.8344     14.4143     67.2159   1.1317248375e+02   6.0743817634e+01    0.3169591    0.2290196   7.58  0.002079145    1.740    0.425
       188 -11.8637     14.1886     74.4138   1.1471569694e+02   5.9166146640e+01    0.5085068    0.3717483 -46.52  0.002288425    1.220    0.180
       189  -9.5333      8.8668     76.1831   1.1688609319e+02   5.9094085484e+01    0.1708462    0.1147084 -59.20 0.0002972692    1.134    0.118
       190 -10.4990     53.3977     49.5363   9.3160575723e+01   6.0779194643e+01    0.4450196    0.3358836  79.74  0.002296322    2.471    0.595
       191 -10.3624     33.1096     43.3363   9.9221880564e+01   6.4264442962e+01    0.9933043    0.4673162 -23.67   0.00427574    3.066    0.674
       192 -11.7535      2.0167     71.4013   1.1841537178e+02   6.0517525440e+01    0.6269807    0.1437367 -66.66  0.002545898    2.971    0.663
       193 -12.4035      6.5871     62.0547   1.1499436168e+02   6.2325329296e+01    0.6948918    0.4073928 -32.59  0.003154724    1.754    0.430
       194 -12.6352     43.1687     46.4362   9.6129005192e+01   6.2610696014e+01    0.7575039    0.6504895 -76.44  0.001620011    1.590    0.371
       195 -11.9442     21.1889     46.9135   1.0538592639e+02   6.4577996061e+01    0.4794146    0.3023397 -44.61 0.0009326809    1.235    0.190
       196 -11.5301     32.9517     58.8245   1.0408126485e+02   6.1126359796e+01    0.6164944    0.3322955   1.85 0.0003518234    2.811    0.644
       197 -11.6241     27.4917     54.2105   1.0492372547e+02   6.2573408406e+01    0.8570143    0.4997259 -19.43  0.004311873    2.094    0.522
       198 -10.9838     20.1942     54.8662   1.0802119660e+02   6.3007584780e+01    0.3672332    0.2751832   0.10  0.001365566    1.569    0.362
       199 -11.1435     40.9474     56.9658   1.0043486684e+02   6.0732022229e+01    0.4136851    0.3080509  59.09  0.001747182    1.974    0.493
       200 -11.4856     51.0028     61.2739   9.7933983557e+01   5.8707303557e+01    0.3129764    0.2802337 -56.69 0.0004384457    1.191    0.160
       201 -11.4673     46.1278     58.0832   9.8785824848e+01   5.9937349920e+01    0.5536897    0.2898531 -42.08  0.001432871    1.641    0.391
       202  -9.5139    138.8690     77.3620   7.5659656037e+01   3.9357782328e+01    0.2255172     0.140464  39.40 0.0003704734    1.727    0.421
       203 -12.0590    186.5989     70.4493   6.3216140378e+01   2.8748632796e+01    0.9381258    0.6352461 -39.64  0.003023813    1.436    0.304
       204  -9.7764    184.1922     61.4681   6.1023215829e+01   3.0844932777e+01    0.3048975    0.2598748 -30.11 0.0007095669    1.194    0.163
       205  -9.6596    242.0594     75.1507   5.5744967188e+01   1.4561318352e+01    0.2056519    0.1881665  -4.31  0.001185595    1.224    0.183
       206  -8.8814     11.6151     82.7316   1.1710183309e+02   5.7459178532e+01    0.1231187   0.07150939 -41.44  0.000698901    1.701    0.412
       207  -9.1306    150.9996     73.8059   7.1623742905e+01   3.7116424138e+01    0.2635655    0.1742879  27.22   0.00106906    1.971    0.493
       208 -11.5452     40.8396     70.9424   1.0441113779e+02   5.7751315994e+01    0.5344536    0.2549594 -49.32  0.002610508    1.702    0.413
       209 -11.3111     32.4009     72.1157   1.0774493200e+02   5.8293862621e+01     0.475124    0.3067158  27.85  0.002222577    1.855    0.461
       210  -9.6835    162.1586     70.6140   6.8139863232e+01   3.4922003104e+01    0.3008327    0.2397507 -65.80 0.0008792576    1.437    0.304
       211  -9.9081    172.3230     68.3376   6.5334900880e+01   3.2744560013e+01    0.3227204    0.2802021  13.11  0.001072879    1.316    0.240
       212 -10.1988    171.2015     65.6365   6.4739955572e+01   3.3490011282e+01    0.4177246    0.3796625 -19.54  0.002164248    1.152    0.132
       213  -9.4637    114.9772     69.4999   7.9505304754e+01   4.6254364199e+01    0.2273705    0.1491559  45.75 0.0006823216    1.569    0.363
       214 -11.4492    219.8380     66.4225   5.6623015167e+01   2.1102353439e+01    0.6093602    0.3842424  65.22  0.002169093    1.687    0.407
       215  -9.1491    208.5001     68.4861   5.8908604761e+01   2.3557700236e+01    0.2555302    0.1314577  48.84   0.00099741    2.071    0.517
       216 -10.9510     59.0141     63.6475   9.5730150145e+01   5.7203527059e+01     0.644466    0.3719153 -57.17  0.003137206    1.767    0.434
       217 -10.8594     58.0966     77.8250   1.0017364891e+02   5.4259684037e+01    0.3453153    0.2464452 -62.99 0.0005596669    1.385    0.278
       218 -10.7156     21.2778     65.4946   1.1024866172e+02   6.0650695682e+01    0.2589405     0.200655  84.04 0.0007955297    1.624    0.384
       219 -10.5475     25.9784     65.4566   1.0848404728e+02   6.0299136758e+01    0.2157733     0.154278 -53.34 0.0002474624    1.106    0.096
       220  -9.8509    192.6162     65.6698   6.0759010111e+01   2.8009312975e+01    0.2954262    0.2493336 -74.44 0.0008241885    1.269    0.212
       221 -10.2110    106.4056     63.9300   8.0124094527e+01   4.9116899238e+01    0.3158438    0.2754752  -8.14  0.001640258    1.178    0.151
       222  -9.6602    197.8217     62.7666   5.9047471143e+01   2.7152276313e+01    0.3510134    0.2094603 -63.59  0.001287725    2.193    0.544
       223 -11.0673    234.6324     60.9793   5.3178213969e+01   1.8408180921e+01    0.3862106    0.3684224 -33.78  0.001415754    1.112    0.101
       224 -10.4948    159.3600     61.8560   6.6006061258e+01   3.7141124173e+01    0.4920935     0.285984  41.87  0.002007128    1.857    0.461
       225  -9.7102    146.8790     61.1855   6.8554006090e+01   4.0378865641e+01    0.4085108     0.254617  39.38  0.001732422    1.734    0.423
       226 -10.2312    199.1377    243.7329   9.8405774910e+01  -3.3557723313e+00    0.3156612    0.2013287  -4.46  0.001815667    2.169    0.539
       227 -10.6723    109.3334     42.5900   7.1587055199e+01   5.2216226903e+01    0.4271786     0.307645 -18.98  0.001465106    1.442    0.307
       228 -11.2570    113.4665     49.6300   7.3039807641e+01   5.0174243228e+01    0.6483787    0.3833939  34.09  0.002048514    1.884    0.469
       229 -12.6003    119.6720     38.0069   6.7067443756e+01   5.0591479222e+01    0.8167781    0.6010312 -80.89  0.003265687    2.074    0.518
       230 -10.9823    139.5969     44.0747   6.4445435894e+01   4.4929041254e+01    0.7406167    0.4106135  31.79  0.002139122    2.338    0.572
       231 -10.7977    136.4962     56.5847   6.9481445596e+01   4.3693750371e+01    0.8889394    0.5130615  27.85  0.003377111    2.454    0.592
       232 -10.5885    134.3792     50.2708   6.7827253756e+01   4.5242014405e+01    0.4666808    0.3444973 -86.72  0.002103801    1.925    0.481
       233 -11.5611    146.1617     47.2995   6.4088498886e+01   4.2809260224e+01    0.9053761    0.4424478 -20.70  0.003284619    2.649    0.623
       234 -10.6968    146.3567     43.1703   6.2639603131e+01   4.3378534481e+01    0.4959485    0.2571256 -38.67 0.0006799363    1.951    0.487
       235  -9.1390    161.7863     47.8989   6.1040848485e+01   3.8744481831e+01     0.348352    0.2721871 -85.59 0.0009393318    1.509    0.337
       236  -9.6629    162.3871     43.8036   5.9599444689e+01   3.9193230646e+01    0.3219785    0.2588283  66.16   0.00162301    1.236    0.191
       237 -11.3456    155.9465     41.9677   6.0252448048e+01   4.1115888054e+01    0.4242733    0.3888616 -44.63 0.0009797713    1.123    0.109
       238 -11.2608    153.0915     36.1504   5.8868442550e+01   4.2658219993e+01    0.3246633    0.2930204 -51.41 0.0004471927    1.164    0.141
       239 -11.1215    157.3661     55.1258   6.4274756778e+01   3.8753494141e+01    0.6759391    0.5351254  73.82  0.003289255    1.375    0.273
       240 -10.8408    155.6150     49.6538   6.2857769588e+01   4.0059200636e+01    0.5113093    0.3343023 -10.66  0.000809793    1.986    0.496
       241 -12.7092    116.4350     41.6171   6.9269355724e+01   5.0792355292e+01     1.001928     0.700047 -73.47  0.004371347    2.370    0.578
       242 -10.2740    188.1189     55.7812   5.8657309915e+01   3.0730160315e+01    0.2594683    0.2366978  -9.38 0.0004626433    1.205    0.170
       243  -9.9237     66.9885     54.8612   8.9936248000e+01   5.7863092548e+01    0.2855567    0.1788921 -49.17 0.0008177154    1.544    0.352
       244  -9.1627      2.0525     56.4546   1.1555817443e+02   6.3754016932e+01    0.1374979    0.1123583   0.40 0.0003133692    1.521    0.342
       245  -9.6264    249.0041     53.0252   4.9485424490e+01   1.6274473108e+01    0.2238726    0.1689862 -60.73 0.0006011451    1.265    0.209
       246  -9.8040    234.1145     44.9115   4.9181896528e+01   2.0836531642e+01    0.3203362     0.203714 -58.02  0.001050385    1.570    0.363
       247 -10.6759    231.9145     39.7075   4.8120431311e+01   2.2068645969e+01    0.6108738    0.3052004 -70.36  0.001516962    2.850    0.649
       248 -10.3379    244.8872     51.1365   4.9490699884e+01   1.7468599613e+01     0.287009    0.1984028  76.63  0.000853919    1.566    0.361
       249 -10.9568    240.3852     50.3482   4.9812469399e+01   1.8611289938e+01    0.4149985    0.3192012 -39.81  0.001305614    1.186    0.157
       250  -9.4473     66.1768     28.2892   7.9853127224e+01   6.2650743157e+01     0.313555    0.1540572  30.41  0.001437539    2.277    0.561
       251 -10.0387     68.4313     33.0242   8.1030121535e+01   6.1541285792e+01    0.4539585    0.3122832  38.88  0.002486585    1.551    0.355
       252 -11.0958    127.5650    242.5732   1.1111530816e+02   8.2551515001e+00    0.3210827    0.2074119 -76.42  0.001933545    2.061    0.515
       253  -9.2114    163.7764    243.5884   1.0469222734e+02   2.3163321710e+00    0.1748284   0.09083083  48.26 0.0008208572    1.652    0.395
       254 -11.7178     60.5100     36.1539   8.5325721825e+01   6.2248127443e+01    0.3878229    0.2327284 -35.70  0.001113737    1.482    0.325
       255 -11.7453     56.7991     31.0500   8.4671449740e+01   6.3643430289e+01    0.3526546    0.2690566   9.62   0.00138805    1.306    0.234
       256 -11.4194     48.6813     30.4691   8.7741572311e+01   6.4853209918e+01    0.5760594    0.2706589  26.71  0.002212906    2.469    0.595
       257  -9.9287    210.9822     52.9555   5.4282256359e+01   2.5331931487e+01    0.3240813    0.2063492  68.62  0.001152182    1.629    0.386
       258 -11.0489    201.7816     48.1724   5.4292372797e+01   2.8357212296e+01    0.8706779    0.3911913 -35.96  0.003441954    2.093    0.522
       259 -10.2191     90.8766     47.4551   7.9017343881e+01   5.5179272376e+01    0.2852516     0.224665 -34.10 0.0005910255    1.211    0.175
       260  -9.6910      5.7961     42.0024   1.1057207049e+02   6.6568445763e+01     0.358231    0.2253627 -87.73  0.002026767    2.391    0.582
       261  -9.2733      2.2905     48.7991   1.1376455162e+02   6.5352354431e+01    0.2241505     0.194553 -19.34  0.001720837    1.315    0.240
       262  -8.9799      2.5094     45.0096   1.1275934725e+02   6.6123830631e+01    0.2163859     0.116683 -25.88 0.0009628707    1.967    0.492
       263  -9.9683     14.0490     46.4605   1.0826234984e+02   6.5173258402e+01     0.392339    0.1413447 -36.11  0.001756473    2.828    0.646
       264  -9.9960     17.8017     41.7934   1.0528821167e+02   6.5857566208e+01    0.3620267    0.1856785 -28.03  0.001950065    2.048    0.512
       265 -10.7688    174.0645     48.1452   5.8809788844e+01   3.5528738577e+01    0.5752686    0.4247879  88.76  0.002696196    1.577    0.366
       266  -9.5230    176.7025     43.4360   5.6889128024e+01   3.5526450188e+01    0.3130383    0.2167589  80.25  0.001365423    1.608    0.378
       267  -9.1936    132.2471     45.4538   6.6650978898e+01   4.6511498463e+01    0.2802192    0.1338567  49.11 0.0007789543    2.010    0.502
       268  -9.3604    101.3180     44.0021   7.4456702588e+01   5.3688893820e+01    0.2146614    0.1264828 -44.42  0.000962626    1.825    0.452
       269 -11.1688     94.9830     41.3299   7.5362876086e+01   5.5404425582e+01    0.7840306    0.3308344  52.16  0.003032575    2.716    0.632
       270 -10.8862    189.0716     40.8260   5.4089157444e+01   3.2671589643e+01     0.596266    0.2346931 -27.84  0.001587175    2.700    0.630
       271  -8.9595    193.4134     39.2528   5.2973616519e+01   3.1761698628e+01    0.2172724    0.1869935  12.18 0.0005485022    1.395    0.283
       272  -9.2199     86.3737     30.7642   7.3838161928e+01   5.8710594846e+01    0.2287139    0.1934765   9.79  0.000780551    1.096    0.087
       273 -10.5455     80.2243     40.1051   7.9713371277e+01   5.8381720087e+01    0.5659215    0.3926722  39.88  0.003030146    1.503    0.335
       274 -10.9401     77.4157     34.2107   7.8294193398e+01   5.9832646364e+01    0.4387966    0.2703721  38.28 0.0009201848    1.654    0.395
       275 -10.3564     81.6516     31.4796   7.5701936921e+01   5.9490918688e+01    0.4253705    0.2610209 -53.09  0.001957031    2.394    0.582
       276 -11.6137    176.6698     35.5849   5.4468148602e+01   3.6614662774e+01    0.8621584    0.6162788  63.07  0.003149708    1.341    0.254
       277  -9.6426     68.0307    240.4961   1.2147218856e+02   1.7288337891e+01    0.1685023   0.08954458  44.71  0.001028785    1.580    0.367
       278 -10.1421    176.7642     30.0154   5.2729836398e+01   3.7309763110e+01    0.5433621    0.2064383  63.65  0.001830709    2.458    0.593
       279 -10.0762    143.4708    235.5014   1.0737391820e+02   6.8155759540e+00    0.3018924   0.08818185  47.14 0.0009640416    2.920    0.658
       280 -10.3482     22.4085     36.7621   1.0162329260e+02   6.6487946239e+01    0.3700272    0.2099244  35.91  0.001853911    2.270    0.559
       281  -9.6409    206.8013     37.0056   5.0469559048e+01   2.8629648432e+01    0.2429832    0.2051933  77.34  0.000672047    1.156    0.135
       282 -11.1612    138.7088     33.1174   6.0775356008e+01   4.6698042904e+01    0.4838554    0.4675053 -64.83  0.001203608    1.116    0.104
       283  -9.5988    132.9086     36.7723   6.3384299742e+01   4.7626287324e+01     0.345366    0.2286079 -75.51  0.001429264    2.446    0.591
       284  -9.3861     94.5919     36.2161   7.3462738595e+01   5.6284083689e+01    0.2333466    0.1731773  59.43  0.001013772    1.643    0.391
       285 -10.0320      6.0583     36.0538   1.0877535658e+02   6.7740796718e+01    0.3050435    0.2401394   2.71  0.002002472    1.482    0.325
       286  99.0000      6.7508     30.6630   1.0679015888e+02   6.8747690034e+01    0.4585102    0.2485441  -3.59  0.002721085    2.225    0.551
       287 -10.2309    150.3260    237.3377   1.0634035175e+02   5.4142834675e+00    0.2455574    0.1801384   8.98  0.001447233    1.992    0.498
       288 -11.5068     26.3185     27.9862   9.6613591423e+01   6.7775868078e+01    0.4548131    0.3962199   0.59  0.002808951    1.261    0.207
       289  -9.6369    167.4951    237.5164   1.0321468877e+02   2.5739492557e+00    0.1227892   0.09816834  39.08 8.406246e-05    1.008    0.008
       290 -10.9695    198.0701    232.6389   9.6955793750e+01  -1.7647887990e+00    0.2827916    0.2482882  55.95  0.001957022    1.421    0.296
       291 -10.5197    247.2623    231.3331   8.8201004017e+01  -9.2063372613e+00      0.18521    0.1439177  -5.63 0.0007370916    1.207    0.171
       292  -9.5043     23.7330    231.7333   1.2836521536e+02   2.4165658770e+01    0.1525352   0.08448587  66.04  0.001043233    1.334    0.250
       293 -11.2886    240.5008     31.9566   4.5284563915e+01   2.1062799998e+01    0.6180005    0.4052454 -36.42  0.003279524    1.415    0.293
       294  -8.8549    148.2715     35.6387   5.9656108968e+01   4.3956694606e+01     0.151859    0.1102138 -60.63 0.0003116534    1.653    0.395
       295  -9.3809    108.3662    230.1957   1.1328375036e+02   1.3289501831e+01    0.1560048    0.1060706 -83.53 0.0005277636    1.686    0.407
       296  -9.8028     15.0737    233.6156   1.2986013682e+02   2.4735495014e+01    0.1984245    0.1204014  88.80 0.0009508743    1.335    0.251
       297  -8.8009    209.3147    223.3355   9.3466376222e+01  -2.3690580790e+00    0.1276868   0.08379336  11.81 0.0007046923    1.691    0.409
       298  -9.7045    234.2831    222.6038   8.8939148333e+01  -6.2583364489e+00    0.1686681    0.0933158  30.06 0.0009425052    1.550    0.355
       299  -9.3507      9.6370    217.7844   1.2999184022e+02   2.8176323022e+01    0.1477449   0.07293445  85.49 0.0009409614    1.613    0.380
       300  -8.8268    144.6814    214.6882   1.0437483638e+02   1.0023841770e+01    0.1234378   0.09781454  12.72 0.0006734467    1.645    0.392
       301 -10.3778    165.4390    212.5316   9.9988209062e+01   6.7573355634e+00    0.2776148    0.1812045  57.45  0.000909335    1.677    0.404
       302  -9.5984    153.0657    207.8418   1.0170743571e+02   9.7385677476e+00    0.2067548      0.16421  60.08  0.001145689    1.267    0.211
       303  -9.6347     61.0065    206.9747   1.1997113171e+02   2.4464304012e+01     0.185067    0.1405006  70.87 0.0004547217    1.036    0.035
       304  -9.4055    216.3909     32.2290   4.7976755871e+01   2.6842833010e+01    0.2450297    0.1785488  -6.50  0.000824266    1.807    0.447
       305  -9.7408    238.5123    204.4720   8.5019653122e+01  -4.6454907761e+00    0.2478197    0.1148552 -32.38  0.001223117    2.208    0.547
       306  -9.5008    148.5421     31.9907   5.8345885186e+01   4.4371616937e+01     0.216981    0.1898237  55.08 0.0004588774    1.089    0.081
       307  -9.8001    221.6987     29.5994   4.6676190746e+01   2.5864952517e+01    0.2747768    0.1853956 -26.06 0.0007765794    1.584    0.369
       308 -10.3741    189.2184     28.1143   5.0317642548e+01   3.4298534482e+01    0.4762735     0.311596  -1.40  0.002125937    2.164    0.538
       309  -9.0269     35.9889     31.4993   9.3623809050e+01   6.6182979471e+01    0.1471808    0.1035013  54.19 0.0006528119    2.457    0.593
       310 -10.2255    230.6132     27.3361   4.5145354057e+01   2.3984036864e+01    0.4562102    0.2010565 -38.36  0.001869658    2.004    0.501
       311 -10.0483     98.2232     26.8395   6.8543982471e+01   5.6882677538e+01    0.2831325    0.2399548 -19.10  0.001028323    1.156    0.135
       312  -8.9405     41.1349     28.4131   9.0103234503e+01   6.6139516232e+01    0.3673792    0.1193573 -35.53  0.001445937    3.051    0.672
       313  -9.3923     99.6437     30.3152   6.9555881674e+01   5.6108785518e+01    0.2403134    0.1773947  61.98  0.001081706    1.624    0.384
       314  -9.7780    250.5697     26.7151   4.3086159981e+01   1.9422529675e+01    0.2561149    0.1157508 -32.46 0.0006107091    2.036    0.509
       315 -10.4179     16.5492    203.0885   1.2800150687e+02   3.0335640658e+01    0.3760521   0.09158517 -79.43  0.001552437    3.793    0.736
       316  -9.9072    161.5674     23.3133   5.3046508026e+01   4.2086501028e+01     0.244811      0.19176 -27.55  0.000272926    1.351    0.260
       317 -10.5659      4.4100    204.6784   1.3023737491e+02   3.1176142424e+01    0.2354667    0.1200607 -72.41  0.001528631    1.782    0.439
       318 -10.1175     86.0569     23.9188   7.1026462807e+01   5.9734010014e+01    0.2096184    0.1731706 -10.49  0.001238109    1.122    0.108
       319 -12.1667      4.6848    184.5262   1.2910177517e+02   3.5194544378e+01    0.5575891    0.3789715  73.73   0.00304115    1.120    0.107
       320 -10.5575     81.9341     19.1069   7.0239102423e+01   6.1158469788e+01    0.6483936    0.1877013  44.05  0.002211418    3.245    0.692
       321  -8.9590    207.4569    201.4638   9.0069980023e+01   1.0229556946e+00    0.1316793     0.111588  20.03 0.0001995435    1.019    0.018
       322  -8.7445     55.5279     24.5824   8.2373181073e+01   6.4857842319e+01    0.1255569    0.1063291 -11.40 6.658935e-05    1.051    0.049
       323 -10.5043    242.8720     22.2106   4.2715868988e+01   2.1728819649e+01    0.3571926    0.2122159  64.37  0.001255513    1.731    0.422
       324  -9.4402    223.0535     22.4668   4.4690228398e+01   2.6412317484e+01    0.2355609    0.1844624 -47.02 0.0005987593    1.191    0.161
       325  -9.0608    221.1007     19.2025   4.4053013594e+01   2.7278412551e+01    0.1845824    0.1587032 -83.12 0.0002146783    1.062    0.059
       326  -8.8848      1.3138    200.3090   1.3056181652e+02   3.2309000005e+01   0.09402574     0.071477 -66.17 0.0004811646    1.628    0.386
       327 -10.3694    234.5003    197.0076   8.4339529064e+01  -2.9919282943e+00    0.4087294    0.2640629  16.55  0.001914347    1.566    0.361
       328  -8.7296     83.5932    195.8321   1.1429992934e+02   2.3588544308e+01    0.1676624    0.1092311 -85.78 0.0005448849    1.565    0.361
       329  -8.4383    141.3167    194.7079   1.0206238955e+02   1.4226153951e+01    0.1366922   0.09864399  69.73 0.0003840257    1.599    0.375
       330 -10.2946     38.5460     21.5344   8.8271745435e+01   6.7583770002e+01    0.2857769     0.172627 -28.79  0.001064165    1.412    0.292
       331 -10.0186    169.8267    191.5024   9.5641833154e+01   9.5370903313e+00    0.3484691    0.2011377  31.23  0.001098596    1.847    0.459
       332 -11.6204    120.9771     57.6132   7.3817011294e+01   4.7137178785e+01      1.26344    0.7269433  48.63  0.005468876    1.747    0.427
       333  -9.7896    239.9002    184.6104   8.1013254124e+01  -2.1803103847e+00    0.2165937    0.1598123 -11.13 0.0005894133    1.278    0.218
       334 -10.5100    213.5042    182.5446   8.5379566256e+01   2.8226848169e+00    0.3883238    0.2208316 -38.75  0.001896126    1.853    0.460
       335  -9.6489     74.5156     19.5314   7.2928884815e+01   6.2480112328e+01    0.2512407    0.1813744   9.14 0.0008104576    1.372    0.271
       336  -9.3986    249.7663    179.5371   7.8319395967e+01  -3.1353005695e+00    0.2820343     0.141232 -20.40  0.001301614    2.197    0.545
       337  -9.6020     28.0973    176.1436   1.2387029905e+02   3.4769097172e+01    0.2087052    0.1753355 -88.50  0.001502748    1.181    0.153
       338 -10.0708     52.0436    173.7180   1.1853331255e+02   3.2620716204e+01    0.4051449    0.1774762 -88.12  0.001690533    2.876    0.652
       339  -8.9169    230.4482    175.5104   8.0862830588e+01   8.0704703755e-01     0.134937    0.1170061   4.33 0.0001226073    1.005    0.005
       340  -9.0161    224.6585    175.6762   8.1942721917e+01   1.8361951887e+00    0.1439949   0.09682648   8.61 0.0007050873    1.729    0.421
       341  -9.0377     57.3179    174.9913   1.1751840344e+02   3.1681671875e+01    0.1767752    0.1393392 -89.70 0.0004740059    1.072    0.067
       342 -10.0845    211.3445     18.8225   4.4978411650e+01   2.9745134866e+01    0.2331515     0.200094  66.21 0.0002609212    1.186    0.157
       343  -9.1733    194.6035     18.8092   4.6912201517e+01   3.4008857208e+01    0.2180886    0.1808195  80.65 0.0005480785    1.128    0.113
       344 -10.6792    245.5000    200.8026   8.3142549456e+01  -5.2878321136e+00     0.228807    0.1537716  31.97 0.0007377603    1.348    0.258
       345  -9.7213    247.3185    174.0089   7.7618482350e+01  -1.9437367971e+00    0.3820838    0.1517154  28.38  0.001348176    3.816    0.738
       346 -11.9761    114.9812     24.8425   6.3190457469e+01   5.3452061344e+01    0.5211986    0.3112646  59.03  0.001047964    1.715    0.417
       347  -9.8781     39.2514    173.4105   1.2127330077e+02   3.4179141107e+01    0.2211555     0.179517  67.31  0.001399023    1.150    0.130
       348  -9.1019    205.4895     17.4857   4.5263767720e+01   3.1375429477e+01    0.1390574    0.1255407 -81.07 -2.785954e-06    1.006    0.006
       349 -10.4797    186.3881     15.1636   4.6883182762e+01   3.6538341781e+01    0.2593248    0.2214895  75.59 0.0003381924    1.085    0.078
       350 -10.3740     35.3614    170.1070   1.2179654585e+02   3.5332153919e+01    0.3434338    0.1578026 -87.43  0.001667137    2.156    0.536
       351  -9.4557    220.3040     12.5642   4.2432795490e+01   2.8231603150e+01    0.2565947    0.1248189  80.34  0.001130839    2.087    0.521
       352 -10.9482     10.8200    127.2416   1.2327424593e+02   4.7289198573e+01    0.6230581    0.2630164 -66.89  0.002104795    1.798    0.444
       353  -9.1825     94.3111     12.4082   6.3500066758e+01   5.9458594577e+01    0.1634538    0.1250557  58.66 0.0004274083    1.435    0.303
       354 -10.0334      9.0814    156.1278   1.2629173072e+02   4.0900520369e+01    0.2791027    0.1621718 -72.69  0.001743893    1.398    0.285
       355 -11.1986     15.1073    147.8005   1.2424085224e+02   4.2265552456e+01    0.5080432    0.2758416  65.93  0.002225843    1.803    0.445
       356 -11.9904     12.5568    139.2856   1.2404677517e+02   4.4403235092e+01     1.811856    0.6400575  83.81  0.006451823    4.382    0.772
       357 -11.7387      9.6626    166.9283   1.2697717273e+02   3.8489625866e+01    0.5280181    0.3064741 -80.78  0.002290572    1.345    0.256
       358 -11.2162     13.9003    159.0590   1.2547740913e+02   3.9850211965e+01    0.5563993     0.232053 -61.43  0.002443549    2.172    0.540
       359 -11.1699     21.2812    150.6823   1.2308914778e+02   4.1078376271e+01    0.2209763    0.1602718  89.10 0.0002230901    1.094    0.086
       360 -11.6799     24.1846    148.5924   1.2221085738e+02   4.1289893027e+01     0.304766    0.2167345 -72.02 0.0006808287    1.204    0.170
       361  -8.9320    197.9969    168.0148   8.5440591365e+01   8.2060872630e+00    0.1722977     0.158091 -13.93 0.0007363002    1.089    0.081
       362 -10.0229    188.6919    164.8247   8.6647566558e+01   1.0643517363e+01    0.4316244    0.2286099 -27.51  0.001698607    2.441    0.590
       363 -10.0842     18.6939    165.1055   1.2493758059e+02   3.8090713001e+01    0.2340822    0.2245209 -15.43  0.001788748    1.570    0.363
       364 -10.4219     28.0626    162.9385   1.2271701101e+02   3.7678285028e+01    0.4412514     0.196114 -75.24  0.002270774    1.870    0.465
       365  -9.6810     40.3661    162.8829   1.1997026476e+02   3.6404518003e+01    0.3580961    0.1333246 -75.76   0.00155144    2.513    0.602
       366  -9.9870    205.1023    162.9977   8.2994000358e+01   7.6598677872e+00    0.2648562    0.1963716  31.97 0.0006118387    1.316    0.240
       367  -9.4267     79.2924    160.4068   1.1061088821e+02   3.1962783752e+01    0.2453387    0.1527639 -88.93  0.001186888    1.806    0.446
       368  -9.4987    215.2578    158.3560   8.0055276138e+01   6.4278768756e+00    0.2673738    0.1665627 -23.44 0.0008785635    1.743    0.426
       369  -9.1784    223.9722    156.9361   7.8132869012e+01   4.9488935752e+00    0.1726076    0.1540069  -6.69 0.0009616031    1.029    0.028
       370 -10.6687    104.6887    154.2650   1.0349733033e+02   2.9297992036e+01    0.4008949    0.3231117 -73.97  0.002095833    1.216    0.177
       371 -10.8728     31.4776    153.0189   1.2096590998e+02   3.9579816593e+01    0.4468419    0.2663286 -85.21  0.002560075    1.436    0.304
       372 -11.1770     62.9149    150.0884   1.1306831939e+02   3.6640876802e+01    0.4204692    0.3747896  40.14  0.001786452    1.322    0.244
       373 -10.3317     70.6568    151.4453   1.1136451533e+02   3.5277315839e+01     0.358237    0.1621451  53.74 0.0009771613    2.446    0.591
       374 -11.9174      3.7954    147.0955   1.2675151798e+02   4.3311828290e+01    0.6951396    0.3746835 -85.03  0.003623675    1.438    0.305
       375 -10.7873      5.6168    141.7953   1.2590378682e+02   4.4362365012e+01     0.287117    0.1837752  86.54  0.000990312    1.260    0.206
       376 -12.9763      3.9281    137.0959   1.2589656733e+02   4.5540451867e+01    0.3444718     0.196924 -68.42 0.0005475347    1.412    0.292
       377  -9.1623     42.4612    148.4999   1.1785013686e+02   3.9471759661e+01    0.2018446    0.1704021  20.32  0.001292099    1.604    0.377
       378 -11.1675     47.0271    147.0115   1.1655206154e+02   3.9307897814e+01    0.6379365    0.2830602 -71.69  0.002957609    2.003    0.501
       379  -9.6521    239.8404    146.7121   7.3088789388e+01   3.5280404542e+00    0.2319976    0.1765791 -16.30 0.0006107375    1.251    0.201
       380 -10.5152    249.6068    142.1844   7.0463681769e+01   2.3895180642e+00    0.5583411      0.23407 -33.15  0.002332566    2.172    0.540
       381 -10.8389     32.7734    144.4047   1.1971338499e+02   4.1433434473e+01    0.2883507    0.2765378  -2.07  0.001393368    1.444    0.308
       382  -9.8551    214.6421    150.9819   7.8553171322e+01   7.8051144025e+00    0.2731778    0.2158655  52.42 0.0009540453    1.398    0.285
