#   1 NUMBER                 Running object number                                     
#   2 MAG_AUTO               Kron-like elliptical aperture magnitude                    [mag]
#   3 X_IMAGE                Object position along x                                    [pixel]
#   4 Y_IMAGE                Object position along y                                    [pixel]
#   5 X_WORLD                Barycenter position along world x axis                     [deg]
#   6 Y_WORLD                Barycenter position along world y axis                     [deg]
#   7 A_WORLD                Profile RMS along major axis (world units)                 [deg]
#   8 B_WORLD                Profile RMS along minor axis (world units)                 [deg]
#   9 THETA_WORLD            Position angle (CCW/world-x)                               [deg]
#  10 FWHM_WORLD             FWHM assuming a gaussian core                              [deg]
#  11 ELONGATION             A_IMAGE/B_IMAGE                                           
#  12 ELLIPTICITY            1 - B_IMAGE/A_IMAGE                                       
         1 -12.2689    125.5381     28.1586   3.8472080982e+01   5.0528150166e+01    0.6822642    0.5628853 -17.25  0.003348481    1.226    0.184
         2 -11.7708    109.5796     42.0331   4.7846377458e+01   5.2065733728e+01     1.110558    0.5023109 -32.02  0.004522035    2.207    0.547
         3 -12.6233    119.6480     37.3337   4.3370489081e+01   5.0603312164e+01     1.034542    0.5480834 -49.34  0.003746016    2.495    0.599
         4 -12.4940    104.5928     12.9402   3.7791328508e+01   5.7036706889e+01    0.6570013     0.403069 -25.47  0.003386095    1.637    0.389
         5 -11.7119    115.5386      2.7123   3.0897417391e+01   5.5643553892e+01    0.5258427     0.327994  63.69  0.002684939    1.643    0.391
         6 -11.7747    106.0499     20.6855   4.0573317786e+01   5.5816738133e+01    0.4531039    0.3743818 -38.47  0.001565622    1.365    0.268
         7 -12.3819     20.0940     21.8637   7.2684809439e+01   6.8383952755e+01     0.498235    0.2091175 -44.67   0.00193891    1.796    0.443
         8 -12.1000     27.2056     27.8110   7.1772830161e+01   6.6755618954e+01    0.4876606    0.3626674 -23.59  0.001520383    1.166    0.142
         9 -11.6245     35.8588     18.8815   6.4557526511e+01   6.7420045305e+01     0.663641    0.3531637 -40.42  0.003856821    1.574    0.365
        10 -11.4215    183.3640     25.4185   2.6274198916e+01   3.6197186495e+01    0.4948843    0.2892302  49.35   0.00221253    1.668    0.400
        11 -11.6159    145.3573     24.2412   3.2633155679e+01   4.6216131146e+01     1.051944    0.3298907  42.47  0.003222776    3.695    0.729
        12 -11.2114    148.0093     16.1151   2.9250809405e+01   4.6472633007e+01    0.5972562    0.3003553  31.96  0.002358588    2.474    0.596
        13 -11.6703    122.2902      5.6628   3.0578804026e+01   5.3810016895e+01    0.6055477    0.4398553 -45.63  0.001886865    1.666    0.400
        14 -12.3538    136.2433     22.2525   3.3832842704e+01   4.8708120448e+01     1.363082    0.4565911  57.29  0.004866592    2.687    0.628
        15 -12.0839    121.5599     11.7849   3.3140537979e+01   5.3373194343e+01    0.9274614    0.4370262  49.59  0.004113797    1.866    0.464
        16 -12.1287    127.8811     16.1784   3.3407273239e+01   5.1416238098e+01     1.293426    0.3628044  51.71   0.00450035    2.918    0.657
        17 -11.4845    134.6022     14.9721   3.1503587869e+01   4.9929507023e+01    0.5991986     0.363438  49.86  0.002899773    1.480    0.324
        18 -10.4782     88.7037      7.6492   3.9976697422e+01   6.0863702313e+01    0.3226218    0.2080763   5.47  0.001148948    1.631    0.387
        19 -11.1122     91.0476     21.7732   4.5362845952e+01   5.8713281646e+01    0.4556635    0.2621311 -27.27  0.001907536    1.677    0.404
        20 -12.0391     86.4527     14.7368   4.3782341590e+01   6.0481475601e+01    0.9173824    0.5778401 -32.13  0.003648625    1.600    0.375
        21 -11.0964    178.8954     20.9090   2.5569833922e+01   3.7907353116e+01    0.5968724    0.2684685  38.41  0.002059896    2.863    0.651
        22 -13.3226    163.9269     18.9790   2.7372747673e+01   4.2061733271e+01    0.5087702    0.3165816  37.82    0.0010655    1.712    0.416
        23 -12.0070     67.7256     18.0717   5.1538287805e+01   6.3308304900e+01      0.47835    0.4132527  29.52  0.002261158    1.281    0.219
        24 -10.7641     13.9646      8.5753   7.0230999118e+01   7.1061900355e+01    0.3311161    0.1930008 -34.95 0.0007836444    1.283    0.220
        25 -12.3473     16.2130     14.1815   7.1483218461e+01   6.9981965551e+01    0.7536562    0.3309212 -22.22  0.003720916    2.877    0.652
        26 -11.8743     22.8593     11.2723   6.7141781530e+01   6.9896701630e+01    0.4151186    0.2563354  -9.84  0.001991711    1.644    0.392
        27 -11.9689    192.3335      8.3187   1.9905647941e+01   3.5709030626e+01    0.7894719    0.4583021   6.86  0.003099686    2.651    0.623
        28 -12.3984    227.6295     15.2838   1.7812932316e+01   2.5848445311e+01    0.5778587     0.346858 -72.75  0.001841811    1.825    0.452
        29 -12.2190     48.3290     12.9417   5.6687161124e+01   6.6837553510e+01     0.545038    0.2752189  37.47  0.002979211    2.160    0.537
        30 -11.2485    105.9631      2.3693   3.3010613021e+01   5.7813745428e+01    0.4980452    0.3753148  75.65  0.001875911    1.693    0.409
        31 -11.4504    211.8686      9.5860   1.7984451699e+01   3.0483232137e+01     0.635182    0.3688999   5.68  0.002648288    2.861    0.650
        32  -9.8993      5.1973      9.7330   7.5025116126e+01   7.1480571197e+01    0.2919808    0.1113602 -40.23  0.001515094    1.894    0.472
        33 -10.7873    163.3208      7.9697   2.3843384745e+01   4.3364504892e+01    0.6175113    0.2772424  -8.59  0.002290132    3.188    0.686
        34 -10.9396    169.5042      9.3467   2.3344384023e+01   4.1614722680e+01    0.5256761    0.1764221  53.53  0.001099708    2.530    0.605
        35 -11.8546    145.4928      9.5071   2.7385150061e+01   4.7788513024e+01    0.5856126    0.3250012 -20.20 0.0005621032    1.960    0.490
        36 -10.7945    137.5501      4.4893   2.7047044480e+01   5.0243634988e+01    0.3395069    0.2112309  58.45 6.376521e-05    1.432    0.302
        37 -12.3251    132.8799      2.7563   2.7293599049e+01   5.1543760028e+01    0.9311506    0.2970872  63.14  0.003376902    2.852    0.649
        38  -9.8342     62.8999      6.6856   4.8075729701e+01   6.5548842760e+01    0.2246913    0.1726971   8.12  0.001457206    1.119    0.107
        39 -11.9487    247.2713      6.1249   1.3748642262e+01   2.2064553641e+01    0.3893996    0.3324804  38.03  0.002393146    1.479    0.324
        40  -9.7521      1.0000      8.3863   7.6590903717e+01   7.1950827606e+01    0.2355506   0.04597184 -53.79 0.0009394052    3.972    0.748
        41 -10.8442    232.8405      7.5109   1.5342437046e+01   2.5405373493e+01    0.2474232    0.1957247 -75.46  0.001021666    1.158    0.137
        42 -11.7983    237.1805      5.1888   1.4382254858e+01   2.4588490561e+01    0.3022577    0.2417498 -68.18  0.001442599    1.125    0.111
        43 -11.2305    233.2883      2.3561   1.4030327519e+01   2.5835935383e+01    0.2744031    0.2195827 -79.56 0.0002482382    1.120    0.108
        44 -11.5309    184.5981      6.1077   2.0233327740e+01   3.7963250197e+01    0.4693543    0.3119725 -59.77  0.001193389    1.665    0.399
        45 -11.1024    157.8770      3.5887   2.3238645398e+01   4.5184455620e+01    0.5546198    0.3038117 -12.55   0.00250401    2.160    0.537
        46  -9.8547     77.9845      7.4967   4.3236953208e+01   6.2895354356e+01    0.2158611    0.1540965  48.55  0.001269349    1.527    0.345
        47 -11.1180     74.5848      3.6790   4.2572777054e+01   6.3925968722e+01    0.4756155     0.273019  42.96  0.002458072    1.657    0.397
        48 -11.2908    176.8092      5.8217   2.1183522100e+01   4.0039693867e+01    0.3942585    0.2287051  80.10  0.000880881    1.774    0.436
        49 -10.8335     22.5689      4.8345   6.4366772891e+01   7.0902169960e+01    0.2010439     0.150124 -38.53 0.0003726105    1.370    0.270
        50 -10.4415     41.5460      3.8633   5.5217627968e+01   6.8948031996e+01    0.3198282    0.1690604 -14.86  0.001721489    2.016    0.504
        51 -10.7000    218.7900      3.5539   1.5670659192e+01   2.9335259849e+01    0.3198286     0.261746  41.88  0.001299117    1.413    0.292
        52 -11.3739    223.6161      2.3654   1.4904384235e+01   2.8237262237e+01    0.2980536    0.2377047  67.56  0.001039342    1.217    0.178
        53  -9.3400     57.8390      4.2017   4.8770360028e+01   6.6633627608e+01    0.1529106      0.10938   1.90            0    1.234    0.190
        54 -11.5772    206.7278      3.0278   1.6758081190e+01   3.2478620259e+01    0.5318379    0.3109517  82.36  0.002543134    1.660    0.398
        55 -11.3748      2.4175      1.8843   7.3189723794e+01   7.2920205277e+01    0.2573326    0.1488303  -3.93  0.001765698    1.820    0.450
        56 -10.2056    152.2635      1.4223   2.3394651518e+01   4.6816838796e+01    0.3173261    0.1292225  69.25 0.0008630964    2.366    0.577
        57 -10.0793     65.4784     10.3527   4.8859812847e+01   6.4686053890e+01     0.225416    0.1610444  46.39 0.0008767662    1.655    0.396
        58 -10.0392     82.0120      1.3217   3.9112097813e+01   6.2806340180e+01    0.1748427    0.1066132  47.43 0.0003620593    1.575    0.365
        59  -9.7170     13.3633      1.5557   6.7377135306e+01   7.2190388969e+01    0.1752707   0.08956863   6.92  0.001029628    2.331    0.571
        60  -9.5900     74.0694    146.0066   8.4457727481e+01   3.6433858816e+01    0.1873315    0.1518256 -38.22 0.0006157288    1.603    0.376
        61  -9.2847    249.3390    250.3125   6.6457854911e+01  -1.0740296630e+01    0.1168254   0.06452151  19.21 0.0007046192    1.694    0.410
        62 -11.0674     33.1352    144.4275   9.3724886753e+01   4.1628148636e+01    0.2466692    0.1863312  86.01 0.0007124164    1.106    0.096
        63 -10.2854    249.4873    143.4979   4.6546264600e+01   2.2141793503e+00    0.1384144    0.1223934   0.77  0.000747068    1.010    0.009
        64  -9.9777    232.7824    143.2020   4.9345287686e+01   5.6390127577e+00    0.3147689    0.1154085  55.31  0.001040632    3.550    0.718
        65  -9.9338    217.1281    138.8173   5.1195165398e+01   9.6782352282e+00    0.2094699    0.2034998  74.95 0.0005447882    1.184    0.155
        66 -11.4812     12.4411    136.6092   9.7573806115e+01   4.5133688905e+01    0.4304539    0.2499731 -64.59  0.002770234    1.470    0.320
        67  -9.5949     79.3067    137.5021   8.1838649140e+01   3.7585663695e+01     0.240583    0.1112184 -61.24  0.001069819    2.000    0.500
        68  -9.9965     40.3514    137.9814   9.1304617810e+01   4.2312125494e+01    0.2165229    0.1410745  70.84 0.0008837766    1.546    0.353
        69 -10.0108     32.0682    137.6907   9.3207196096e+01   4.3201497660e+01    0.2364014    0.1795003  66.64 0.0009735568    1.283    0.221
        70 -11.2152     21.9030    136.0915   9.5377353362e+01   4.4471879310e+01    0.4003925    0.2830176  71.25  0.001672852    1.335    0.251
        71 -11.1234     30.1117    132.9916   9.3115539425e+01   4.4416485431e+01    0.3660178    0.2372266 -38.37  0.001122924    2.146    0.534
        72  -9.2296     47.3719    135.1488   8.9261462115e+01   4.2188825465e+01    0.1780143    0.1002776 -79.61 0.0006924451    1.668    0.401
        73  -9.9282     73.3470    133.4986   8.2636677691e+01   3.9330947253e+01    0.2378918     0.112231 -61.96  0.001083453    1.924    0.480
        74 -10.0596     39.3048    133.3509   9.0965493301e+01   4.3443849171e+01    0.1836559    0.1587417 -67.52 0.0004809461    1.195    0.163
        75 -10.8661     16.0932    147.8987   9.7812738704e+01   4.2434177270e+01    0.2152252    0.1751943  66.12  0.000700493    1.247    0.198
        76 -10.7326     10.9130    126.8443   9.6966919485e+01   4.7346415477e+01    0.2871718    0.1517215 -65.55  0.001232614    1.507    0.337
        77  -9.1942     92.9879    129.4921   7.6985433081e+01   3.7287712017e+01    0.2019841    0.1071519  61.79 0.0008105099    2.563    0.610
        78 -10.2954     22.9292    126.9693   9.4124061195e+01   4.6372989406e+01    0.1708914    0.1336625 -78.76  0.000316278    1.030    0.029
        79  -9.8902      2.1426    125.9416   9.8917774701e+01   4.8149530043e+01    0.1754211    0.1152702  83.62 0.0006808539    1.296    0.228
        80 -12.7028    103.8626    122.5002   7.2791996386e+01   3.7022282914e+01    0.3060201    0.2996409 -72.09 0.0004405036    1.093    0.085
        81  -9.1766     84.8410    123.3436   7.7876081410e+01   3.9950988929e+01    0.1735439    0.1301977  25.46 0.0001118246    1.681    0.405
        82  -9.5985     50.0344    122.9652   8.6824722021e+01   4.4622351415e+01    0.1904617    0.1386582 -39.87 0.0008598118    1.661    0.398
        83  -9.4686     56.3340    121.9803   8.5041919503e+01   4.4119891768e+01    0.1813767    0.1415725 -71.66 0.0004136377    1.095    0.087
        84  -9.9118     48.8661    112.1866   8.5379815704e+01   4.7178201339e+01    0.2847923    0.1557756 -62.65  0.001504722    1.527    0.345
        85 -10.0504     44.6864    120.3131   8.7793694624e+01   4.5797750479e+01    0.1980605     0.154514 -87.42  0.000833827    1.168    0.144
        86 -10.2515     43.8012    116.7870   8.7480217908e+01   4.6681741965e+01    0.2495047     0.234743  58.07  0.001510837    1.246    0.198
        87 -10.3684      7.1733    114.6441   9.6584372246e+01   5.0240139620e+01    0.3631704    0.1237409 -67.28  0.001683491    2.097    0.523
        88 -12.0581      2.4367    112.0413   9.7480933236e+01   5.1102302863e+01    0.4360922    0.1896745 -75.42 0.0005796646    1.741    0.426
        89 -11.1951      4.2488    104.9190   9.6232887446e+01   5.2522776135e+01    0.3226557    0.2477672  38.09  0.002405311    1.625    0.384
        90  -9.6424     79.0826    114.7186   7.7681352440e+01   4.2759379016e+01    0.2366381     0.173747 -68.82  0.001257888    1.293    0.226
        91 -12.1976      7.1920     89.1283   9.3396515207e+01   5.5747122299e+01    0.7047862    0.4452933  23.37 0.0009175194    2.064    0.516
        92 -10.5128     34.7160    103.7419   8.7848996644e+01   5.0485517500e+01    0.5756876    0.2644643  16.00  0.002611553    3.641    0.725
        93 -11.9869     17.4243    101.1477   9.2230086391e+01   5.2469130907e+01    0.3648535    0.3252783  59.24  0.000951235    1.324    0.244
        94 -11.8050      9.4835     97.5038   9.3908548266e+01   5.3800129884e+01    0.4233733    0.3276875  80.73 0.0005128664    1.310    0.237
        95 -11.9781     24.9364    107.6752   9.1122805036e+01   5.0456897355e+01    0.7154095    0.4047918 -51.68  0.004201861    1.640    0.390
        96 -11.3142     28.1785    113.1115   9.1034238170e+01   4.8982338717e+01    0.3891618    0.2610932  12.23  0.002373543    2.181    0.542
        97 -11.8292     22.4726     94.4549   8.9806951161e+01   5.3561277483e+01    0.2785597    0.2426904 -51.81  0.000677665    1.206    0.171
        98 -12.0535     18.2225     90.6532   9.0430937934e+01   5.4703179796e+01    0.3420219    0.2181206 -69.74 0.0005003446    1.240    0.194
        99  -9.4789     93.9657    112.5118   7.3209744458e+01   4.0939695784e+01    0.2027968    0.1389505  42.53  0.000815401    1.547    0.354
       100  -9.7705     66.1434    110.8153   8.0420217009e+01   4.5427445567e+01    0.1772516    0.1469892 -39.97 0.0005252108    1.323    0.244
       101  -9.6330    170.7750    110.1634   5.3591793417e+01   2.5561866790e+01    0.2156083    0.1853808   6.14 0.0004955832    1.341    0.254
       102 -10.1642    102.4552    108.4587   7.0000088081e+01   4.0390392138e+01     0.401723    0.2218138 -34.23  0.001511157    2.410    0.585
       103 -11.2488     79.6869    108.0671   7.6124963909e+01   4.4170181824e+01     0.441327    0.2942073  29.63  0.001055853    1.803    0.445
       104  -9.5277    143.2057    106.1238   5.8927045514e+01   3.2718197151e+01    0.2156675    0.1830124 -78.51 0.0008604766    1.348    0.258
       105 -10.5792     15.5381    109.2497   9.3820412485e+01   5.0833013698e+01    0.2836736    0.1629772  60.46   0.00167835    2.004    0.501
       106 -10.8060     50.6012    100.2337   8.2728504445e+01   4.9673075625e+01    0.7552274    0.3081626 -39.84  0.002920865    3.465    0.711
       107 -10.1174    145.7094    100.1735   5.6732642305e+01   3.3374398837e+01     0.339257    0.2024904 -33.73  0.000984234    1.837    0.456
       108 -11.3734     21.4627    114.5563   9.2968539607e+01   4.9219142872e+01     0.373421    0.2522079  -6.53  0.001477709    2.418    0.586
       109 -10.6916     80.8075     98.1993   7.3584893548e+01   4.6208461268e+01    0.2351206    0.1904722  73.46 0.0005937393    1.443    0.307
       110 -10.3960     82.9704     93.0995   7.1725533298e+01   4.7004270955e+01    0.2069032    0.1989669  34.51 0.0003168368    1.148    0.129
       111 -10.9195     77.7380     92.6339   7.3142484097e+01   4.7892829654e+01     0.407059     0.375141  29.46  0.002502294    1.219    0.180
       112 -11.3803     68.8737     95.7133   7.6469247236e+01   4.8456119439e+01    0.3608553    0.2845985  12.80  0.001829859    1.620    0.383
       113 -10.4877     49.2262     90.9561   8.1266372273e+01   5.1886738509e+01    0.2531469    0.2038151  69.25  0.001573982    1.457    0.314
       114 -11.0856     31.0276     95.6990   8.7546550549e+01   5.2595486343e+01     0.327924     0.242499  87.85  0.001328415    1.416    0.294
       115 -11.1329     35.0412     92.2015   8.5749170244e+01   5.3014260877e+01    0.6920494    0.3918357 -82.16  0.003582912    2.031    0.508
       116 -11.4865     44.0888     85.4334   8.1665312451e+01   5.3638260094e+01    0.4649773    0.4552068 -31.61  0.002476066    1.193    0.162
       117 -10.0940     37.1381     85.7319   8.3869684768e+01   5.4244347113e+01    0.2392423    0.1728009  36.17  0.000838169    1.656    0.396
       118 -10.7232     24.6945     86.4820   8.7806602671e+01   5.5133054872e+01    0.4295452    0.2338046 -79.79  0.002300747    1.933    0.483
       119 -10.4117     28.9580     84.5079   8.6144952815e+01   5.5223492118e+01    0.4073045      0.20517 -63.91  0.001794114    1.594    0.373
       120 -10.6189     42.7028     94.7290   8.3963828950e+01   5.1727893170e+01    0.3039118    0.2348337 -60.66  0.001177682    1.071    0.067
       121 -11.0777    125.8101     94.6896   6.0246448189e+01   3.8844776239e+01    0.2693302    0.2516184 -34.96 0.0002039618    1.070    0.065
       122 -10.0806    121.7049     93.4827   6.0995261641e+01   3.9946017004e+01    0.2753111    0.2060247 -51.93 0.0009553083    1.337    0.252
       123 -11.2239     98.3459     91.0956   6.6775875015e+01   4.4905203478e+01    0.2350779    0.2301346  45.83 0.0001791139    1.089    0.082
       124 -11.8722     89.2882     89.7904   6.9040291462e+01   4.6722259795e+01    0.4016731    0.2765876 -41.80 0.0004303826    1.396    0.284
       125  -9.9537     65.9239     88.8543   7.5754748203e+01   5.0361184995e+01    0.3041575    0.2065778  -7.86  0.001494756    2.299    0.565
       126  -9.9653    104.0951     87.6794   6.4215673443e+01   4.4596762167e+01    0.2894844    0.2015276 -39.18  0.001412914    1.412    0.292
       127 -10.6105    143.2457     84.4304   5.2892573110e+01   3.7066779915e+01    0.2664471    0.2523561 -38.29 0.0003815024    1.053    0.050
       128 -10.6880    113.4166     83.1672   6.0323208227e+01   4.3749659322e+01    0.4541268      0.31462 -68.08    0.0020358    1.928    0.481
       129 -10.6592     80.2809     84.0173   7.0192244174e+01   4.9385358345e+01    0.3747659     0.298426 -38.16  0.001832934    1.208    0.172
       130 -11.5148     74.8382     78.3974   7.0350479432e+01   5.1390929810e+01    0.5837645     0.497072  69.86  0.003428528    1.442    0.306
       131 -10.0995     66.9643     81.6658   7.3665053039e+01   5.1787302726e+01     0.322559    0.2590216 -13.67  0.001875388    1.484    0.326
       132 -11.7433     53.3976     76.6063   7.6687910286e+01   5.4550066287e+01    0.5735047    0.4646483 -68.53  0.003523099    1.247    0.198
       133 -11.1206     58.2738     77.8412   7.5432931214e+01   5.3712331519e+01    0.3693941    0.2686739 -66.33 0.0006648029    1.392    0.281
       134 -11.5114     14.1069     74.9423   8.9016348884e+01   5.8361485203e+01    0.5373993    0.2874843 -75.54   0.00305912    1.755    0.430
       135 -10.3903     13.8069     67.5642   8.7718651274e+01   5.9938602249e+01    0.3021135    0.1672792  16.96  0.001827743    2.351    0.575
       136 -10.4224    233.7697     77.6077   3.3217489937e+01   1.5861969615e+01    0.2019248    0.1425886  74.98 0.0009493408    1.655    0.396
       137  -9.1885    126.9954     76.9615   5.4795946325e+01   4.2163391080e+01    0.1794505    0.1707634  37.37 0.0003346151    1.065    0.061
       138 -10.4655     94.9658     76.5213   6.3675647719e+01   4.8559102458e+01    0.4139844    0.2238982  49.25  0.001485185    2.129    0.530
       139 -11.3824     81.4689     59.7775   6.2676698315e+01   5.4154512772e+01     1.042679    0.5133281  48.75  0.004506948    2.540    0.606
       140 -11.4336     79.4194     68.0667   6.5937001633e+01   5.2842760505e+01     0.792423    0.5001463 -75.24  0.003281154    3.008    0.668
       141 -11.8436     84.8494     73.5686   6.5874767417e+01   5.0865758253e+01    0.7177379    0.4095484  39.20  0.003414479    1.909    0.476
       142 -10.1100     92.0032     71.9789   6.3209095342e+01   4.9996722054e+01    0.2319286    0.1934044  48.80 0.0004399089    1.336    0.252
       143 -12.3621     75.0936     53.5457   6.2709046777e+01   5.6336938812e+01     0.740357    0.5127986  -6.10  0.001390279    1.821    0.451
       144 -11.4127     72.8004     47.7998   6.1504973066e+01   5.7745096056e+01    0.3220073    0.2948445  38.86  0.001009964    1.290    0.225
       145 -10.9155    249.0360     75.8474   3.0584614222e+01   1.2559026160e+01      0.24233    0.1614137 -74.57  0.001099132    2.053    0.513
       146  -9.9846    104.1557     74.8158   6.0465281134e+01   4.7232588971e+01    0.2165616    0.2017494 -86.04  0.001005161    1.227    0.185
       147 -10.4080     24.6481     73.9249   8.5424185197e+01   5.7844291729e+01    0.2613778    0.1790709 -61.89   0.00107189    1.165    0.142
       148 -11.5499     29.0689     72.0000   8.3568318914e+01   5.7906501498e+01     0.669923    0.2189565  21.64  0.002825328    4.191    0.761
       149 -11.5701     41.0500     72.9465   7.9826120530e+01   5.6635958375e+01    0.4913195    0.2956369  33.95  0.002323891    1.970    0.492
       150 -10.9285     40.3049     69.3112   7.9196532370e+01   5.7477634652e+01    0.2345222    0.1902407   8.37  0.000820186    1.482    0.325
       151 -11.3779    187.0925     71.0298   3.9337645282e+01   2.8630612155e+01    0.6786371    0.3991809 -35.21  0.002544756    1.698    0.411
       152 -12.5708      6.2740     62.1355   8.9201125017e+01   6.1503968198e+01    0.5809058    0.3827974 -18.23  0.002591673    1.857    0.462
       153  -9.0334    165.3419     83.6836   4.7514028834e+01   3.1915478760e+01    0.1626954    0.1245524 -78.05 0.0007048486    1.711    0.415
       154  -8.7474    153.6830     72.6569   4.6864416562e+01   3.6786627210e+01    0.1626725    0.1215466  13.90 0.0007048739    1.715    0.417
       155 -11.1776    123.0160     68.8762   5.3336390570e+01   4.4566403636e+01    0.4635383    0.3117374  38.28  0.001384322    1.552    0.356
       156  -9.6898     46.0864     70.0112   7.7432131986e+01   5.6749249611e+01    0.1935091    0.1468132  74.99 0.0006148666    1.844    0.458
       157 -10.9711    219.9187     66.7173   3.2468371548e+01   2.0929359111e+01    0.5041884    0.2967332  65.17  0.001968758    1.798    0.444
       158 -11.1651     59.0040     64.4037   7.1558231164e+01   5.6435056197e+01     0.507708    0.2226137 -53.29  0.002290142    2.057    0.514
       159 -11.0889      2.0865     71.6388   9.2271275967e+01   5.9740462226e+01    0.3341468    0.1444768 -64.46  0.001250807    1.647    0.393
       160 -11.3366     91.5580     62.7280   6.0445327605e+01   5.1896043017e+01    0.5978303    0.3505459  49.44  0.002786403    1.982    0.496
       161 -10.2993     91.6695     57.1519   5.8565813351e+01   5.2929179733e+01    0.2584405    0.2058099  49.40 0.0006510024    1.430    0.301
       162 -10.6692     87.7208     56.1828   5.9480423943e+01   5.3796921425e+01    0.5526945    0.2080215 -38.63  0.002106484    2.559    0.609
       163 -12.6167     26.6093     56.1504   8.0677960934e+01   6.1399890659e+01     1.644199    0.8031582   3.96  0.007928483    3.340    0.701
       164  -9.6569     51.3162     56.4150   7.1861338054e+01   5.8962221021e+01    0.3151321    0.2303887  -5.62 0.0008853395    1.614    0.380
       165 -11.0572     51.8446     48.3436   6.9132382739e+01   6.0469283209e+01    0.4914413    0.2325298  28.66  0.002402464    2.471    0.595
       166 -11.4325     40.9737     57.0265   7.5729508170e+01   5.9945847496e+01    0.3738118    0.2491067  32.70  0.001650545    1.787    0.440
       167 -10.7855     39.5988     43.7807   7.2235418948e+01   6.2673410316e+01    0.3141825    0.2137149 -15.27  0.001102502    1.613    0.380
       168 -10.9026     51.9190     61.7647   7.3221551372e+01   5.7818540617e+01    0.3259898    0.2181898  47.78  0.001177997    1.937    0.484
       169 -11.6173     43.4386     62.3471   7.6327949173e+01   5.8616036636e+01    0.2964577    0.1956735 -51.14 0.0005698671    1.248    0.199
       170 -10.8069     46.4954     59.0256   7.4332901595e+01   5.8973689304e+01    0.3718424    0.2070393 -62.35 0.0009519111    1.927    0.481
       171  -9.7841    158.4794     62.9151   4.2758055050e+01   3.7292979407e+01    0.4904358    0.1493332  42.82  0.001323752    4.131    0.758
       172 -11.6209    234.9384     60.8560   2.8730278656e+01   1.8091928432e+01     0.436571    0.3506701  59.68  0.001748042    1.284    0.221
       173 -11.7371    117.2464     55.2772   5.0412913231e+01   4.8257645890e+01     1.350483    0.7337593 -61.58    0.0044778    3.875    0.742
       174 -10.6132     50.7946    249.6176   9.9009440273e+01   1.9474235848e+01    0.1533916   0.06360008  52.88  0.000955387    1.730    0.422
       175  -8.9400    229.6447    248.2681   6.9344009261e+01  -7.5752474016e+00    0.1040656    0.0780399  51.47  0.000362917    1.633    0.388
       176 -12.0377    117.8428     44.1195   4.6326296186e+01   4.9972283424e+01    0.5677656    0.5532182 -64.50  0.002227088    1.182    0.154
       177  -9.8584    174.7063    246.5508   7.8342159080e+01   1.4970110185e+00    0.2330778   0.08886319  41.06  0.001132678    2.056    0.514
       178 -10.7305    106.2105     58.6296   5.4679802895e+01   4.9932986514e+01    0.3497371    0.2507536  79.80  0.001557044    2.361    0.576
       179  -9.8272    135.8703     57.7019   4.6362591659e+01   4.3667444992e+01    0.2865064    0.1759717 -16.92 0.0006580097    2.084    0.520
       180 -10.3560    157.4248     54.9514   4.0457009169e+01   3.8861029685e+01    0.4437155      0.30576 -62.75  0.001921843    1.891    0.471
       181  -9.6505    113.5780     60.7365   5.3278268716e+01   4.8061054138e+01    0.2833426    0.1385019 -35.29  0.001138501    2.043    0.511
       182 -11.5614     44.1796     43.9789   7.0551859746e+01   6.2159110709e+01    0.4346474     0.325357 -47.90 0.0003097059    1.217    0.178
       183  -9.7703     67.1597     54.9512   6.5867036385e+01   5.7231566453e+01    0.1953911    0.1671059 -52.57 0.0007811636    1.239    0.193
       184 -10.2079      8.1230     54.7191   8.7032848522e+01   6.2923641907e+01    0.2187209    0.1741318 -86.75  0.001588863    1.447    0.309
       185 -11.5921     60.7929     47.7871   6.5705998180e+01   5.9452847533e+01    0.7971343     0.297634 -43.23   0.00340969    2.315    0.568
       186  -9.9302     58.0237     42.0000   6.4689441596e+01   6.0876078201e+01    0.2911379    0.1272233  41.47  0.001328693    2.749    0.636
       187 -10.7177    145.8776     48.1073   4.0767610905e+01   4.2812985380e+01    0.6282093    0.2675734 -22.07  0.002059402    3.228    0.690
       188 -10.9122    245.0176     51.4952   2.5042344950e+01   1.6995523740e+01    0.2067491    0.1378435  67.68 0.0005892305    1.563    0.360
       189 -10.5168    240.2130     50.8083   2.5463386550e+01   1.8241180079e+01    0.1949486    0.1705853  18.30  0.001077893    1.365    0.267
       190 -10.1370    201.5243     48.9867   3.0424791376e+01   2.8286992986e+01    0.2778067    0.2246272   1.16 0.0007177414    1.489    0.328
       191  -9.9710    199.7052     44.9803   2.9557152402e+01   2.9330792806e+01    0.4631113    0.2089416  81.81  0.001346791    4.198    0.762
       192 -10.3088    173.5900     48.7191   3.5195446883e+01   3.5658539598e+01    0.6251609    0.1861873  55.32  0.001962417    2.998    0.666
       193  -9.6365      1.9092     49.0892   8.8082763256e+01   6.4376204845e+01    0.1568791    0.1300423 -72.84 0.0007906496    1.256    0.204
       194 -11.4951     20.8165     45.9560   8.0136325049e+01   6.3872328515e+01    0.3391391    0.1892628 -48.43 0.0008016386    1.357    0.263
       195 -10.4600     26.4778     43.0385   7.7096103623e+01   6.4005561416e+01    0.1992873    0.1569301 -18.58 0.0007612942    1.280    0.219
       196 -10.2342     12.9892     47.2734   8.3486437446e+01   6.4135500334e+01    0.3048252    0.1284339 -44.89  0.001670757    1.845    0.458
       197 -10.0621    105.9019     63.8226   5.6493862382e+01   4.9033705296e+01    0.2304339    0.1944721   1.48  0.001236768    1.280    0.219
       198 -10.1167    138.3081     44.4264   4.1266480587e+01   4.5216434738e+01    0.4330069    0.2415066  25.76  0.001519223    2.607    0.616
       199 -10.1051    133.8307     45.6606   4.2769859441e+01   4.6095300954e+01    0.2629896    0.1898254  41.29 0.0005270145    1.357    0.263
       200  -9.0274    101.3185     44.6625   5.1211182753e+01   5.3316280095e+01    0.1368116    0.1123367 -70.28 0.0007049206    1.705    0.413
       201 -10.4223     32.1287     44.4202   7.5315400400e+01   6.3259431932e+01    0.3107258    0.1679544  18.64  0.001740414    2.267    0.559
       202 -10.7192     34.0716     41.3782   7.3602888857e+01   6.3661921975e+01    0.2696666    0.1426137  15.13  0.001446243    2.422    0.587
       203 -10.7942    155.7885     42.1994   3.6633269662e+01   4.1207543433e+01    0.3237578    0.2989179   3.63  0.000890923    1.121    0.108
       204 -11.1748      4.7029     36.0309   8.3839762545e+01   6.6793531825e+01    0.2791583    0.2316473 -11.48  0.001102749    1.367    0.268
       205 -10.6411     92.8561     41.3008   5.2546016150e+01   5.5482316640e+01      0.42743    0.2452314  40.07  0.002054913    1.782    0.439
       206  -9.8411     17.4597     41.8410   8.0300746501e+01   6.4909782162e+01    0.2097235    0.1249571 -21.62 0.0009538911    1.851    0.460
       207 -11.2074     78.3674     37.1694   5.5684882936e+01   5.8698548540e+01    0.4790614    0.3348472 -67.96  0.001671694    2.711    0.631
       208 -11.0106     79.8040     32.7895   5.3488133930e+01   5.9158391829e+01    0.5517665    0.4559108   3.48   0.00335868    1.137    0.121
       209 -10.0883    231.3281     38.2383   2.3331527002e+01   2.2118870207e+01    0.3408596    0.1713312 -29.87  0.001460844    1.977    0.494
       210 -10.5314     67.8687     32.1851   5.7395744635e+01   6.1168765956e+01    0.4480146    0.3762392 -68.92  0.002362099    1.833    0.454
       211 -10.2253     42.9916     28.0324   6.5278725819e+01   6.5137323720e+01      0.17848    0.1414299 -24.75  0.001201453    1.008    0.008
       212 -11.3274     48.3548     30.7534   6.4190600225e+01   6.4052681505e+01    0.5790483    0.2582995  25.98  0.002732302    2.712    0.631
       213 -11.3826     60.7517     36.3528   6.1606176947e+01   6.1502472798e+01    0.4055957    0.2533976 -31.44  0.001234642    1.424    0.298
       214 -12.2936     57.6939     30.6177   6.0527288581e+01   6.2881846386e+01    0.4343001    0.3086724 -26.40  0.001250287    1.215    0.177
       215 -10.4782     22.5893     37.2725   7.6885417294e+01   6.5409332386e+01     0.396189    0.1829675  39.84   0.00206316    3.082    0.676
       216  -9.1158    183.6690     38.2869   3.0165593061e+01   3.4480104226e+01    0.1543114     0.112615 -70.81  0.000701356    1.619    0.382
       217  -9.8768    133.0493     37.1565   3.9957075280e+01   4.7538529857e+01    0.3332681    0.2285154 -80.97  0.001407834    2.429    0.588
       218  -9.2929    206.4956     37.4432   2.6385876220e+01   2.8575755852e+01    0.1456631     0.138724  80.30 0.0003646124    1.026    0.026
       219 -10.8063    153.1173     36.2717   3.5198833933e+01   4.2715527591e+01    0.6369849    0.3625232   1.83  0.001782156    2.921    0.658
       220  -9.9616    168.9525     23.8450   2.8108143870e+01   4.0188662526e+01     0.382478    0.1712082  52.23  0.001515197    2.028    0.507
       221 -12.0156    160.0149     29.8973   3.1696726283e+01   4.1781779437e+01    0.4981866    0.4479769  16.14 0.0005064709    1.166    0.142
       222 -11.7646    164.2975     27.6625   3.0166989031e+01   4.0947607740e+01    0.3114688    0.2984093 -55.34 0.0004583548    1.107    0.097
       223 -10.0877    176.7174     35.7756   3.0573871082e+01   3.6651282501e+01    0.2752772    0.2221885 -63.75 0.0008365493    1.367    0.269
       224  -9.6403     94.1193     35.8801   5.0089645971e+01   5.6105528056e+01    0.1957488    0.1833002 -55.42 0.0007161377    1.326    0.246
       225 -10.5697    240.0532     33.2526   2.1045661403e+01   2.0614329912e+01    0.2814034    0.2517234 -67.08  0.001663333    1.023    0.022
       226 -11.9623    126.8308    241.8388   8.6003700343e+01   9.9705092216e+00    0.3085241    0.2364731  63.47  0.001681957    1.129    0.115
       227 -10.9227     74.1738    238.1617   9.4527768556e+01   1.8337704454e+01     0.386463      0.17577  50.82  0.002316652    1.671    0.401
       228 -11.2929    147.0789    237.9188   8.2053620063e+01   7.2641678084e+00    0.4007385    0.2323409  56.81   0.00233726    1.569    0.363
       229 -11.7385    107.1196     31.5060   4.4561934895e+01   5.4153944366e+01    0.6038105    0.3397181   5.61  0.002309012    3.024    0.669
       230 -12.2576    113.7182     25.2031   4.0319734524e+01   5.3587265538e+01    0.6971847    0.3439808  46.53  0.001976229    1.892    0.472
       231 -10.2186     11.2642     30.6515   7.9544553863e+01   6.7432073101e+01    0.2646622     0.149558 -37.51  0.001103451    1.422    0.297
       232 -10.0227      6.9954     30.4952   8.1318723359e+01   6.7713985269e+01    0.2554161    0.1271033 -15.47   0.00144793    2.517    0.603
       233 -10.1118     98.9794     30.3080   4.6439579259e+01   5.5988440972e+01    0.3284844    0.2376846 -68.58  0.001560579    2.402    0.584
       234  -9.5519     86.1371     30.8241   5.0618151577e+01   5.8350806045e+01    0.1941551    0.1772902 -23.12  0.001051364    1.167    0.143
       235  -9.6792    167.5295    238.4836   7.8547387369e+01   3.7603676625e+00    0.1210597   0.09359168  45.37 0.0001111599    1.007    0.007
       236  -9.4714    199.4464    234.7876   7.2470840774e+01  -1.1617870730e+00    0.1426305    0.1099937  -7.76  0.000654032    1.578    0.366
       237  -9.2631     15.3793    233.8091   1.0349836111e+02   2.6029644080e+01    0.1268733   0.07171012 -75.41 0.0009432065    1.718    0.418
       238  -9.4548    230.0194     30.5559   2.1492750971e+01   2.3430810530e+01    0.2049691    0.1324279  69.26 0.0003721399    1.517    0.341
       239 -10.4184    197.8763     29.4751   2.5331642641e+01   3.1861755144e+01     0.337909    0.2531591  62.64  0.001713606    1.265    0.209
       240 -10.9236    189.0061     27.8122   2.6141243313e+01   3.4412573873e+01    0.3985993    0.3191464  14.11  0.001691938    1.498    0.333
       241 -10.0692    197.3210    232.3036   7.2477613945e+01  -4.9048879590e-01    0.1216923   0.08036727  21.59 0.0007029028    1.632    0.387
       242 -11.6622    152.0007     25.7342   3.1827200627e+01   4.4356212823e+01    0.7107624    0.3228646  41.00  0.002485675    2.376    0.579
       243 -11.3980     67.6825    240.9311   9.5792163672e+01   1.8745961099e+01    0.2738024    0.1589841  37.87  0.001524377    1.979    0.495
       244 -10.5115    246.9968    231.0151   6.3821475290e+01  -8.4885425148e+00    0.1581135    0.1370182  50.79 0.0007551205    1.648    0.393
       245  -9.1831     75.3282    224.6721   9.3227573128e+01   2.0473385468e+01    0.1221646   0.06573977  68.11 0.0007050816    1.705    0.414
       246  -9.4300    234.2879    223.6491   6.4739710355e+01  -5.6578456064e+00    0.1030261   0.09406719  65.97  0.000613559    1.665    0.399
       247  -9.3362     22.4900    223.5194   1.0189073731e+02   2.7062129779e+01    0.1052457   0.06992824  72.67 8.146728e-05    1.036    0.035
       248  -9.4025    153.2867    219.3263   7.8557427919e+01   9.0171397810e+00    0.1164616   0.09282033  17.94 0.0003697276    1.609    0.378
       249  -8.7932    120.3245    219.7061   8.4685762782e+01   1.4551959634e+01    0.1259571   0.07864968  66.98 0.0007019108    1.619    0.382
       250 -10.8954    241.2338     26.3284   1.9191111710e+01   2.1190234062e+01    0.2441605    0.1902815 -44.79 0.0009300316    1.202    0.168
       251 -10.1504    230.4856     26.9073   2.0496263977e+01   2.3766182177e+01    0.2046306    0.1344541 -30.55 0.0007994416    1.539    0.350
       252 -10.2243    164.6998    211.9891   7.5383543496e+01   8.1359388748e+00    0.2242216    0.1583272  45.44 0.0006173679    1.171    0.146
       253 -10.3886    153.1274    207.3760   7.6894332074e+01   1.0970161920e+01    0.3029904     0.212615  86.18  0.001623605    2.008    0.502
       254  -9.0003     61.4843    206.5231   9.4099622597e+01   2.5616668745e+01     0.116291   0.08768583  73.00 0.0008100241    1.006    0.006
       255 -10.0594     59.7074     23.6918   5.6931122661e+01   6.3699873777e+01     0.216979    0.1438476 -30.56 0.0004624305    1.319    0.242
       256 -10.2031     13.8077     23.4874   7.6080431523e+01   6.8563985774e+01    0.1820674    0.1187437 -44.78  0.000326162    1.173    0.147
       257 -10.4933    139.3445    199.0040   7.8339921451e+01   1.4888118657e+01    0.2525626     0.164274  63.32  0.001340746    1.593    0.372
       258  -9.5147    223.2657     22.1906   2.0079450208e+01   2.6152492080e+01    0.1979491    0.1482175 -67.75 0.0005233054    1.329    0.248
       259  -9.8010    216.2219     21.0482   2.0586379345e+01   2.8087326261e+01    0.2127856    0.1864621  37.88 0.0007163858    1.298    0.230
       260 -10.0095    233.9392    196.4943   6.0057295499e+01  -2.2825145944e+00    0.2430994    0.1857301 -20.23   0.00114562    1.362    0.266
       261 -10.7908    157.0773     20.4882   2.9080129106e+01   4.3669862262e+01    0.4032103     0.192938  64.46  0.001637849    2.006    0.502
       262  -8.7989     83.6658    196.2759   8.8924579926e+01   2.4531098027e+01    0.1277953   0.07636594  67.93 0.0005568964    1.604    0.376
       263  -9.6645     74.5251     19.7783   4.9888380811e+01   6.1960545279e+01    0.2183186     0.174407  14.95 0.0005049899    1.154    0.133
       264 -11.4019    245.8854     19.2817   1.7004772001e+01   2.0913334241e+01    0.2404948    0.1619087 -46.18 0.0006301362    1.358    0.264
       265 -10.2442     46.8620     19.3319   6.0126820919e+01   6.6080822823e+01    0.2731985    0.1897447 -23.01  0.001731032    1.208    0.172
       266  -9.1473     16.4890    191.5042   1.0101712137e+02   3.3553637618e+01    0.1074639   0.07744886  81.09 -9.652471e-05    1.026    0.025
       267  -9.9240    171.5190    190.4793   7.0631529464e+01   1.0359916609e+01    0.2473994    0.1142376  36.38  0.001027609    2.235    0.553
       268 -11.8268      4.6233    185.7541   1.0275422091e+02   3.5740123724e+01    0.4213564    0.2695129 -87.46  0.002711509    1.187    0.157
       269  -9.2244    194.7954     19.3870   2.2818193415e+01   3.3874126228e+01    0.2002639    0.1221846  58.05 0.0003940678    1.524    0.344
       270 -10.9051    186.6156     15.0135   2.2639118291e+01   3.6518827030e+01    0.2828855    0.2354666  82.60 0.0006922815    1.153    0.133
       271  -9.1172     86.4938    185.5230   8.7114644180e+01   2.6237712269e+01    0.1261965    0.1043911  74.33 0.0005601448    1.008    0.008
       272  -9.2287    239.5531    184.5150   5.6805302398e+01  -1.7058339928e+00    0.1306773    0.1108067  15.59 0.0001138995    1.016    0.016
       273 -11.2308    238.8560     15.6435   1.6787275279e+01   2.3030758986e+01    0.2233235    0.1900792 -21.10  0.001151417    1.341    0.254
       274  -8.9385    211.2950     16.3206   1.9879224507e+01   2.9899810382e+01    0.1408228    0.1035012  36.42 0.0002597194    1.613    0.380
       275  -9.5541    175.5204    180.0572   6.7988236382e+01   1.1353993970e+01     0.193546    0.1395421 -43.27  0.001021228    1.558    0.358
       276  -9.2972    250.3250    177.3477   5.3542453833e+01  -2.6889748297e+00    0.1394677   0.08862785  10.80 0.0007049603    1.748    0.428
       277  -9.5894     74.4711     13.4673   4.7122065476e+01   6.2800713364e+01    0.1952003    0.1229683  56.07 0.0008577651    2.143    0.533
       278  -9.1343    113.4552    176.0104   8.0205534856e+01   2.3832792855e+01     0.170586    0.1124818 -34.06 0.0008058932    2.398    0.583
       279  -9.9040     52.1776    174.0393   9.2804188712e+01   3.3224944893e+01    0.2318965    0.1374134  84.65  0.001015321    1.601    0.375
       280  -9.1218     28.4568    175.5272   9.7656065539e+01   3.5539698920e+01    0.1130353   0.08517219  84.67 0.0002076604    1.019    0.018
       281  -9.0184     39.6644    173.6874   9.5293115491e+01   3.4736085820e+01    0.1050196     0.083354 -51.41 0.0003865608    1.686    0.407
       282  -9.3218    170.4826    171.9840   6.7504992342e+01   1.3790122975e+01    0.1955798    0.1419353 -43.58 0.0007802189    1.523    0.343
       283  -9.5902     35.5073    169.4431   9.5736435354e+01   3.6061836362e+01    0.1171615   0.08824597  82.38 0.0001181036    1.039    0.037
       284  -9.5137    198.1845    167.8289   6.1128018082e+01   8.8396340893e+00    0.1961898    0.1584076  14.99 0.0007018982    1.318    0.241
       285 -10.6740     14.0192    159.4622   9.9214864554e+01   4.0188950547e+01    0.2161466    0.1273903 -87.15 0.0006935562    1.322    0.244
       286 -11.4488      9.5830    167.1668   1.0066263144e+02   3.8989684855e+01    0.2810603    0.2205023 -71.34  0.001617212    1.363    0.267
       287  -8.8708    152.3012    166.6832   7.0311413911e+01   1.8439331557e+01    0.1425674     0.108089  79.97 0.0004136246    1.618    0.382
       288  -9.8442     18.9876    164.9862   9.8661030619e+01   3.8608360538e+01    0.1645945    0.1182563 -54.38  0.001140952    1.726    0.421
       289 -10.2958    205.0109    163.2365   5.8858714497e+01   8.1929887508e+00    0.2487123    0.2106632 -37.69 0.0006972945    1.281    0.219
       290  -9.5483     39.1882    161.8028   9.4242580752e+01   3.7273311420e+01    0.2195865   0.09439705  69.55 0.0009691054    2.968    0.663
       291  -9.4064     28.5018    160.5148   9.6347631829e+01   3.8640428450e+01    0.1164602   0.08798472  86.40 0.0001811219    1.021    0.021
       292  -9.5640    215.3504    157.3019   5.5633290566e+01   7.0184557708e+00    0.1498767    0.1041141  15.86 0.0003084353    1.696    0.410
       293  -9.5048    223.6740    156.6943   5.3956415042e+01   5.4013557184e+00    0.1466839    0.1025782  14.00 0.0007035082    1.648    0.393
       294 -10.4256      9.4225    155.7075   9.9849424852e+01   4.1350198125e+01    0.2078822   0.08399675 -80.70  0.001121876    1.989    0.497
       295 -10.3303    104.7452    154.4204   7.8667754915e+01   2.9837063156e+01    0.2612471    0.2293338 -52.09  0.001544976    1.270    0.213
       296  -9.1394     53.3034    155.3434   9.0480463971e+01   3.7062877035e+01    0.1170325   0.08751541 -47.19 0.0007039997    1.683    0.406
       297 -10.1365      3.3264    152.7784   1.0086217339e+02   4.2433673108e+01     0.265363    0.1255963  69.56  0.001555423    1.999    0.500
       298  -9.7489    141.4851    152.4915   6.9948989810e+01   2.3422822044e+01    0.3120686    0.1357791  45.63  0.001212496    2.176    0.540
       299 -10.1206     30.8457    151.8945   9.5019808120e+01   4.0241073195e+01    0.1748197    0.1386229 -68.11 0.0008360003    1.273    0.214
       300 -11.8145     22.8682    149.1290   9.6471989257e+01   4.1582123965e+01    0.4030759    0.2286698 -46.08  0.002310064    2.378    0.580
       301  -9.7553     63.8549    150.3794   8.7463881731e+01   3.6838528178e+01    0.1627406    0.1227673  23.81 0.0009495702    1.823    0.451
       302 -11.2678     48.2499    146.6378   9.0551321842e+01   3.9549741077e+01    0.4076646    0.3520481 -16.34  0.002704686    1.750    0.429
       303 -10.3459      3.0991    147.4787   1.0051205851e+02   4.3547802654e+01    0.1703734    0.1112386 -84.21 0.0006333346    1.134    0.118
       304 -11.9611      2.8175    141.6285   1.0011325077e+02   4.4789055435e+01    0.3907106    0.2549982  74.88  0.002760849    1.329    0.247
       305  -9.9021    239.5145    146.5430   4.8912238288e+01   3.7470638065e+00     0.139169     0.126115   5.22 0.0001586471    1.016    0.016
