#   1 NUMBER                 Running object number                                     
#   2 MAG_AUTO               Kron-like elliptical aperture magnitude                    [mag]
#   3 X_IMAGE                Object position along x                                    [pixel]
#   4 Y_IMAGE                Object position along y                                    [pixel]
#   5 X_WORLD                Barycenter position along world x axis                     [deg]
#   6 Y_WORLD                Barycenter position along world y axis                     [deg]
#   7 A_WORLD                Profile RMS along major axis (world units)                 [deg]
#   8 B_WORLD                Profile RMS along minor axis (world units)                 [deg]
#   9 THETA_WORLD            Position angle (CCW/world-x)                               [deg]
#  10 FWHM_WORLD             FWHM assuming a gaussian core                              [deg]
#  11 ELONGATION             A_IMAGE/B_IMAGE                                           
#  12 ELLIPTICITY            1 - B_IMAGE/A_IMAGE                                       
         1 -10.7044     81.1523     27.8618   7.8426117659e+01   6.0272069267e+01    0.7323707     0.337409 -54.87  0.002246972    5.137    0.805
         2 -11.8998     21.0089     18.7194   1.0028677670e+02   7.0237677363e+01    0.4577452     0.382956  87.30  0.001069062    1.862    0.463
         3  -9.8123     15.1773     14.1741   1.0147284089e+02   7.1563449577e+01    0.1770221    0.1268573 -64.74 0.0007831831    1.671    0.402
         4 -12.0157    129.4919     23.3785   6.2995120376e+01   5.0158323481e+01    0.7554195    0.4296189 -26.63  0.002089854    1.783    0.439
         5 -11.3425     85.1313     20.2922   7.3711499370e+01   6.0630504378e+01    0.5318443    0.3318085  25.48  0.002578064    1.814    0.449
         6 -11.1028     64.9520     14.1408   7.7971541358e+01   6.5256995661e+01    0.5203651    0.2563612  21.91   0.00205171    3.272    0.694
         7 -12.1942     81.1575      6.7687   6.8543766562e+01   6.3174390225e+01    0.5619613    0.3321983  27.59  0.002774124    1.798    0.444
         8 -11.7784     74.1546      7.0849   7.1038244536e+01   6.4517521778e+01    0.4561678    0.2063232 -30.71 0.0003214889    2.094    0.522
         9 -11.4885     75.7830     15.5140   7.4644703841e+01   6.3110850811e+01    0.4955061    0.3073113 -12.91  0.001527375    1.750    0.429
        10 -11.7248     70.4214     14.5154   7.6089906884e+01   6.4239369282e+01     0.392862    0.2266568 -20.31  0.001078392    1.766    0.434
        11 -10.9628     10.0878     15.4645   1.0477442591e+02   7.1700259179e+01    0.2776373     0.147644 -38.69  0.001347854    1.524    0.344
        12 -11.5677      3.8872     18.0502   1.0909946364e+02   7.1591487585e+01    0.3348793    0.2516998  -4.74  0.001746787    1.488    0.328
        13 -10.2064    161.9802     20.0115   5.5541971042e+01   4.2118723027e+01    0.2168178    0.2068365  56.00 0.0003091328    1.013    0.013
        14 -10.2060     34.7505     16.1934   9.2249410484e+01   6.9294858301e+01    0.3939953    0.1921894 -30.28  0.001960125    2.053    0.513
        15  -9.7118     50.9641     11.0137   8.2153808495e+01   6.7968856923e+01    0.2828023    0.1607325  -6.91  0.001011972    2.468    0.595
        16 -10.2359     99.9947     13.1503   6.5980741128e+01   5.8408213182e+01    0.2970074    0.1921254 -12.81  0.001146915    1.617    0.382
        17 -10.3159     55.0464     13.3372   8.1578679217e+01   6.6997806428e+01    0.2254407     0.166069 -32.94 0.0003300898    1.266    0.210
        18 -10.6460     26.4434     13.9572   9.5388749177e+01   7.0584184731e+01    0.2065556     0.139883 -22.40   0.00034324    1.366    0.268
        19 -10.8582    115.8468      3.1921   5.7672761393e+01   5.5751047823e+01    0.3533206    0.1969107 -15.24 0.0006926309    1.901    0.474
        20 -10.7850    118.4679     12.0672   6.0882921794e+01   5.4208146300e+01    0.2912186    0.2446235 -19.96  0.001011353    1.214    0.177
        21 -10.4826    116.7279      8.3316   5.9691094590e+01   5.5029167762e+01    0.2556943    0.2373809 -39.93 0.0007516129    1.195    0.163
        22 -11.7555     60.6845     23.1374   8.3940544371e+01   6.4579090004e+01    0.5555629    0.3108537 -54.62  0.002493619    2.656    0.624
        23  -9.7929      5.4231     11.6673   1.0587502303e+02   7.2718726021e+01    0.1617523    0.0764558 -46.73 0.0009348363    1.553    0.356
        24 -10.0533    185.7684     11.0488   4.9209761169e+01   3.6714404251e+01    0.2113061    0.1776829 -60.87 0.0005289539    1.198    0.165
        25 -10.4502     59.6112     10.3226   7.8158321185e+01   6.6700554614e+01    0.2187998    0.2067718  34.50 0.0006503515    1.323    0.244
        26 -10.3978      6.4819      8.0948   1.0377980718e+02   7.3309595939e+01    0.6072268    0.1731027  34.99  0.002604217    4.773    0.791
        27 -12.2804     24.4084      6.1786   9.2668606202e+01   7.2112448578e+01    0.6717882    0.4259252  -8.79  0.002972562    1.714    0.417
        28 -13.0430     32.0439      2.0589   8.6369193747e+01   7.1889404320e+01    0.2740505    0.1996273  16.02   0.00060392    1.385    0.278
        29 -12.0657     11.7241      2.5118   9.8048867677e+01   7.3904353397e+01    0.3927806    0.2178599 -23.61  0.002063098    1.760    0.432
        30 -11.2043     16.7017      2.0850   9.4879399803e+01   7.3542105788e+01    0.4527172    0.1760163 -48.89  0.001586387    2.355    0.575
        31  -9.7215    107.9803      9.7210   6.2358918415e+01   5.6970412404e+01    0.1954192    0.1713003  39.29 0.0006699385    1.071    0.066
        32  -9.7856    178.0297      9.2358   4.9599233696e+01   3.8961888012e+01    0.1926072    0.1143423  69.35 0.0004826137    1.589    0.371
        33 -10.4561    128.0131      8.7329   5.7461037633e+01   5.2190253457e+01    0.2522774    0.1887651 -53.24 0.0006161815    1.570    0.363
        34 -10.4571     91.8215      7.1030   6.5466746199e+01   6.0902079248e+01     0.387537     0.261726   5.97  0.001636019    1.592    0.372
        35 -10.1871    146.5344      6.3449   5.3159323180e+01   4.7640092112e+01     0.411724    0.1227963 -37.40  0.001370184    3.350    0.702
        36 -10.3839    228.7205      5.8583   4.3394887108e+01   2.6185261961e+01    0.2463983    0.1782823 -83.09 0.0005462099    1.363    0.266
        37  -9.9453     59.7436      5.6506   7.5652599693e+01   6.7309592216e+01    0.2563958    0.1586478  50.44  0.001383391    1.902    0.474
        38 -10.0780    176.7642      4.0412   4.8072458856e+01   3.9796412486e+01    0.1881135    0.1841831  36.71 0.0003250847    1.086    0.080
        39  -9.6833    167.8512      2.1390   4.8558644730e+01   4.2354002342e+01    0.2127763    0.1786975 -61.41 0.0004137762    1.239    0.193
        40  -9.2292    139.4652      1.5723   5.2518027388e+01   4.9926217988e+01    0.1405829    0.1304093  56.24 0.0001288242    1.021    0.021
        41 -11.4315    236.1623    214.8135   9.0349133057e+01  -2.3766001977e+00    0.3633569    0.2131857  17.64  0.001616344    1.636    0.389
        42  -9.8970     72.6029    250.1164   1.2237185459e+02   1.7541916948e+01    0.1536485    0.1275786  33.92  0.001251917    1.620    0.383
        43 -11.7974     27.8132    247.5135   1.2930403808e+02   2.3079348109e+01    0.5176702    0.2161026  79.12  0.003337223    2.271    0.560
        44 -10.4965      5.9316    235.4498   1.3221569182e+02   2.7127835664e+01    0.4444124    0.1608093  51.07  0.002991981    1.815    0.449
        45 -13.3159     20.3395    248.5345   1.3048164660e+02   2.3689374138e+01     1.207044    0.4828971  63.24  0.008185677    1.829    0.453
        46 -12.2574      5.9064    245.0223   1.3252412544e+02   2.5629655629e+01    0.5228453    0.2782957  74.18  0.002697643    1.384    0.277
        47 -10.7852      1.3893    244.8162   1.3318687347e+02   2.6079321647e+01    0.1862678    0.0725101 -85.02 0.0007006049    2.316    0.568
        48 -10.3976     31.1960    215.5041   1.2723244857e+02   2.7948989570e+01    0.2373233    0.1457729  50.04  0.001632134    1.320    0.243
        49  -9.5179    201.5530    215.5271   9.6256991571e+01   3.0136482812e+00    0.1214839   0.09260046  26.19  0.000161973    1.083    0.077
        50  -9.6356    194.5458    215.4870   9.7469367102e+01   4.1622512634e+00    0.1208528   0.09474241  30.57 -6.296709e-06    1.018    0.017
        51  -9.0824     73.2926    221.2737   1.2018094880e+02   2.1987674579e+01   0.09037134   0.08312204  34.82 0.0001987227    1.519    0.342
        52 -10.1922    208.9735    212.0838   9.4448007847e+01   2.2209252672e+00    0.1828531    0.1416438  26.88 0.0004678058    1.020    0.019
        53  -9.2620     76.3333    212.3142   1.1888388996e+02   2.3114513473e+01   0.09626747   0.08935574   5.35 0.0007045987    1.684    0.406
        54  -9.6910      2.2822    212.3391   1.3200204980e+02   3.1303775341e+01    0.1400241   0.09412707  59.42 0.0006634572    1.153    0.132
        55 -11.9182      4.7675    207.4168   1.3139881851e+02   3.1942993705e+01    0.4626987    0.2037269  78.94  0.002985669    1.849    0.459
        56  -9.1943    184.3149    208.3719   9.8216062162e+01   6.7856609818e+00    0.1255731   0.08493017  13.64 0.0007033849    1.786    0.440
        57 -11.5503     18.7319    202.9624   1.2876825372e+02   3.1439655169e+01    0.2999759    0.2115583 -77.83  0.001318123    1.457    0.313
        58  -9.4434    223.5927    201.8133   9.0289064708e+01   1.0514839203e+00    0.1444968    0.1110427 -39.09 0.0006427341    1.698    0.411
        59 -10.2440    175.2897    202.6809   9.8999166185e+01   9.1125918197e+00    0.2031391    0.1643721  51.30 0.0005241158    1.236    0.191
        60 -11.0897     21.3526    212.3424   1.2877248189e+02   2.9511319901e+01    0.3009827    0.1220596  54.41  0.001870105    1.815    0.449
        61  -9.5430     34.3272    201.0742   1.2583455651e+02   3.0193556874e+01    0.1456922    0.1064405  77.04 0.0005911882    1.085    0.078
        62  -9.4801    227.1313    196.8514   8.8847386313e+01   1.0554474244e+00     0.175303    0.1189744  16.90 0.0007661474    1.364    0.267
        63 -10.2312     10.9726    208.3422   1.3037595884e+02   3.1214733235e+01    0.1614764    0.1195739 -71.33  0.000933933    1.620    0.383
        64  -9.2192    203.2970    195.6830   9.2778085392e+01   5.2306207427e+00    0.1119978   0.09682513  67.91   0.00070164    1.610    0.379
        65  -9.7198    215.4641    194.5265   9.0440753490e+01   3.2926706208e+00    0.1259521    0.1004705  22.18 -1.592546e-05    1.035    0.034
        66  -9.6714    232.3051    191.2923   8.7006803533e+01   8.5866318519e-01    0.1251178   0.07934257  15.19 0.0002627543    1.576    0.366
        67  -9.2622    245.6909    190.6641   8.4701867887e+01  -1.2464991237e+00    0.1268078   0.07685875  12.23 0.0007043051    1.678    0.404
        68 -10.1440    187.3343    190.3355   9.4782505917e+01   8.7720044180e+00    0.1328576    0.0904387  14.80  0.000705211    1.740    0.425
        69  -9.2992      1.5917    188.2348   1.3117309843e+02   3.5704243127e+01    0.1312097   0.07667772 -78.22 0.0005944404    1.545    0.353
        70  -9.4248     61.6502    184.8282   1.1926464786e+02   3.0092844074e+01    0.1655313    0.0951446 -87.28 0.0009468395    1.753    0.429
        71 -11.3028     16.0848    182.6309   1.2817505690e+02   3.5494458145e+01    0.3649068     0.164817  76.18  0.002116442    1.966    0.491
        72  -9.8759    167.1940    183.6062   9.7494736561e+01   1.3429289527e+01     0.188307    0.1090286  35.96 0.0007371127    1.599    0.374
        73  -9.7317      1.9974    180.2899   1.3074517936e+02   3.7174695817e+01     0.146374    0.1035563  68.33 0.0005468056    1.082    0.076
        74 -10.1331    244.4077    178.2954   8.2635644264e+01   3.8710674457e-01    0.2193073    0.1097629 -22.43  0.001112337    2.075    0.518
        75 -10.7139    224.2420    178.3654   8.6017378246e+01   3.8337751565e+00    0.2198696    0.2001334  18.19 0.0005408137    1.180    0.152
        76  -9.6859     70.1615    177.7265   1.1678416117e+02   3.0386856234e+01    0.1423738    0.1367845  48.44 0.0005112184    1.350    0.259
        77  -9.1636     36.4443    178.4702   1.2386433059e+02   3.4284730945e+01    0.1134448   0.08757744  75.43 0.0002270294    1.014    0.014
        78  -9.7652     46.3114    177.4093   1.2175274082e+02   3.3404820341e+01    0.1992491    0.1081681  32.04  0.001124495    2.116    0.527
        79 -10.1931    200.2125    176.5972   8.9971161564e+01   8.4127713510e+00    0.1889056    0.1069811  33.98 0.0006060613    1.638    0.390
        80 -11.1985     18.1740    172.9464   1.2718388024e+02   3.7201094276e+01    0.3744928     0.127375  62.66  0.001772434    2.897    0.655
        81  -9.3718     75.1903    170.7922   1.1492718635e+02   3.1098623741e+01    0.1537911    0.1468967 -46.42  0.001060875    1.402    0.287
        82  -9.7949      4.6885    168.6803   1.2964835835e+02   3.9219492657e+01   0.09673974   0.07195375 -60.92  0.000365895    1.647    0.393
        83 -11.0299     50.9830    164.4121   1.1954836168e+02   3.5513589093e+01    0.4249361    0.2244459 -59.75  0.002353532    1.951    0.487
        84 -11.4053     44.5562    162.7122   1.2079973312e+02   3.6606321603e+01      0.33903    0.1717699 -67.90  0.001753407    1.821    0.451
        85 -10.3083     48.2718    160.0086   1.1970774146e+02   3.6750961245e+01    0.2205051    0.1916153  76.02 0.0009614984    1.120    0.107
        86 -11.5261     36.2942    163.5672   1.2268661472e+02   3.7325253754e+01    0.4958067     0.198734 -77.29  0.002476871    2.298    0.565
        87 -11.5328     36.9116    157.7697   1.2203575396e+02   3.8472474455e+01    0.2192259     0.155621  78.25 0.0002667196    1.177    0.151
        88  -9.8157     67.1886    165.1684   1.1603715308e+02   3.3333819785e+01    0.1798166    0.1227249  69.47 0.0009101625    1.355    0.262
        89  -9.5412    200.4845    162.5595   8.7235873236e+01   1.0432205493e+01    0.1348679    0.1197709  26.74  0.000199946    1.034    0.033
        90  -9.8903    238.1898    159.0061   7.9881961359e+01   3.8596402338e+00    0.1998484    0.1260013  21.56  0.001051503    1.618    0.382
        91 -11.3240     22.3850    156.4929   1.2514768379e+02   4.0171804333e+01    0.3845677    0.2918952  50.61  0.002768795    1.319    0.242
        92  -9.1048    147.5183    156.4856   9.6742861425e+01   2.1821184644e+01    0.1392773    0.1267574  52.60 0.0002344861    1.028    0.027
        93  -9.6302    247.3177    158.6240   7.8323248026e+01   2.2869529509e+00    0.1182338    0.1006683 -57.98 0.0007029162    1.806    0.446
        94  -8.9803    216.9259    155.0000   8.2705027308e+01   8.3739965891e+00     0.222128   0.07137697  46.76 0.0008038211    2.952    0.661
        95 -10.2596     12.0747    153.2360   1.2717042144e+02   4.1755265335e+01     0.226912    0.1509949  15.59  0.001327369    2.269    0.559
        96 -10.4210    178.1642    151.4947   8.9341379638e+01   1.6631020506e+01    0.2578874    0.2350902  68.89 0.0009589386    1.248    0.199
        97 -10.2738     17.9598    146.7581   1.2537777787e+02   4.2621008408e+01    0.2496952    0.1816588  -6.18  0.001194892    2.400    0.583
        98 -10.4806     21.4034    135.9342   1.2364175127e+02   4.4656587865e+01    0.2266256    0.1604355  66.12  0.001285761    1.277    0.217
        99 -11.1253     22.2469    144.2520   1.2418159686e+02   4.2780004018e+01    0.2168657    0.1509024  61.38 0.0008168151    1.298    0.229
       100 -10.2095     19.5944    140.2167   1.2445708007e+02   4.3882984798e+01    0.2546277   0.09147261 -76.29  0.001218156    2.335    0.572
       101 -10.4150     16.2690    139.7648   1.2520464156e+02   4.4262249533e+01    0.2455972    0.1112662  17.75  0.001199942    3.537    0.717
       102 -11.2034     12.0387    145.5276   1.2663238676e+02   4.3377966192e+01    0.3680247    0.1756489  82.61 0.0008286845    1.899    0.473
       103  -9.9839    207.0325    146.0677   8.2616483402e+01   1.1653061301e+01    0.2150148    0.1922079  21.18 0.0007225281    1.017    0.017
       104 -10.0516     41.2379    146.2191   1.1989970363e+02   4.0485538392e+01     0.165902    0.1391121  87.75 0.0004064826    1.059    0.055
       105 -10.3840     49.4325    141.7383   1.1741677556e+02   4.0553955685e+01    0.2187198    0.1897524 -45.90            0    1.458    0.314
       106  -9.6279    240.1216    140.8342   7.5758590934e+01   5.9152313599e+00    0.1863865    0.1390091  15.18 0.0004963117    1.310    0.237
       107 -10.8566      2.7705    136.4660   1.2812023718e+02   4.6007421124e+01    0.3103661    0.1062556 -73.27  0.001319828    2.257    0.557
       108  -9.0834    143.7163    137.3366   9.3782159876e+01   2.6241879571e+01    0.1438193    0.1125294  87.85 0.0006703034    1.624    0.384
       109  -9.0363     87.9772    137.7973   1.0727358933e+02   3.6218004554e+01    0.1637336    0.1027728  41.11 0.0003377841    1.598    0.374
       110 -10.7624      9.1583    136.7174   1.2664037570e+02   4.5484533838e+01     0.191119    0.1391822 -77.42 0.0002717288    1.188    0.158
       111  -9.1809    138.3268    135.3320   9.4597071778e+01   2.7720659772e+01    0.1449628    0.1153543   2.61 0.0007051332    1.712    0.416
       112 -10.0985     56.1703    137.8486   1.1525652249e+02   4.0615857526e+01    0.3359337    0.1795312  81.82  0.001559466    2.352    0.575
       113 -10.1140    106.9824    133.2406   1.0171095483e+02   3.4063496014e+01    0.2335249    0.2043239 -62.98 0.0009108619    1.147    0.128
       114  -9.4244     79.6926    133.3051   1.0861488039e+02   3.8463328507e+01    0.1374944   0.09448407  74.47 0.0004297585    1.607    0.378
       115  -9.5506     53.3459    132.8678   1.1530180767e+02   4.2066300876e+01    0.1845708   0.09683992 -58.65 0.0009378279    1.790    0.441
       116 -11.5541     37.5128    130.4949   1.1905281357e+02   4.4342087346e+01      0.37631    0.2426727 -73.74  0.001379381    1.327    0.246
       117 -11.1409     33.2768    125.9479   1.1960810671e+02   4.5780137299e+01    0.2605843    0.1801625  58.16 0.0003474624    1.421    0.296
       118 -10.4001     73.9740    129.5573   1.0946894069e+02   4.0126423760e+01    0.2565937    0.1841859 -66.96 0.0007068915    1.301    0.232
       119 -11.4211     10.5542    122.4259   1.2511377140e+02   4.8489964863e+01    0.4693907    0.2220948  60.62  0.002549553    2.155    0.536
       120 -11.9420     16.9481    115.8625   1.2279607929e+02   4.9464440275e+01    0.3818696     0.219511 -66.23  0.001641812    1.459    0.315
       121 -11.1702      2.3956    123.4930   1.2726395205e+02   4.8825380293e+01    0.4732206    0.1293537 -68.61   0.00206937    2.673    0.626
       122  -9.7543    225.9986    124.0000   7.4323306582e+01   1.1095795454e+01    0.2220036    0.0776694  50.70 0.0007972408    2.907    0.656
       123  -9.2232      6.6443    126.2797   1.2642797365e+02   4.7927768032e+01     0.117805   0.06646682  65.51 0.0007012878    1.658    0.397
       124  -9.6133     32.8154    119.1209   1.1889824991e+02   4.7362108513e+01    0.1643876    0.1241104 -58.39 0.0005035885    1.325    0.245
       125 -10.0190    249.5328    118.5089   6.9326087693e+01   7.1291290347e+00    0.1346717     0.118399  -7.83 5.969743e-05    1.015    0.015
       126  -9.5513    220.4475    117.0184   7.3623970265e+01   1.3309845447e+01    0.2100025    0.1329698 -32.72 0.0004431825    1.532    0.347
       127 -10.7743     51.0489    116.5137   1.1353343255e+02   4.6038810403e+01    0.2851708     0.158198 -64.67    0.0014837    1.578    0.366
       128  -9.2094    214.1916    115.5838   7.4362708847e+01   1.4882944023e+01    0.2001362    0.1270735  37.57 0.0005881358    1.611    0.379
       129 -10.2464     35.0578    114.1071   1.1762745167e+02   4.8284779646e+01    0.2814567    0.1527004 -70.92 0.0008369648    1.559    0.358
       130 -12.1112     35.3918    108.2924   1.1671568363e+02   4.9579129227e+01    0.4656342    0.2506952  73.86  0.001225972    2.327    0.570
       131 -12.7682     15.4540    109.4798   1.2251102786e+02   5.1008990100e+01     0.526596    0.4247542  80.48 0.0008853618    1.135    0.119
       132 -11.7494     23.2194    107.5068   1.2009212434e+02   5.0845321334e+01    0.3488621    0.2632897  69.13   0.00230286    1.310    0.237
       133 -10.7240    249.0406    111.9918   6.7900860891e+01   8.1100421515e+00    0.2104106    0.1846384 -14.86 0.0006374305    1.036    0.035
       134  -9.4372    166.4399    115.5425   8.3706265037e+01   2.5582807016e+01    0.1473943    0.1443974  42.99 0.0001208248    1.027    0.027
       135  -9.6060    219.5620    124.5068   7.5539944976e+01   1.2363232281e+01    0.1404054    0.1291998   1.18 0.0001765512    1.019    0.019
       136  -9.0884    223.3685    111.7441   7.1865177700e+01   1.3477994069e+01    0.1355524     0.113013 -78.78 0.0006967998    1.638    0.389
       137 -10.8610     55.5841    109.0417   1.1101538408e+02   4.7214485358e+01    0.3824346    0.2517403 -38.04  0.002012013    1.899    0.473
       138 -10.1272     91.4108    107.9024   1.0057506447e+02   4.2316786697e+01    0.2153794    0.1857361  65.40 0.0004879085    1.188    0.158
       139 -10.9203      6.3627    105.8063   1.2465301868e+02   5.2462018237e+01    0.2842092    0.1613571 -67.34 0.0005586217    1.422    0.297
       140 -10.9758      2.5999    105.6031   1.2567858216e+02   5.2742292886e+01    0.2386259    0.1703215 -69.54 0.0005357798    1.191    0.160
       141 -12.8093      2.8295    100.4505   1.2511188982e+02   5.3872612021e+01    0.2578751    0.1991003 -87.09 0.0004229073    1.052    0.049
       142 -11.0598      1.4649     95.5388   1.2500511851e+02   5.5044292460e+01    0.3558116       0.1145 -67.40 0.0004852266    2.227    0.551
       143  -9.8199     62.6181    106.2395   1.0846443643e+02   4.6974099557e+01    0.1894502    0.1075883 -53.00 0.0004748433    1.645    0.392
       144 -10.3077    243.4946    104.5194   6.6963664783e+01   1.0264457532e+01    0.1390261    0.1231477  -4.92 0.0001010241    1.043    0.041
       145 -10.0049    223.3173    104.0272   6.9988340247e+01   1.4649157877e+01    0.2044059    0.1722877 -25.70  0.000416495    1.130    0.115
       146  -9.3488     93.3173    104.2862   9.9222507941e+01   4.2802923600e+01    0.1364978    0.1120428 -15.90 0.0003803346    1.589    0.371
       147 -10.8860    247.6746    102.1319   6.5786401641e+01   9.7343848809e+00    0.2193451    0.1971366  71.55 0.0008815626    1.362    0.266
       148  -9.4828    119.5255    101.4938   9.1386743063e+01   3.8525336715e+01    0.1465237    0.1426435 -13.99 5.745778e-05    1.094    0.086
       149 -10.5236     91.4993    100.9613   9.8961908248e+01   4.3852154888e+01    0.2174946    0.1330858 -53.81 0.0008097683    1.553    0.356
       150  -9.5546    145.4828    100.4805   8.4607329062e+01   3.3185966295e+01    0.1498403    0.1483796  53.33   0.00081012    1.002    0.002
       151 -11.1989     62.3296     98.5305   1.0702688902e+02   4.8778779417e+01    0.2918242    0.2707163  56.30 0.0008586602    1.168    0.144
       152 -10.2928     66.8230     96.7453   1.0528925188e+02   4.8585698510e+01     0.357691    0.1567689 -52.59 0.0006608208    2.053    0.513
       153 -11.3775     20.4745     97.0884   1.1952391197e+02   5.3429967332e+01    0.4266572    0.1882431 -82.90  0.001704479    2.300    0.565
       154  -9.4129     50.7471     99.3844   1.1070424580e+02   5.0005005438e+01     0.146977    0.1271478  11.34 0.0002150603    1.462    0.316
       155  -8.9217     30.3652     98.2567   1.1670187175e+02   5.2341378202e+01    0.1184575    0.0843461 -39.60 0.0006969331    1.632    0.387
       156 -10.0243     57.3749     95.8207   1.0798510300e+02   5.0030760172e+01    0.3269673    0.1399313 -55.86  0.001443623    2.019    0.505
       157 -10.6165     36.2035    101.5723   1.1546103693e+02   5.1039755011e+01    0.3144559    0.1972641  49.55  0.001792284    1.731    0.422
       158 -10.8889     22.9042     86.8465   1.1724777795e+02   5.5570290601e+01    0.2525735    0.1777359 -65.79 0.0003700436    1.155    0.135
       159 -10.2215     31.4994     93.0585   1.1552665860e+02   5.3429305715e+01     0.344932    0.1541811 -75.47  0.001594807    2.176    0.540
       160 -11.1596     25.5729     91.6320   1.1715498006e+02   5.4265767655e+01    0.2410461    0.2239061 -37.66     0.000919    1.280    0.219
       161  -9.6634    162.5910     92.1763   7.8419967013e+01   3.0812815818e+01    0.2118122    0.1476733 -22.21 0.0004672783    1.657    0.397
       162 -10.5358    103.9670     92.0173   9.3163022282e+01   4.3587895175e+01    0.2340784    0.2004775 -48.22 0.0002985642    1.131    0.116
       163  -9.3147    103.6904     88.6956   9.2347867281e+01   4.4353529075e+01    0.1498212    0.1418872 -73.38 0.0003432392    1.060    0.056
       164 -12.5194     44.6805     75.3029   1.0768270615e+02   5.6173521048e+01     0.278955    0.2427206 -85.05 0.0003626448    1.192    0.161
       165 -11.3824     37.7992     70.0597   1.0889822754e+02   5.8059908212e+01    0.5501282    0.3784069 -89.71  0.001784401    1.771    0.435
       166 -11.6276     29.8935     67.0240   1.1108182580e+02   5.9470499381e+01    0.6281318    0.3050054 -36.67  0.002488199    2.439    0.590
       167 -10.9080     48.2400     90.4601   1.0976158482e+02   5.2337838165e+01    0.4550681    0.2205111 -54.38  0.001507426    1.783    0.439
       168 -11.7217     42.2525     82.0623   1.0999604556e+02   5.4901570403e+01     0.828014    0.3179467  50.13  0.003185997    3.802    0.737
       169 -11.2740     10.5441     90.8540   1.2172743420e+02   5.5545037557e+01    0.3142889    0.2219516  32.02  0.001381971    1.705    0.413
       170 -10.7055    158.0182     90.2018   7.8882845225e+01   3.2262420504e+01    0.2839358     0.225439 -36.24   0.00138067    1.269    0.212
       171 -10.6802     96.3102     90.4945   9.4961653464e+01   4.5324557265e+01    0.4183092    0.2492902  18.64  0.001612875    2.958    0.662
       172  -9.1791     21.2977     91.3416   1.1845077446e+02   5.4672931468e+01    0.1246559   0.07497271 -48.00 0.0003767098    1.666    0.400
       173  -8.9497    139.2920     87.6865   8.2572215865e+01   3.7095932976e+01    0.1526853    0.1212851 -78.91 0.0007004446    1.592    0.372
       174 -10.8602     66.5184     85.5069   1.0282136969e+02   5.1177266060e+01    0.3605177     0.250357 -29.64  0.001114732    1.787    0.440
       175 -12.4222     21.3445     77.9388   1.1627467939e+02   5.7710137203e+01    0.5193745    0.3361138 -72.99 0.0009172462    1.304    0.233
       176 -10.0434     15.1368     83.9070   1.1931008146e+02   5.6807238247e+01    0.2297491    0.1872147 -50.57  0.001600769    1.252    0.201
       177 -10.6556      4.4158     86.3407   1.2307015213e+02   5.6930300862e+01    0.2862196    0.1937598 -78.73   0.00165034    1.166    0.142
       178 -12.8422     13.3063     77.7300   1.1897112002e+02   5.8322216838e+01    0.4148734    0.2387943 -52.91 0.0009890699    1.516    0.340
       179 -11.6821      3.7862     79.0072   1.2233697296e+02   5.8604038909e+01    0.6649533    0.2770989 -83.29  0.003252502    2.280    0.561
       180 -11.2316      7.6797     73.8483   1.2029146258e+02   5.9538153649e+01    0.3256585    0.2257463   3.27   0.00212937    1.941    0.485
       181 -10.3724    112.1657     85.5975   8.9091669228e+01   4.3352747531e+01     0.323586    0.2431775  75.10 0.0009595029    1.727    0.421
       182 -10.4632    167.0858     84.0924   7.5162021955e+01   3.1192080987e+01    0.4608472    0.2725247  75.46   0.00166014    2.747    0.636
       183 -10.3770    117.9562     82.8173   8.6693460827e+01   4.2737322459e+01    0.2735629    0.2107083 -39.57 0.0008644462    1.287    0.223
       184  -9.5536     87.9883     83.3602   9.5536721269e+01   4.8334359158e+01    0.1849519    0.1795104  87.73 0.0003832223    1.072    0.067
       185 -10.1244     29.6471     81.7655   1.1415744900e+02   5.6169910827e+01    0.1926483     0.174988  23.76  0.001336983    1.344    0.256
       186  -8.9412    146.6427     81.3354   7.8943223859e+01   3.6609256618e+01    0.1624065    0.1225179 -79.11 0.0007041474    1.804    0.446
       187  -9.8457     70.5193     79.5087   1.0002054705e+02   5.1948284795e+01    0.1378915    0.1230681 -45.50 0.0008092746    1.072    0.067
       188 -10.2090    150.8073     77.6869   7.6879756538e+01   3.6291897650e+01    0.2878896    0.2163797 -43.46  0.001355898    1.343    0.255
       189 -10.5311     91.3536     76.7037   9.2624858661e+01   4.9180528385e+01    0.4317594    0.3096782 -81.27  0.002009429    1.992    0.498
       190 -12.1028     58.0214     74.1736   1.0280334880e+02   5.4848655676e+01    0.4992881    0.3421981  68.04 0.0004208913    2.019    0.505
       191 -11.8988     62.7837     71.7477   1.0052701864e+02   5.4753155188e+01    0.3422303    0.3005191 -87.04  0.001193268    1.268    0.211
       192  -9.6481    122.0451     76.4469   8.3678730654e+01   4.3143540788e+01    0.2277808    0.1481479  48.54  0.001018798    1.567    0.362
       193  -9.6980     33.2911     75.9114   1.1177215191e+02   5.7172525228e+01    0.1748169    0.1360207 -61.10 0.0005099066    1.069    0.065
       194 -10.9637    138.8314     74.9153   7.8886429603e+01   3.9646399431e+01     0.255266    0.2423663 -71.87  0.001359674    1.114    0.103
       195 -10.9945    108.9903     74.4360   8.6689216585e+01   4.6289472855e+01    0.3461392    0.2599408 -61.17  0.001684484    1.499    0.333
       196  -9.6185    145.5289     73.4804   7.6828782013e+01   3.8325847646e+01    0.1521234    0.1503727   5.04 7.794522e-05    1.003    0.003
       197 -10.2295    102.3515     73.0977   8.8214182823e+01   4.7882101641e+01    0.2943412    0.1912839  60.97  0.001308273    1.950    0.487
       198  -9.8042    128.9070     71.7233   8.0396703852e+01   4.2534025224e+01    0.2025647     0.193557  63.11 0.0002453274    1.086    0.079
       199 -10.2961     83.9725     72.3135   9.3650220115e+01   5.1392753879e+01    0.1823471     0.178875  23.01 0.0003011827    1.092    0.084
       200 -11.5787     76.4105     71.1879   9.5778693880e+01   5.2868645696e+01    0.5021713    0.3825507  55.84  0.002700556    1.537    0.349
       201  -9.6106    161.1055     69.8033   7.2188875059e+01   3.5160109627e+01    0.2101118     0.178632  17.36 0.0003564339    1.305    0.234
       202 -12.0044     94.4285     68.3567   8.9136833165e+01   5.0360664735e+01     0.415285    0.2650611 -39.20  0.001962309    1.524    0.344
       203  -9.8646     68.7440     66.9498   9.7114791678e+01   5.4947216879e+01     0.255718    0.1655431 -48.68  0.000318364    1.387    0.279
       204 -11.9882     50.8431     67.8713   1.0366858836e+02   5.7129860395e+01    0.4631604    0.2753718 -27.57  0.001948219    2.258    0.557
       205 -10.9110     51.1275     63.3552   1.0233731533e+02   5.8083185001e+01    0.3616947    0.1947931 -43.61  0.001263647    1.719    0.418
       206  -9.6594    145.2798     69.1593   7.5537908008e+01   3.9165175579e+01    0.2645482    0.1659519  14.40 0.0009518588    2.759    0.638
       207 -10.6260    123.0266     68.4411   8.0899237399e+01   4.4477440177e+01    0.2762808    0.1972605 -51.60 0.0005855346    1.491    0.329
       208 -12.6373     17.6526     66.4540   1.1546569124e+02   6.0555571982e+01    0.6528839    0.3893056 -46.33  0.001162202    1.538    0.350
       209 -10.8610    102.9727     68.0215   8.6433764532e+01   4.8786173708e+01    0.2268256    0.2148022  -7.54 0.0008224244    1.077    0.071
       210 -10.5184      6.6722     67.7170   1.1968338891e+02   6.0960521230e+01    0.1772192    0.1420811 -47.87  0.000524362    1.241    0.194
       211 -12.0925      3.8730     64.6833   1.2020602073e+02   6.1781994558e+01    0.3059286    0.2544658  88.51 0.0005015045    1.222    0.182
       212 -10.0447     41.9516     65.1496   1.0619093488e+02   5.8726666562e+01    0.3148328    0.1659953 -76.31  0.001213643    2.629    0.620
       213  -9.0626    160.2979     66.2640   7.1264689094e+01   3.5962399650e+01    0.1530263    0.1179081  23.30 0.0001782775    1.512    0.339
       214  -9.2944    128.6557     66.7256   7.8861790260e+01   4.3527630068e+01    0.1546643     0.117697  17.18 0.0002862513    1.622    0.383
       215 -11.4566     77.4005     63.5978   9.3138234631e+01   5.4312647821e+01    0.5242365    0.4081292  83.55  0.002712307    1.813    0.448
       216 -10.5033     82.4406     50.1692   8.6873984208e+01   5.6136327662e+01    0.3306153    0.1202211  41.64  0.001222732    2.945    0.660
       217 -11.0770     84.5769     61.6942   9.0135061355e+01   5.3493390784e+01    0.5021911    0.3369109  43.25  0.002518341    1.603    0.376
       218 -11.5957     87.0380     54.1222   8.6749743522e+01   5.4552425512e+01    0.7129707    0.2572116 -42.37  0.001958486    2.607    0.616
       219  -9.5198     68.6609     70.2363   9.8099102097e+01   5.4251932912e+01    0.1765201    0.1603973 -86.97 0.0002302668    1.222    0.182
       220 -10.1301    215.8597     64.0850   6.0723317682e+01   2.2298053890e+01    0.2141374    0.2111538 -50.29 0.0006854075    1.033    0.032
       221 -11.8605     63.2575     60.4423   9.7073876995e+01   5.7121169106e+01    0.8402309    0.3220876  38.12  0.003426014    2.866    0.651
       222 -10.7824    201.3972     61.8347   6.2314204260e+01   2.6213537519e+01    0.2513812    0.2500823  30.59 0.0002849975    1.024    0.024
       223  -8.9669    140.6645     61.7472   7.4242633048e+01   4.1587926394e+01    0.1547905    0.1160012  24.49 0.0001677589    1.565    0.361
       224 -10.4285     11.0176     62.6556   1.1720693374e+02   6.1830332760e+01    0.1994765    0.1404617 -74.81 0.0004522273    1.223    0.182
       225 -10.4789     45.4226     50.1465   1.0058834302e+02   6.1567120623e+01    0.3523335    0.2031583 -41.95  0.001853665    1.547    0.353
       226 -11.5085     29.5882     60.8786   1.0977362078e+02   6.0857679029e+01    0.6355958    0.2728403  12.56  0.002688179    3.825    0.739
       227 -12.7688     37.2767     51.2030   1.0417104007e+02   6.2227362147e+01    0.7641745     0.536379 -39.92  0.003103046    1.286    0.223
       228 -10.1565     43.9021     57.0473   1.0326172993e+02   6.0279149337e+01    0.1930398    0.1624053 -48.82 0.0003410986    1.010    0.010
       229 -10.9807      5.5641     58.1755   1.1845299015e+02   6.3125764820e+01    0.3102408     0.148632 -61.48  0.001756339    1.544    0.352
       230 -11.5870      5.2541     51.7598   1.1734963803e+02   6.4540444947e+01    0.3865782    0.2204077 -47.50 0.0009474142    1.493    0.330
       231 -10.2683     47.8474     58.2929   1.0211622077e+02   5.9564023080e+01    0.2381727    0.1903109 -67.62  0.001436735    1.286    0.222
       232  -9.7314    147.0339     56.9932   7.1189266024e+01   4.0829704045e+01    0.2423797    0.1817994 -65.55 0.0004764239    1.657    0.397
       233 -10.6296    123.0507     56.6103   7.6940239939e+01   4.6642961844e+01    0.2814763    0.2271707 -53.61  0.000408594    1.351    0.260
       234 -12.4466    128.4032     50.3745   7.3369669415e+01   4.6465810233e+01    0.4979163    0.3563809   1.05 0.0002746561    1.816    0.449
       235 -10.1688    129.6647     55.9905   7.5011668636e+01   4.5215270666e+01    0.2191356    0.1850498 -32.91 0.0004669618    1.175    0.149
       236 -11.2012     99.8553     55.7568   8.3257640617e+01   5.1788212960e+01    0.4178192    0.2014327  46.15  0.001362385    2.158    0.537
       237 -10.9170    118.1531     53.5728   7.7194286707e+01   4.8288983013e+01    0.4482161     0.334761  33.21  0.002186995    1.426    0.299
       238  -9.9858     61.8946     54.1961   9.5578000288e+01   5.8613576068e+01     0.241707    0.1840807 -71.56 0.0009819899    1.624    0.384
       239 -10.8313     12.7238     51.7739   1.1431773677e+02   6.4108822009e+01    0.2857471    0.1916553 -78.60  0.001768755    1.473    0.321
       240  -9.5943    143.5098     52.9733   7.0639839460e+01   4.2365048432e+01    0.2280297    0.1506082 -31.15 0.0006310133    1.528    0.346
       241 -11.2118     75.2879     55.8613   9.1329684963e+01   5.6237335300e+01    0.2358542    0.2035588 -21.02  0.000333285    1.160    0.138
       242 -11.3343    103.8273     47.8552   7.9203209598e+01   5.2411110113e+01    0.6039164    0.2032085 -37.18  0.002057214    2.900    0.655
       243 -10.6816     78.7279     47.2433   8.7078543816e+01   5.7340831145e+01    0.2311236    0.1563663 -23.64  0.001078037    1.624    0.384
       244  -9.7805    220.7492     48.9429   5.5887676064e+01   2.3173453390e+01    0.1970308     0.175688 -35.01 0.0003121346    1.071    0.066
       245 -11.4624    152.9589     47.7369   6.6789601461e+01   4.0802511027e+01    0.6461339    0.2900866  52.67   0.00178246    2.122    0.529
       246 -11.2363     69.9575     50.3868   9.1328664570e+01   5.8179095247e+01    0.4016411    0.3254671  89.54  0.001941596    1.773    0.436
       247  -9.7776    114.2204     48.4014   7.6415383386e+01   5.0065481810e+01    0.2082352    0.1434469  63.31 0.0009514597    1.722    0.419
       248  -8.9313    120.4156     47.4529   7.4386859575e+01   4.8820485969e+01    0.1469219    0.1409305  -4.65 0.0002435433    1.010    0.010
       249 -10.7856     60.3675     46.0169   9.3346508481e+01   6.0477603859e+01    0.3825242    0.2746804  57.12  0.002018939    1.914    0.477
       250 -11.1416     11.1704     44.3889   1.1324214111e+02   6.5790838304e+01    0.4235429    0.1930167 -47.91  0.001534697    1.753    0.429
       251 -10.5831      4.5618     46.8182   1.1661467731e+02   6.5641688452e+01    0.3084531    0.1384702 -49.11  0.001405254    1.767    0.434
       252 -10.2981      6.9899     41.2750   1.1430779984e+02   6.6693751574e+01    0.2988118     0.117542 -61.68 0.0008730932    1.883    0.469
       253  -9.9972    142.7527     45.7357   6.8313002114e+01   4.3698539775e+01    0.3024979    0.2322083 -57.63   0.00080037    1.504    0.335
       254 -10.6390     86.2917     44.5676   8.3494852205e+01   5.6476732156e+01    0.4107971    0.1784336 -32.39  0.001568779    2.534    0.605
       255  -9.3305     18.4884     46.4483   1.1063066033e+02   6.4865628149e+01    0.1187315   0.09759371 -58.00 6.253915e-05    1.063    0.059
       256  -9.2468    233.4191     45.5113   5.3399647958e+01   2.0548241625e+01    0.1377796    0.1297662 -29.13 0.0001081977    1.057    0.054
       257  -9.8533     51.1984     44.8596   9.6527345136e+01   6.1947076250e+01    0.1847047    0.1476101 -40.88 0.0003428574    1.078    0.072
       258 -11.0692     52.0689     41.0239   9.4806419362e+01   6.2593992455e+01    0.2645462    0.2165978 -66.30 0.0004654953    1.463    0.316
       259  -9.3748    175.2234     43.9039   6.1261776201e+01   3.5562511906e+01    0.2011261    0.1223359 -31.24 0.0008621686    1.635    0.388
       260 -10.3291    122.1588     42.7823   7.2208924528e+01   4.9174493902e+01    0.3638631    0.2587533 -55.90   0.00169221    1.708    0.414
       261  -9.9798     41.0094     41.0000   9.9374420537e+01   6.3940112302e+01    0.2762413    0.1451654  38.59  0.001411283    2.256    0.557
       262 -10.3661     44.2074     38.9588   9.7303266410e+01   6.3979132100e+01    0.6471531    0.3426965 -59.81  0.003104813    2.150    0.535
       263 -10.5926    183.8905     41.2774   5.8980126356e+01   3.3641259473e+01    0.2633122    0.1954725 -40.73 0.0006134811    1.343    0.255
       264  -9.9681    110.5803     41.8642   7.4988299176e+01   5.1967660433e+01    0.2237365    0.2013302  87.58 0.0003762524    1.341    0.254
       265 -10.3540     66.0147     41.4975   8.9525899183e+01   6.0508498551e+01    0.3102463     0.201023   5.51  0.001462342    2.248    0.555
       266 -10.6907     69.3067     38.0335   8.6940294270e+01   6.0626429277e+01    0.3808343    0.1980986 -21.02  0.001467853    3.051    0.672
       267  -9.9849     34.2087     34.2115   9.9932232251e+01   6.6019524545e+01    0.3814824    0.1551088  41.05  0.001709053    3.228    0.690
       268 -11.9240     27.6322     37.8462   1.0412483124e+02   6.5923828618e+01    0.4100367    0.2462886 -54.75  0.001503392    1.396    0.283
       269 -12.1286     20.5417     37.5383   1.0721424264e+02   6.6579440663e+01    0.3599877    0.2430387 -71.94  0.001649924    1.617    0.382
       270 -12.4334     24.1167     35.1953   1.0484557219e+02   6.6768040514e+01    0.4561405     0.314977 -35.90  0.000312164    1.286    0.222
       271  -9.4464    220.4352     41.5150   5.3884923318e+01   2.4210399765e+01    0.1412076    0.1343447 -45.09 6.025915e-05    1.016    0.016
       272 -11.3211     97.5073     40.9853   7.8505467360e+01   5.4907233830e+01    0.3668158    0.2777564  43.67 0.0006991426    1.353    0.261
       273 -11.0124     96.9719     36.9988   7.7092825255e+01   5.5679812902e+01    0.2855901    0.2680382 -72.57 0.0003749179    1.279    0.218
       274 -11.1161    101.8478     36.8441   7.5554187464e+01   5.4680901973e+01     0.418055    0.2331638  42.10 0.0005079609    1.823    0.451
       275 -10.3143    104.7659     34.0105   7.3562319195e+01   5.4495563823e+01    0.2108528    0.1988554 -55.45 0.0002887582    1.206    0.171
       276 -11.3946     97.9289     31.8608   7.4705876172e+01   5.6295527307e+01    0.3547922    0.2551291  22.31 0.0003988261    1.539    0.350
       277 -10.8241    101.1110     28.7782   7.2474704227e+01   5.6079469150e+01    0.2488109    0.2190386 -65.50 0.0004450993    1.411    0.291
       278 -10.8346     89.2211     39.1712   8.0424757630e+01   5.6869513723e+01    0.3470096    0.2026033 -41.49 0.0008308005    1.672    0.402
       279 -12.4596    226.4971    246.0794   9.6547846855e+01  -4.0496325509e+00    0.6393713    0.3732451  29.20  0.004400338    1.275    0.215
       280  -9.9771     84.9959     35.0000   8.0139294075e+01   5.8386027739e+01    0.2992321    0.1287306  49.10   0.00066679    2.543    0.607
       281 -12.1009     81.7175     37.9982   8.2474297968e+01   5.8486545543e+01    0.5882601    0.3863685 -46.04  0.001601952    1.566    0.362
       282 -10.5809     78.0261     32.5202   8.1510915592e+01   6.0092224653e+01     0.511361    0.2507887 -21.61  0.001948455    2.942    0.660
       283  -8.9803     72.0105     41.0197   8.7115340663e+01   5.9637183364e+01    0.1642993     0.139378 -31.31 0.0004078306    1.066    0.062
       284  -9.7615    226.0600     40.0466   5.2804246513e+01   2.3009477689e+01    0.2283312    0.1531382 -58.66  0.000594759    1.592    0.372
       285  -9.2186    215.6696     40.7033   5.4257868116e+01   2.5502912377e+01    0.1472447    0.1075748  30.50 0.0004326613    1.638    0.390
       286  -9.4184    249.6986     38.3193   4.9797937244e+01   1.7650790155e+01    0.1428321   0.08960076 -55.40 0.0003974823    1.624    0.384
       287  -9.7128     61.8339     37.8479   8.9716576389e+01   6.1828341683e+01    0.1670504    0.1464498 -52.68 0.0002644115    1.263    0.208
       288 -10.2738    166.3846     36.7636   6.0488706043e+01   3.8872594822e+01    0.2778608    0.1887333  79.08  0.000788766    1.684    0.406
       289 -10.8084     10.1417     25.2024   1.0825797975e+02   6.9810394393e+01    0.2710877    0.1641044 -32.21  0.001695715    1.537    0.350
       290 -11.1701     10.4964     34.6635   1.1098329860e+02   6.7871333752e+01    0.3696742    0.2232165   1.94   0.00188359    2.082    0.520
       291 -10.1797      3.1735     37.0955   1.1500277786e+02   6.7772755827e+01    0.2766329    0.1561353 -43.65  0.001113063    1.493    0.330
       292 -11.1636      6.4474     30.4740   1.1170934792e+02   6.8969891499e+01    0.4722508      0.19572 -43.76  0.001609451    1.946    0.486
       293  -9.6353    147.0457     36.0000   6.3943488422e+01   4.4031138559e+01    0.3949263    0.1450397  59.90  0.001012643    2.670    0.625
       294 -10.3074    150.7076     34.4203   6.2639185656e+01   4.3300932552e+01    0.2809315    0.1893051  60.71 0.0006512793    1.457    0.314
       295  -9.0603    127.3259     36.2990   6.8478877009e+01   4.8931609375e+01    0.1554994     0.110162  23.55 0.0003290924    1.633    0.388
       296 -10.9408     60.1331     33.9435   8.8824289167e+01   6.2799247419e+01    0.4644969    0.2175633  25.34  0.001895411    3.083    0.676
       297 -10.2493    129.8069     32.6788   6.6514523096e+01   4.8844305553e+01    0.2459937    0.1956072 -12.74 0.0009022898    1.318    0.241
       298 -10.8443     18.2348     31.2989   1.0630789993e+02   6.8025851633e+01    0.3409711    0.2101456  36.45  0.002064189    2.047    0.512
       299 -10.3435     21.2696     27.5774   1.0357088284e+02   6.8524078778e+01    0.3966863    0.1112814 -52.75  0.001338092    2.657    0.624
       300 -11.9871     74.3310    238.3562   1.2128508630e+02   1.9100296038e+01    0.3937062    0.2891597  87.19   0.00251177    1.372    0.271
       301  -9.4370     63.1480    243.8528   1.2350945243e+02   1.9648663070e+01    0.1234998    0.1054947  59.27 0.0004840168    1.326    0.246
       302  -9.5570    145.1587     32.1571   6.2951785056e+01   4.5041510618e+01    0.1968979     0.172748 -66.47 0.0003202514    1.270    0.213
       303  -9.8473     56.1527     31.1145   8.9264192753e+01   6.3893739171e+01    0.2776903    0.1513146 -33.50  0.001368875    1.735    0.424
       304 -10.7038     42.5564     31.8364   9.5330239545e+01   6.5551677339e+01     0.192494    0.1741439  12.96  0.000453895    1.234    0.190
       305 -11.1376    177.5051     30.1636   5.6461653450e+01   3.6771509940e+01    0.4394493    0.2480211 -44.17   0.00187294    1.832    0.454
       306  -9.6651     73.5953     31.3228   8.2595957865e+01   6.1078847669e+01    0.2148104    0.1523987  15.62 0.0002122185    1.622    0.383
       307 -10.0061     49.7111     31.3417   9.2043547678e+01   6.4743567100e+01    0.2075695    0.1246789  39.50 0.0007556027    1.924    0.480
       308 -10.8924     50.6009     28.0026   9.0275778488e+01   6.5229650194e+01    0.2813476    0.1950083 -18.90 0.0001229809    1.487    0.327
       309 -10.0875    139.9300     29.3896   6.3025799811e+01   4.6749898570e+01    0.4004633     0.198076  -5.62   0.00130384    3.528    0.717
       310  -9.9984    119.8314     28.3752   6.7247900884e+01   5.1863020654e+01    0.3401435      0.21263  16.87  0.001005419    2.137    0.532
       311 -10.1535    153.7953     28.8823   6.0083510670e+01   4.3221258444e+01     0.221705    0.1999891  23.87  0.000411703    1.139    0.122
       312 -11.3089    214.0528     26.7950   5.0541145131e+01   2.7604151361e+01    0.4267473    0.2443374 -56.73   0.00110113    1.907    0.476
       313 -11.1071     69.9300     26.1660   8.1712037214e+01   6.2563901304e+01    0.4034413    0.3047969  44.20  0.002083242    1.471    0.320
       314 -10.2554    247.9699     27.0971   4.7159426062e+01   1.9349020889e+01    0.1996265    0.1740571 -51.84 0.0003176215    1.032    0.031
       315 -11.4164     37.5030    242.8808   1.2758536850e+02   2.2760289254e+01    0.3938504    0.1258727  43.89  0.002328424    2.179    0.541
       316 -10.2052    135.2363     22.4940   6.1410015930e+01   4.8820989619e+01    0.3533469    0.2133303  43.17 0.0009293272    1.635    0.388
       317 -10.0955     24.9039     26.9879   1.0159651335e+02   6.8325071979e+01    0.1821487    0.1443964 -39.21 0.0004941691    1.006    0.006
       318  -9.8310    146.0200     26.0404   6.0551105272e+01   4.5610464540e+01    0.2133499     0.208898  45.95            0    1.024    0.024
       319 -10.7051     87.0034     24.4993   7.4989556489e+01   5.9649416533e+01    0.4683194    0.3202563  85.52   0.00199392    3.044    0.671
       320  -9.6353     35.6844    239.6723   1.2771968795e+02   2.3461016207e+01    0.1533023    0.1334206  27.24  0.001300903    1.848    0.459
       321 -11.0166     65.2200     21.2024   8.1254877061e+01   6.4151909377e+01    0.2640579     0.231862   5.88 0.0007380572    1.087    0.080
       322  -9.9641    109.7476    242.7820   1.1563087106e+02   1.3654405892e+01    0.1553456    0.0986336  59.93 0.0009107341    1.368    0.269
       323 -10.5152    156.2840    240.6259   1.0744314651e+02   7.0606197976e+00    0.1936541     0.139004 -73.81  0.001293422    2.173    0.540
       324  -9.9587     89.0056    240.9830   1.1900216550e+02   1.6777668076e+01    0.1423947    0.1268896  18.34  0.001123202    1.708    0.415
       325  -9.7383     46.9605    241.3475   1.2599425602e+02   2.1944227000e+01     0.138825   0.09397397  55.02 0.0004083267    1.119    0.106
       326  -9.1816     50.3328    240.2970   1.2538931246e+02   2.1721172069e+01   0.08263934    0.0768759  40.52 0.0006304205    1.644    0.392
       327  -9.4663     16.5400     26.5547   1.0552420682e+02   6.9098171078e+01    0.1188495   0.09182122 -42.18 0.0001131983    1.021    0.021
       328  -9.7533    237.4792     25.4697   4.7724215433e+01   2.1983389806e+01     0.135343    0.1235712 -53.52 8.801273e-05    1.007    0.007
       329 -10.7735    197.0981     25.0697   5.2095678154e+01   3.2189963931e+01    0.2124543    0.2076741 -62.74 0.0004412985    1.033    0.032
       330  -9.4780    112.0282     25.0047   6.7874213371e+01   5.4159528987e+01    0.1738874    0.1572821  -9.38 0.0004803372    1.079    0.073
       331  -9.5752      1.4869     24.5869   1.1245182429e+02   7.0424538559e+01     0.251712   0.08646359 -62.29  0.001231455    2.239    0.553
       332  -9.9448    173.4927     24.4770   5.5227172924e+01   3.8528684625e+01    0.2917274      0.13984  64.72  0.000805765    1.993    0.498
       333 -10.1019     93.8207     24.0968   7.2657101944e+01   5.8312816046e+01    0.2100979    0.1884657 -43.82 0.0008938134    1.258    0.205
       334 -10.2346     54.3165     23.8463   8.6883245437e+01   6.5428563596e+01    0.2282684    0.1766205  16.43 0.0007831989    1.348    0.258
       335  -9.2835     97.4637     23.4743   7.1287333609e+01   5.7627492283e+01    0.1426505    0.1259477  10.14 0.0002601366    1.066    0.062
       336  -9.8826    120.1981     21.4774   6.4378292417e+01   5.2681661852e+01    0.2754636    0.1817928  -0.51 0.0007732661    1.813    0.448
       337  -9.3676     36.0445     22.6546   9.4522407375e+01   6.8007318451e+01    0.2043422    0.1119433  20.50  0.001071492    2.199    0.545
       338  -9.6536     28.7278     21.5091   9.7560837583e+01   6.8997248385e+01    0.3187303    0.1335721 -29.13  0.001316919    3.219    0.689
       339  -9.7708    113.8087     20.7121   6.5630900146e+01   5.4304857508e+01     0.281479    0.1724712 -51.45  0.001239302    2.106    0.525
       340 -10.3538    195.7000    238.3389   1.0049100653e+02   1.2876384753e+00    0.2250215    0.1513749  27.83  0.001543129    1.235    0.190
       341  -9.9897      8.0000     20.9375   1.0791353788e+02   7.0785719670e+01     0.218821    0.1151811 -55.05 0.0007421773    1.475    0.322
       342 -10.5517    181.3372    248.5066   1.0416048587e+02   2.3258885859e+00    0.2083944    0.1043065 -39.83  0.001274921    2.692    0.629
       343 -10.4431     31.3957    237.2550   1.2829057938e+02   2.4304510473e+01     0.227979    0.1215273  72.02  0.000909292    1.498    0.332
       344 -10.3940    226.9125     19.0105   4.7042747616e+01   2.5260615070e+01    0.2567202    0.1831874  75.72 0.0006375226    1.413    0.292
       345 -10.4230     29.1866    232.8964   1.2844283884e+02   2.5238920050e+01    0.2411572    0.1034959  58.99  0.001184956    1.703    0.413
       346  -9.7128    108.7143     17.5914   6.5610631233e+01   5.5885660353e+01    0.1788025    0.1364658  66.26  0.000249197    1.467    0.318
       347  -9.6122    241.9902     16.7579   4.5087932041e+01   2.1876865209e+01    0.1607991    0.1093143  76.27   0.00020679    1.512    0.338
       348  -9.9771    217.7221     16.5437   4.7280212071e+01   2.7819171696e+01    0.2595197    0.1217696  64.01  0.001110759    2.047    0.511
       349  -9.3827     82.2484     16.3580   7.2838535658e+01   6.1746845277e+01    0.1380487   0.09562676   4.97  0.000694574    1.602    0.376
       350  -9.7165     49.6672     15.2038   8.4828839228e+01   6.7517503115e+01    0.2281194    0.1729858  32.62  0.001413277    1.431    0.301
       351 -10.0778    159.9024    235.8735   1.0626383737e+02   7.1128293090e+00    0.1765321    0.1287355  30.58  0.000692004    1.271    0.213
       352 -10.1299     45.9911     20.4176   8.8943085076e+01   6.7173211856e+01    0.2458377    0.1195974  34.15  0.001057888    2.265    0.559
       353 -10.8773    250.4400    245.7725   9.2807383250e+01  -7.3338822822e+00    0.2960733    0.1148213 -27.35  0.001720055    2.952    0.661
       354  -9.9804    177.8289    234.8558   1.0305295561e+02   4.4504263870e+00    0.1752925    0.1281387  27.55 0.0009873799    1.231    0.188
       355 -11.0784    153.5342    234.0073   1.0714815602e+02   8.3452215278e+00    0.2091591    0.1843159 -16.82 0.0009552317    1.502    0.334
       356 -10.3970     30.7877     12.9114   9.2667734233e+01   7.0303744468e+01     0.184241    0.1514486 -14.17 0.0004356566    1.099    0.090
       357  -9.8774    168.4807     13.4702   5.2302060894e+01   4.1091031233e+01     0.145694    0.1361006  54.87 0.0001103427    1.046    0.044
       358  -9.9977    139.2768     13.0881   5.6990488676e+01   4.8858253628e+01    0.3869008    0.1920923 -82.39  0.001123681    4.851    0.794
       359  -9.4859    167.2851    233.6423   1.0471384624e+02   6.2481623249e+00    0.1083623   0.07949936  63.92 0.0007020836    1.674    0.403
       360  -9.8440     24.0421    232.4398   1.2925223413e+02   2.5846104113e+01    0.1476661   0.09953717  77.82 0.0006310191    1.190    0.160
       361  -8.9038     38.6568    232.7074   1.2688757721e+02   2.4251344293e+01   0.08095897   0.07806272  52.28 0.0004738281    1.658    0.397
       362  -9.8728     79.7685    231.5427   1.1984652523e+02   1.9464338924e+01    0.1547298   0.07456394  50.74 0.0004715629    1.556    0.357
       363 -10.9202      5.3317    226.8868   1.3202125638e+02   2.8571761515e+01    0.3896933    0.1159213  66.84  0.002124995    2.797    0.642
       364  -9.4926    249.3099    227.3029   9.0235870643e+01  -5.5430855570e+00    0.1137999    0.0646567  16.26 0.0003730094    1.607    0.378
       365  -9.0355    140.3105    227.2964   1.0869879873e+02   1.1329944158e+01    0.1087442   0.08169153  22.21 0.0007007857    1.595    0.373
       366  -9.9729    129.7420    226.7182   1.1052779322e+02   1.3048689768e+01    0.2535629    0.1036866  54.87  0.001179385    2.607    0.616
       367  -9.7111     87.6713    227.3142   1.1811534851e+02   1.9080160851e+01    0.1178613   0.06475227  62.98 0.0004599252    1.673    0.402
       368 -10.7635    120.0941    226.5026   1.1223879157e+02   1.4546534178e+01    0.1733587   0.09000589  43.64  0.000449086    1.502    0.334
       369 -10.0486    190.5432    227.1339   9.9841208665e+01   3.3823540531e+00    0.2896721    0.1153596 -40.32  0.001467456    3.185    0.686
       370  -9.4512    115.5121    244.5300   1.1480952804e+02   1.2587221259e+01    0.1101996   0.08137844  49.67 0.0001267856    1.032    0.031
       371  -9.3418    156.3115    224.3374   1.0547707993e+02   9.2177268418e+00    0.1139996   0.08281773  17.53 0.0006703656    1.688    0.408
       372 -10.6048    123.3540    221.5870   1.1111744235e+02   1.4802335264e+01     0.418623    0.2078413  49.92  0.002338077    1.643    0.391
       373  -9.6055     13.3765    221.7717   1.3053343979e+02   2.8669425766e+01    0.1218735   0.07533427 -80.33  0.000600444    1.581    0.368
       374  -9.7836    141.9595    220.7292   1.0762098050e+02   1.2022962802e+01    0.1796935    0.1238793  44.03  0.001073918    1.143    0.125
       375  -9.4294    250.4891    219.4483   8.8818478355e+01  -4.9691895728e+00    0.1141628     0.082227  18.33 0.0001649723    1.028    0.027
       376 -10.3485     66.6930    226.8134   1.2176676543e+02   2.1912429859e+01    0.2813528    0.1362763  57.37  0.001058873    1.654    0.396
       377  -9.9161    174.5246    219.2849   1.0155369890e+02   6.9539614291e+00    0.2662155    0.1193635  33.29  0.001245559    2.157    0.536
       378 -10.7583      9.6020    216.9581   1.3096268060e+02   2.9843881150e+01    0.2463776    0.1208854  61.66   0.00114071    1.461    0.316
       379  -9.5541     38.0071    217.4955   1.2616100041e+02   2.6870081031e+01    0.1490771   0.08357852  44.03 0.0005369514    1.532    0.347
