#   1 NUMBER                 Running object number                                     
#   2 MAG_AUTO               Kron-like elliptical aperture magnitude                    [mag]
#   3 X_IMAGE                Object position along x                                    [pixel]
#   4 Y_IMAGE                Object position along y                                    [pixel]
#   5 X_WORLD                Barycenter position along world x axis                     [deg]
#   6 Y_WORLD                Barycenter position along world y axis                     [deg]
#   7 A_WORLD                Profile RMS along major axis (world units)                 [deg]
#   8 B_WORLD                Profile RMS along minor axis (world units)                 [deg]
#   9 THETA_WORLD            Position angle (CCW/world-x)                               [deg]
#  10 FWHM_WORLD             FWHM assuming a gaussian core                              [deg]
#  11 ELONGATION             A_IMAGE/B_IMAGE                                           
#  12 ELLIPTICITY            1 - B_IMAGE/A_IMAGE                                       
         1 -14.7410    191.8950     42.1380   4.5875240635e+01   3.2473804968e+01     1.293824    0.9881271  28.60  0.004326639    1.653    0.395
         2 -14.4212    217.5994     11.2482   3.5236054410e+01   3.0122530065e+01    0.8570669    0.7679207 -63.65  0.003905715    1.105    0.095
         3 -12.9369     54.7337      5.5642   6.4754539052e+01   6.7248402653e+01     0.301872    0.2243389   6.65  0.001952262    1.131    0.116
         4 -11.6328    247.0821      2.2129   3.1077422649e+01   2.4776001501e+01    0.3725054   0.08670679  76.06  0.001400053    4.355    0.770
         5 -10.8376     63.0549    214.1923   1.1413013394e+02   2.1871242444e+01    0.1647362    0.1580359  60.96 0.0002853446    1.219    0.180
         6 -17.1936     69.5757    143.2359   1.0317948330e+02   3.7516691274e+01      9.35006     4.884755  69.82   0.03194237    3.768    0.735
         7 -11.7995     93.7459    205.2444   1.0641371458e+02   1.9589264886e+01    0.2881075    0.2035403  17.13  0.001202568    1.827    0.453
         8 -11.9963     96.2419    202.0205   1.0542493155e+02   1.9909080357e+01    0.2651263    0.1974952 -68.14 0.0009519015    1.400    0.286
         9 -11.9854     75.4284    247.7942   1.1472789493e+02   1.3731228294e+01    0.4092624    0.1634684 -58.91  0.002066274    2.789    0.641
        10 -12.3912     53.1177    200.1853   1.1489423503e+02   2.6093465069e+01    0.3037564    0.2380276 -45.92 0.0008266249    1.588    0.370
        11 -13.0156     57.8112    193.0841   1.1310905297e+02   2.7111130836e+01    0.4573564    0.2784658 -43.79  0.001427227    2.125    0.529
        12 -10.8718     60.6858    187.7305   1.1184632344e+02   2.7973144680e+01    0.1940208    0.1572815  50.92 0.0003714793    1.193    0.162
        13 -11.7907    193.0138    195.1554   8.2790277273e+01   5.0798408107e+00    0.9170645    0.4773072 -62.50  0.002454466    7.538    0.867
        14 -11.2862     34.7072    197.2278   1.1862369743e+02   2.8790779854e+01    0.1730357    0.1315313  62.78 0.0004305047    1.167    0.143
        15 -10.0232     69.0921    194.5898   1.1070075160e+02   2.5348825902e+01     0.396877    0.1877837  85.64  0.001416369    3.857    0.741
        16 -12.1473    149.6868    192.3520   9.1651544814e+01   1.3174133924e+01    0.2877949    0.2467502  50.66  0.001488445    1.226    0.184
        17 -13.4176    146.9979    187.7177   9.1428884304e+01   1.4589114140e+01    0.6365228    0.3618056 -59.80  0.002729636    2.240    0.553
        18 -10.5896      1.2920    187.4647   1.2495835645e+02   3.3954554908e+01    0.1138035   0.08189748 -88.27 0.0001231355    1.102    0.093
        19 -11.2460     71.7533    243.4124   1.1505289463e+02   1.5003711058e+01    0.2768677    0.1720834 -81.76  0.001065908    1.746    0.427
        20 -12.2625    147.0601    173.2627   8.8674517909e+01   1.7604893252e+01    0.5331138    0.3375977 -73.15  0.002104663    2.691    0.628
        21 -11.4818     56.7106    175.3285   1.1131610607e+02   3.1342978494e+01    0.4645052    0.2030671  49.85  0.002004138    2.399    0.583
        22 -11.6076    186.3129    174.2231   8.0033320227e+01   1.0100075577e+01    0.3554966    0.3253183  46.36  0.001120867    1.254    0.203
        23 -11.6293     62.7028    250.6456   1.1734238726e+02   1.4819482021e+01     0.187966   0.09201565  36.86  0.000598858    1.824    0.452
        24 -11.9855     43.8564    172.8279   1.1415478258e+02   3.3400718511e+01    0.5394222    0.2384661  48.70  0.001851815    2.303    0.566
        25 -18.1981     33.0500    233.8786   1.2165112724e+02   2.1372030026e+01      8.19194      4.23349  34.26    0.0432121    1.945    0.486
        26 -11.9930     66.0394    207.0773   1.1277079413e+02   2.3002855011e+01    0.3170055    0.2650347 -32.81 0.0004319941    1.618    0.382
        27 -12.6057     64.3068    202.7048   1.1268803681e+02   2.4170149479e+01    0.2705283    0.2188185 -67.92  0.001017401    1.260    0.206
        28 -12.2399     89.7085    156.6073   1.0001425389e+02   3.1342329506e+01    0.2990085    0.2660524 -49.07 0.0004072139    1.133    0.118
        29 -13.6036     95.6679    150.1911   9.7218790795e+01   3.1959057220e+01    0.6584017    0.4996143 -25.51  0.003218556    1.614    0.381
        30 -12.6779    133.6470    145.1020   8.6053211845e+01   2.6385473266e+01     1.260995    0.2952693 -53.55  0.002754969    6.512    0.846
        31 -11.5010     42.4092    209.1257   1.1799747718e+02   2.5384485512e+01    0.2577896    0.1921022  82.18  0.001096682    1.166    0.142
        32 -10.3158    174.9694    149.1801   7.7056036429e+01   1.7246799474e+01    0.2367409    0.1802678  74.16 0.0007226939    1.950    0.487
        33 -12.9108    107.3477    136.8164   9.1235407831e+01   3.3213071362e+01    0.5609898    0.3453437 -29.76  0.002283443    2.107    0.525
        34 -12.4076    105.9239    130.9029   9.0303532426e+01   3.4877798107e+01    0.4412568    0.3565663 -59.17  0.001230853    1.245    0.197
        35 -12.7508     95.4006    136.3257   9.4489483752e+01   3.5368074069e+01    0.3276251    0.2832937 -48.69 0.0004414057    1.108    0.097
        36 -12.1288    112.5908    150.7753   9.2783632817e+01   2.8965346092e+01    0.2939976    0.2244695  49.01 0.0007981905    1.365    0.267
        37 -12.0274    114.4861    128.5083   8.7338062374e+01   3.3887133221e+01     0.315805    0.2659476 -14.48  0.000757047    1.333    0.250
        38 -11.4401    102.2397    123.9950   8.9748198582e+01   3.7175796942e+01     0.320375    0.2398832 -31.46 0.0006875526    1.435    0.303
        39 -12.2338    120.6492    123.0538   8.4297521473e+01   3.3981594252e+01    0.3732471    0.2826627 -28.90  0.001738472    1.423    0.297
        40 -11.1192    135.0000    120.4491   7.9765729784e+01   3.1688500444e+01    0.3498536   0.08787274 -45.46 0.0009289783    3.888    0.743
        41 -10.6655    109.9840    117.9510   8.6026052167e+01   3.7196689112e+01    0.2293791    0.2188457 -38.41 0.0003529272    1.015    0.015
        42 -10.8250    231.2343    113.8320   5.7863174645e+01   1.2480558659e+01    0.2402924    0.2248648  -6.15 0.0007934163    1.112    0.101
        43 -10.6212    167.5050    113.1900   6.9902813048e+01   2.6207570419e+01    0.2568337    0.2515308 -19.86  0.001375449    1.033    0.032
        44 -13.0474    118.6090    110.4588   8.1613675955e+01   3.7251033825e+01    0.5926152    0.4469459  71.39  0.002289169    1.832    0.454
        45 -10.3421    205.3742    110.1617   6.1403731003e+01   1.8453454495e+01    0.2426544    0.2026638  33.38 0.0007060172    1.298    0.230
        46 -13.4122    176.3603     55.5307   5.2042658273e+01   3.4356231067e+01    0.4797733    0.4451808  29.55 0.0007804864    1.159    0.137
        47 -11.6246     89.4094    211.2696   1.0812958218e+02   1.8947205851e+01    0.2732843    0.2114724  81.93 0.0005497027    1.345    0.257
        48 -13.4300    196.7888     36.5646   4.3730944170e+01   3.2025479370e+01    0.5049568    0.4832049 -41.72  0.001199853    1.128    0.113
        49 -13.3576     32.3878    206.7243   1.1987607648e+02   2.6971261860e+01    0.3771789    0.2030432  56.91  0.002134985    1.676    0.403
        50 -19.0627     12.1147    100.4037   1.1360484902e+02   5.3638722573e+01     15.80904      0.77403 -68.97   0.02573995   16.122    0.938
