#   1 NUMBER                 Running object number                                     
#   2 MAG_AUTO               Kron-like elliptical aperture magnitude                    [mag]
#   3 X_IMAGE                Object position along x                                    [pixel]
#   4 Y_IMAGE                Object position along y                                    [pixel]
#   5 X_WORLD                Barycenter position along world x axis                     [deg]
#   6 Y_WORLD                Barycenter position along world y axis                     [deg]
#   7 A_WORLD                Profile RMS along major axis (world units)                 [deg]
#   8 B_WORLD                Profile RMS along minor axis (world units)                 [deg]
#   9 THETA_WORLD            Position angle (CCW/world-x)                               [deg]
#  10 FWHM_WORLD             FWHM assuming a gaussian core                              [deg]
#  11 ELONGATION             A_IMAGE/B_IMAGE                                           
#  12 ELLIPTICITY            1 - B_IMAGE/A_IMAGE                                       
         1 -11.8333      8.9244     25.4054   1.3108638035e+02   7.3608879657e+01    0.7370649    0.2889551 -63.60  0.003345093    2.097    0.523
         2 -11.0840      4.1846     19.9965   1.3325634264e+02   7.5036475372e+01    0.4747755    0.2539275 -64.11  0.002537013    1.581    0.368
         3 -11.4944     74.9858      4.9745   7.7760580851e+01   6.7000531176e+01    0.4669498     0.295895 -13.15  0.001266843    1.740    0.425
         4 -11.0756     76.9627     16.4375   8.3705498955e+01   6.5138718143e+01    0.5385692    0.2452754  39.48  0.002092056    2.271    0.560
         5 -11.5417     78.7722     10.7373   7.9788835771e+01   6.5432476892e+01    0.4837877    0.3389501   4.84  0.001194911    1.649    0.393
         6 -11.7504     81.2816      6.1169   7.6260012100e+01   6.5333989618e+01    0.2524556     0.234931  18.29 0.0002744679    1.082    0.076
         7 -11.7438    131.6952     14.4263   6.8112130618e+01   5.0932130612e+01    0.4637386    0.4262348  14.12  0.002560937    1.217    0.179
         8 -11.0113     70.6478     14.7454   8.5321629511e+01   6.6824241776e+01    0.2499025    0.2299547  24.37 0.0002719141    1.031    0.031
         9 -12.5814     25.8115     13.7576   1.1211650662e+02   7.4847609846e+01    0.4010487    0.3577486  34.44 0.0003491486    1.359    0.264
        10 -12.6644     26.4935      3.9180   1.0506721674e+02   7.6587574055e+01    0.4804581    0.2980446   3.93 0.0004673016    1.850    0.459
        11 -11.8805     31.5938      2.3918   9.9705585493e+01   7.6118553436e+01    0.3449751    0.2197297  35.45  0.001052106    1.561    0.359
        12 -10.7069    100.0192     12.8232   7.4288512859e+01   5.9784923778e+01    0.4260454    0.3173589  21.31  0.002109157    1.493    0.330
        13 -11.1076    115.3692     12.3616   7.0405724965e+01   5.5682456577e+01    0.5874516    0.2403986  69.17  0.001763975    2.360    0.576
        14 -11.9988     61.7799     11.4212   8.7330724232e+01   6.9228404530e+01    0.4006699    0.2998791  75.13  0.001307557    1.951    0.487
        15  -9.5877    175.6056     12.2316   6.1352669140e+01   3.9061441557e+01    0.1838852    0.1382782  -6.03 0.0007186144    1.635    0.388
        16 -10.4191      9.2211      7.8417   1.2377151450e+02   7.7495580755e+01    0.4488797    0.2138758 -17.82  0.001306287    2.311    0.567
        17 -11.4134     17.9125      4.2992   1.1314693872e+02   7.7512202123e+01    0.4460247    0.2742952 -10.11  0.001501231    1.731    0.422
        18 -10.7417     12.2050      1.8835   1.1725574019e+02   7.8493477823e+01    0.5979619    0.2158623   7.57  0.002157774    4.276    0.766
        19  -9.2741    226.2360      8.6380   5.6300964379e+01   2.6969623296e+01    0.1366598   0.07192478 -50.48 0.0005544438    1.590    0.371
        20  -9.8773    183.1065      7.4925   5.9171509593e+01   3.7555510383e+01    0.2152401    0.1878368  32.71  0.000726622    1.395    0.283
        21  -9.6686     37.4608      8.4599   9.9729111066e+01   7.4230296619e+01    0.1354422     0.113519  -1.24 0.0001050298    1.048    0.046
        22 -10.5640    115.2462      4.1941   6.6747856412e+01   5.6505356577e+01    0.3022891    0.2755658  59.52  0.001347473    1.036    0.035
        23 -11.5966    136.1576      2.7848   6.2762149074e+01   5.0794485742e+01    0.5434391    0.3273624  68.05  0.001774307    1.466    0.318
        24  -9.6225    162.1744      3.1803   5.9798794942e+01   4.3548470642e+01    0.1956236    0.1451149 -59.63 0.0002886014    1.293    0.227
        25  -9.5425    142.5456      1.5423   6.1440454658e+01   4.9114630589e+01    0.2259368    0.1161703  63.67 0.0006738022    1.711    0.416
        26  -9.8991     79.6956    231.5224   1.3357610655e+02   1.7334691725e+01    0.2131079   0.09628467  30.67 0.0006087437    1.814    0.449
        27 -10.9998    247.0163    250.0004   1.0353315244e+02  -6.4287073335e+00    0.3394032    0.1209451  23.38  0.001895652    2.344    0.573
        28 -11.2055    250.3621    245.2526   1.0233970490e+02  -6.3479676176e+00     0.493542    0.1681892 -29.07  0.002820722    2.908    0.656
        29 -12.4218    226.2000    246.1011   1.0636560786e+02  -3.7837297733e+00    0.5471701    0.3216991   5.98  0.003808957    1.390    0.280
        30 -11.7756     27.7231    246.2489   1.4511058264e+02   2.0626393448e+01    0.4634218    0.2132521  78.88  0.002654166    2.258    0.557
        31 -12.4110     21.1563    248.9586   1.4645908193e+02   2.0808429917e+01    0.5648095    0.1989635  37.80  0.003282889    1.818    0.450
        32 -11.5923     14.2896    244.3973   1.4765597539e+02   2.2213010612e+01    0.3994424    0.1849827 -86.43  0.002527476    2.323    0.570
        33 -12.2517      6.9886    243.5680   1.4903014087e+02   2.3006993339e+01    0.5460888    0.3690758  74.96  0.004236193    1.374    0.272
        34 -10.4650      1.4125    244.9840   1.5010215196e+02   2.3248624414e+01    0.1351361   0.08285667  79.47 0.0004272994    1.543    0.352
        35 -11.5673     12.8265    238.5328   1.4780037182e+02   2.3351902378e+01    0.7448716          nan  40.81   0.00273906    4.469    0.776
        36  -9.2784     58.3465    230.2966   1.3809326802e+02   2.0126784764e+01    0.1052745   0.08674429   2.43 0.0004106143    1.675    0.403
        37  -9.5889    169.5214    229.4865   1.1442333894e+02   5.3615018601e+00    0.1232704   0.09129484  20.62 0.0008099303    1.033    0.032
        38 -10.3193    190.5390    226.8624   1.0998646126e+02   2.8200334361e+00     0.248362    0.1116819 -37.66   0.00125673    2.595    0.615
        39  -9.7188    127.3376    233.3489   1.2354283445e+02   1.0691267791e+01     0.121845   0.08387171   5.06 0.0007046604    1.786    0.440
        40 -10.1948    129.9873    226.9698   1.2226043251e+02   1.1310205131e+01    0.3083637    0.1218013  47.70  0.001318872    2.789    0.641
        41 -10.2412     88.1278    227.1233   1.3137817631e+02   1.7019182856e+01    0.1826563    0.1481346  24.41  0.001226546    1.261    0.207
        42 -10.3797     66.4085    226.5676   1.3610179908e+02   1.9845031956e+01    0.2779268    0.1267787  35.37 0.0007750532    1.645    0.392
        43 -10.0891      5.7820    226.7742   1.4893774638e+02   2.6064994624e+01    0.2914541          nan  43.69  0.001076756    4.252    0.765
        44  -9.4217    144.4548    226.5063   1.1914471997e+02   9.3235389751e+00    0.1254506   0.09603821  29.25 8.202661e-05    1.024    0.024
        45 -10.5529    115.9815    225.7892   1.2514795100e+02   1.3472188927e+01    0.1697917    0.1238119  62.80  0.000704758    1.641    0.391
        46 -10.4739    180.8337    224.3997   1.1149603522e+02   4.4691584298e+00    0.1777315    0.1296546 -20.93 0.0006411811    1.489    0.328
        47  -9.9501     81.2226    224.5420   1.3268293921e+02   1.8367019514e+01    0.2225973    0.1411095  73.85  0.001284065    1.880    0.468
        48 -10.9911    141.1990    221.4924   1.1920095594e+02   1.0558740958e+01    0.2965256    0.1867514  15.46  0.001399409    1.674    0.403
        49 -10.9611    123.1737    221.4939   1.2309738478e+02   1.3161733861e+01    0.3043365    0.1943431  39.70   0.00121555    1.259    0.206
        50  -9.3816     51.4958    222.5493   1.3911576125e+02   2.2322081555e+01    0.1198106   0.09150662  46.90 0.0001587062    1.035    0.034
        51 -10.6229     13.1194    221.9609   1.4732367886e+02   2.6312610758e+01    0.1813203    0.1273322  42.81 0.0004877523    1.158    0.137
        52  -9.9746    174.0025    219.7612   1.1217903503e+02   6.0628414386e+00     0.181994    0.1292072  25.41 0.0006356413    1.093    0.085
        53  -9.8779     22.0116    220.4341   1.4540577094e+02   2.5781637442e+01     0.164733   0.08806307  34.27 0.0005034416    1.517    0.341
        54  -9.7151    250.4664    219.1162   9.8405402655e+01  -3.8303439536e+00    0.1481399   0.08591786 -19.76  0.000599204    1.512    0.338
        55 -10.0862    191.5556    217.2637   1.0837702230e+02   3.9135987080e+00    0.1881124    0.1150252 -38.43    0.0010074    1.966    0.491
        56 -10.9184     10.0050    217.0493   1.4784740319e+02   2.7513106202e+01    0.2833773    0.1380262  49.40 0.0007590022    1.445    0.308
        57  -9.5251     37.8071    217.4053   1.4185368843e+02   2.4784089913e+01    0.1510748    0.1001118  23.91 0.0003803398    1.587    0.370
        58 -11.1730    234.9804    215.2750   1.0029902395e+02  -1.5828383686e+00    0.3120552    0.1422613 -22.95  0.001460239    2.150    0.535
        59  -9.7755    194.5426    215.4645   1.0753344528e+02   3.7312365680e+00    0.1227551   0.09309733  15.22 1.332786e-05    1.010    0.010
        60  -9.4895    137.2093    215.6234   1.1930843439e+02   1.2076909790e+01    0.1894237    0.1005807  26.12 0.0009448476    1.701    0.412
        61  -9.7646    170.3212    213.3008   1.1198116221e+02   7.5168253559e+00    0.1280878   0.08320016   7.86 0.0005901601    1.627    0.385
        62  -9.4134    142.7981    213.3978   1.1779835665e+02   1.1604860470e+01    0.1825868    0.1016979  25.78 0.0006135938    1.603    0.376
        63 -11.0900     20.6521    211.7469   1.4539428264e+02   2.7579990654e+01    0.3137265    0.1329768  59.30 0.0009053976    1.896    0.473
        64 -10.2898    208.9766    212.0837   1.0431817438e+02   2.1688556905e+00    0.1840265    0.1368728  11.21 0.0004548548    1.010    0.010
        65 -12.2235      4.2499    207.6205   1.4885139397e+02   2.9823562697e+01    0.4629834    0.2830284  77.35  0.003080549    1.425    0.298
        66 -10.1469     31.1074    215.8146   1.4325646321e+02   2.5776914807e+01    0.1940691    0.1191117  53.03  0.001007971    1.233    0.189
        67  -9.7329    201.5436    215.5448   1.0622980214e+02   2.7504525414e+00    0.1232687   0.08980125  11.82 0.0005319504    1.065    0.061
        68  -9.4041    212.8641    211.8965   1.0358473600e+02   1.6652481179e+00    0.1454155    0.1237295  14.23 0.0004862016    1.317    0.241
        69  -9.5423    223.5729    201.7678   1.0002956322e+02   1.4633988529e+00    0.1410597    0.1039729 -32.34 0.0005389759    1.624    0.384
        70  -9.8842    175.0424    202.4846   1.0935895027e+02   8.4049290456e+00    0.1966817    0.1061343  33.89 0.0005674073    1.546    0.353
        71  -9.6661    218.2816    201.3643   1.0089163753e+02   2.2355725562e+00     0.125967    0.0754594   0.89 0.0007015603    1.682    0.405
        72 -10.0836    205.9875    201.2424   1.0310340173e+02   3.9803445671e+00    0.1803577    0.1130372  -8.41 0.0006195914    1.633    0.387
        73  -9.5781    196.6871    201.6518   1.0492613255e+02   5.2749049614e+00    0.1316672   0.08157788   3.67 0.0007046431    1.718    0.418
        74  -9.3420     34.5127    200.9666   1.4176752266e+02   2.8393043159e+01    0.1548439    0.1092095 -89.75 0.0003622278    1.435    0.303
        75 -10.0401    215.6349    198.6733   1.0090990256e+02   2.9454476162e+00    0.1320006   0.07687471   5.76 0.0007038123    1.801    0.445
        76  -9.9550    227.0390    196.9701   9.8616515140e+01   1.5831399765e+00    0.1864204    0.1378469   5.28 0.0006313742    1.035    0.034
        77  -9.2445     56.6481    197.7074   1.3624656460e+02   2.6619535967e+01    0.1163524   0.09713927 -11.78 0.0007030037    1.678    0.404
        78  -9.5967    203.0083    195.9804   1.0277363342e+02   5.1219228271e+00    0.1542505    0.1207943  10.40 0.0005304741    1.001    0.001
        79  -9.9516    184.2171    208.8308   1.0850853888e+02   6.1094301840e+00    0.1761916    0.1221555   8.14 0.0005868167    1.341    0.254
        80 -10.4351    215.3909    194.7448   1.0028163848e+02   3.4882431565e+00    0.1606079   0.09943604 -17.04 0.0003576961    1.556    0.357
        81 -10.4394    192.7365    194.5991   1.0451089589e+02   6.8574967191e+00    0.2290877    0.1464913  37.26  0.001294679    1.487    0.328
        82  -9.4731    246.3120    190.3260   9.4281943652e+01  -1.7502334890e-01    0.1219602   0.07064569   1.87 0.0004991788    1.662    0.398
        83  -9.2153    205.5170    190.4570   1.0134805470e+02   5.5088076889e+00    0.1281963     0.100371   9.06 0.0001178247    1.017    0.017
        84  -9.9928    232.0273    191.3768   9.6799103487e+01   1.5931055492e+00    0.2287608    0.1101147 -15.51  0.001125828    2.356    0.576
        85  -9.4233     61.6376    184.8156   1.3391214396e+02   2.8762760475e+01    0.1800526    0.1149145  85.65  0.000946634    1.709    0.415
        86 -11.6298     16.1175    182.7580   1.4534930645e+02   3.4000848080e+01    0.4082167    0.1961365  69.10  0.002013314    1.834    0.455
        87  -9.9876    166.9720    183.4865   1.0791028696e+02   1.2705758501e+01    0.2097953    0.1173687  35.57 0.0007718558    1.556    0.357
        88  -9.5143    250.4065    190.1982   9.3616654826e+01  -6.8364138452e-01    0.1475256   0.09253193 -31.11 0.0004491658    1.646    0.393
        89 -10.1755      2.0729    180.2302   1.4869971849e+02   3.5665886844e+01    0.2172774    0.1169475  47.51 0.0005327471    1.447    0.309
        90 -11.0073    244.5831    178.1119   9.2373186998e+01   1.5115150924e+00    0.2396692    0.1229986 -16.20  0.001283464    1.913    0.477
        91 -11.1255    224.3329    178.3855   9.5777236031e+01   4.3468613552e+00    0.2443691    0.1957917   8.76 0.0004730148    1.074    0.069
        92  -9.5520     36.0817    178.5075   1.4005593756e+02   3.3073928010e+01    0.1792294    0.1112544  33.39 0.0004994543    1.461    0.316
        93 -10.3492    200.2641    176.9465   9.9905939111e+01   8.2607739012e+00    0.1847866    0.1505326  -2.24 0.0006309242    1.080    0.074
        94  -9.5947     70.1864    177.6173   1.3095464490e+02   2.9253870077e+01    0.1768405     0.121772  23.02 0.0004622511    1.540    0.351
        95  -9.3983      8.3074    173.3259   1.4695004222e+02   3.6722905058e+01    0.1115929   0.08725207 -50.89 0.0007036764    1.651    0.394
        96  -9.7984     74.7166    171.2729   1.2901632375e+02   3.0070179053e+01    0.1733355    0.1579489   2.44 0.0007179505    1.321    0.243
        97  -9.4715     59.6806    171.3522   1.3314515483e+02   3.2032761627e+01    0.1504967    0.0851164  59.75 0.0007047386    1.745    0.427
        98 -11.4347     12.6767    170.2394   1.4571222246e+02   3.7079522273e+01    0.3184088    0.1503303  75.21  0.001385326    1.914    0.477
        99  -9.6120    209.8301    166.3878   9.6092279167e+01   8.2737507176e+00    0.1806041    0.1077914  25.99 0.0005640734    1.616    0.381
       100 -10.7894     41.7183    165.9636   1.3761848217e+02   3.5375048243e+01    0.1859147    0.1539865  75.60 0.0004592878    1.100    0.091
       101  -9.1983     21.6487    166.6856   1.4316930915e+02   3.7150908439e+01    0.1204205   0.09241322 -40.99 0.0007046399    1.729    0.422
       102  -9.6277     67.1746    165.1302   1.3039095742e+02   3.2515050625e+01    0.2041045    0.1428387  58.82  0.000702094    1.347    0.258
       103 -10.6943     51.4499    164.5706   1.3476850580e+02   3.4614003011e+01     0.300202    0.1866973 -32.69  0.001385775    2.489    0.598
       104 -10.5715     44.8703    163.5572   1.3653195602e+02   3.5602212715e+01     0.282756    0.1544798  77.34  0.001325472    1.951    0.487
       105  -9.4301    200.2259    162.6478   9.7164708686e+01   1.0437207551e+01    0.1805439    0.1123216  29.15 0.0004790557    1.518    0.341
       106 -11.1160     37.0159    159.0851   1.3838935633e+02   3.7503892856e+01    0.4250026     0.199206 -72.34            0    2.072    0.517
       107  -9.7778      4.5901    168.2801   1.4773336346e+02   3.8134889712e+01     0.230766    0.0994295  86.69  0.001134779    2.087    0.521
       108 -10.6910    247.9271    158.6938   8.8201519984e+01   3.4672629450e+00    0.1709589    0.1378662   5.10 0.0008130888    1.116    0.104
       109  -9.9962    238.6837    158.4301   8.9584801242e+01   4.8603147780e+00    0.2251676    0.1292021 -11.22  0.001165494    1.810    0.448
       110 -10.1353    246.5009    162.4848   8.9149324475e+01   3.1904250073e+00    0.1215551   0.09575634  -6.83 1.702102e-05    1.039    0.037
       111 -10.9723     22.1573    156.0244   1.4241806372e+02   3.9626761824e+01    0.4224244     0.194075  38.58  0.002063212    1.859    0.462
       112  -9.2786     23.6873    152.6724   1.4176766602e+02   4.0305526418e+01     0.221552    0.1035096 -69.00 0.0005807979    2.051    0.512
       113  -9.3467    216.9887    155.0000   9.2533904827e+01   8.7686180298e+00    0.2081409   0.07031386  42.27 0.0008098759    2.994    0.666
       114 -10.0347    197.1995    153.6111   9.5919597625e+01   1.2389925633e+01    0.1979797    0.1174246  29.77 0.0009539537    1.668    0.401
       115  -9.2908    151.6783    153.3417   1.0575233938e+02   2.0911175746e+01    0.1451312    0.1172951  74.59 0.0004706867    1.723    0.420
       116 -10.3900     11.0788    153.0569   1.4540098463e+02   4.1211615671e+01    0.3519442    0.1359362  31.24  0.001643025    2.268    0.559
       117 -10.3337    178.0947    151.3821   9.9353573883e+01   1.6263399159e+01    0.2729248    0.2406283  47.34  0.001546883    1.292    0.226
       118  -9.2014    233.6743    146.6887   8.8030653637e+01   7.2282584874e+00    0.1326656   0.08629402   3.41 0.0003912642    1.660    0.397
       119 -10.3743    206.9988    146.0479   9.2477577231e+01   1.1841404009e+01    0.2117307    0.1804463   1.57 0.0006760633    1.028    0.027
       120 -10.2699      2.9493    144.0403   1.4735132796e+02   4.3921845376e+01    0.1944087    0.1326413 -53.15   0.00113024    1.702    0.413
       121  -9.8775     49.2893    141.9879   1.3303489764e+02   4.0400218807e+01    0.1925385    0.1685715 -86.64 0.0003204304    1.107    0.096
       122 -11.4374      9.4638    145.4930   1.4551382418e+02   4.3148971058e+01    0.4282792    0.1540787  43.89    0.0019253    2.292    0.564
       123 -10.4064    236.6144    138.9175   8.5961372573e+01   7.8305735489e+00    0.2019752    0.1773662  27.12 0.0003564856    1.279    0.218
       124 -10.6635     55.0856    136.4664   1.3049525362e+02   4.1113267018e+01    0.7266271    0.2642395  57.31  0.002214765    4.053    0.753
       125 -11.9774      9.2525    136.6830   1.4514436125e+02   4.5326373549e+01    0.2488435    0.2328772 -23.54  0.000163721    1.337    0.252
       126 -11.0734      2.8526    137.7490   1.4713725810e+02   4.5456875632e+01    0.3633074     0.156565 -82.37 0.0005745617    2.028    0.507
       127 -10.2695      5.6838    133.7169   1.4609995060e+02   4.6283723435e+01    0.1883073    0.1812153 -25.97 0.0005734228    1.292    0.226
       128 -10.9625     40.3552    135.8651   1.3520768852e+02   4.2934885908e+01    0.2412983    0.2032045  46.39 0.0003456859    1.141    0.124
       129 -10.7526     21.9065    136.1234   1.4115772662e+02   4.4554260573e+01    0.3022098    0.1756427  33.35     0.001293    1.657    0.396
       130  -9.8343    138.0343    135.4720   1.0537997370e+02   2.7245992233e+01    0.2431492    0.1447875  37.66  0.001026556    1.600    0.375
       131  -9.1864     74.6025    135.5163   1.2405193309e+02   3.8699374966e+01    0.1472837    0.1359703  69.37 9.294708e-05    1.026    0.025
       132 -10.0288     80.0762    133.1427   1.2189437262e+02   3.8460546226e+01    0.2218336    0.2060987 -16.20  0.000558505    1.242    0.195
       133 -11.7787     36.6968    130.5626   1.3584063209e+02   4.4666200592e+01    0.4124354    0.3542455  42.40  0.002029993    1.164    0.141
       134 -10.2831     73.9444    129.2470   1.2320415123e+02   4.0385817116e+01    0.2557179    0.2155424 -65.98 0.0008087691    1.203    0.168
       135  -9.8836    249.3481    129.7833   8.2176131356e+01   7.0246417884e+00    0.1984917    0.1026872  49.66  0.001017017    2.379    0.580
       136  -9.4949    243.0218    128.4814   8.2805039701e+01   8.2201525557e+00    0.1647294    0.1221301  38.49 0.0004478694    1.497    0.332
       137 -11.1825      1.7347    125.5987   1.4697919262e+02   4.8524543238e+01    0.3864323    0.1526017 -70.52 0.0005179106    2.235    0.553
       138 -10.1643    219.8027    124.6708   8.5563186578e+01   1.2810041867e+01    0.2253543    0.1653098 -18.54 0.0006128633    1.263    0.208
       139 -11.0991     10.2432    122.5318   1.4402572891e+02   4.8823679887e+01    0.3017488    0.2021142  46.49  0.001090036    1.422    0.297
       140  -9.9883    123.6865    130.6969   1.0820023153e+02   3.1180495599e+01    0.1558737    0.1226195  -1.62 0.0003022259    1.615    0.381
       141  -9.7513     19.8793    121.6916   1.4069253402e+02   4.8398276947e+01    0.1961982    0.1623405 -20.00  0.001149426    1.493    0.330
       142 -10.3240    226.2149    124.3841   8.4463663269e+01   1.1687353221e+01    0.1661009    0.1290466  56.54 0.0008727744    1.641    0.391
       143 -11.4567     24.2836    107.3983   1.3772686622e+02   5.1809138546e+01    0.5686052    0.2394525  53.85  0.002276934    2.578    0.612
       144 -11.5122     17.7123    117.3646   1.4108681729e+02   4.9671988575e+01    0.4364817    0.2521115 -51.14  0.002171154    1.830    0.454
       145 -10.2418     19.7953    113.0164   1.3996171770e+02   5.0659917541e+01    0.2108612    0.1630923 -65.24 0.0007769428    1.239    0.193
       146 -12.2131     16.9425    108.5051   1.4059756073e+02   5.2032050722e+01    0.4763194    0.3776925 -69.17 0.0003399126    1.176    0.150
       147  -9.5121     10.9745    109.2374   1.4285933210e+02   5.2201390965e+01    0.2369465    0.1640348  -2.72 0.0009848872    1.798    0.444
       148  -9.8117    249.6863    118.3250   7.9710983006e+01   8.5004780717e+00    0.1209304   0.08968088 -50.49 0.0005300202    1.664    0.399
       149 -10.8153     86.0790    116.6101   1.1668709072e+02   4.1644709272e+01    0.2680131    0.2174273 -55.31  0.001319136    1.257    0.205
       150  -9.5303    179.4734    116.5243   9.1105943724e+01   2.2239869559e+01    0.1489369    0.1398954  -0.35 9.125709e-05    1.005    0.005
       151 -11.4725     36.1473    111.0625   1.3369949833e+02   4.9827832574e+01    0.5498318    0.3442065 -68.60  0.002044975    1.471    0.320
       152  -9.8078     66.6399    112.9307   1.2272810826e+02   4.5675720691e+01    0.2064738    0.1790819 -82.88 0.0003739299    1.147    0.128
       153 -10.0569    248.5405    112.4845   7.8607499311e+01   9.4762461204e+00     0.127818     0.104152 -18.07 6.593817e-05    1.031    0.030
       154 -10.2498     55.0387    110.0590   1.2645838721e+02   4.8003645595e+01    0.3845555    0.2067827   8.71  0.001444057    2.822    0.646
       155 -10.0330     44.0058    109.6297   1.3053604291e+02   4.9410398561e+01    0.3546143    0.2107206 -17.18 0.0007538805    2.604    0.616
       156  -9.4979    167.3333    109.2881   9.1880521510e+01   2.6249363815e+01    0.1571672    0.1182686  12.55 0.0003727187    1.626    0.385
       157 -10.3900    242.1698    108.3779   7.8560544172e+01   1.1133567603e+01    0.1585176    0.1265132  67.86 0.0006024063    1.710    0.415
       158  -9.5453    133.3739    107.7612   9.9888662048e+01   3.4233740301e+01    0.2266814    0.1501708 -33.42 0.0008634742    1.683    0.406
       159 -10.7439      5.8552    107.2871   1.4459348548e+02   5.2973173984e+01    0.3354611    0.1821224 -55.24  0.001601707    1.817    0.450
       160 -10.2351     62.3888    107.2007   1.2316918895e+02   4.7779566087e+01    0.2717998    0.2075525  32.92 0.0006433515    1.329    0.248
       161  -9.9753      2.9421    105.2773   1.4553612559e+02   5.3624063431e+01    0.1696353    0.1560644 -86.83 0.0004178122    1.098    0.089
       162 -10.6960    243.4960    104.4969   7.7519824701e+01   1.1434496359e+01     0.130005    0.1082137 -18.85 0.0008103118    1.042    0.040
       163 -10.0395    223.3658    103.9313   8.0228843305e+01   1.5252550129e+01    0.1985701    0.1901479 -63.63 0.0004991841    1.235    0.190
       164 -11.1255     69.9503    102.4482   1.1932314094e+02   4.7911204622e+01    0.4006786    0.2708161  20.20 0.0009067968    1.707    0.414
       165 -10.2539     10.1589    102.4649   1.4263870711e+02   5.4006577296e+01    0.2497177    0.1663346  51.01  0.001363445    1.493    0.330
       166 -10.9759    247.8565    102.1695   7.6438144500e+01   1.0985684229e+01    0.1948059    0.1583303 -39.56 0.0007012035    1.207    0.171
       167 -10.5430     35.6364    101.3152   1.3251807101e+02   5.2465449190e+01    0.2650958    0.2150739  32.69  0.001026357    1.294    0.227
       168 -10.1266     27.7516    101.0194   1.3561607881e+02   5.3228339241e+01    0.2488746    0.1673006 -44.93  0.001003706    1.573    0.364
       169  -9.1319     91.6898    101.2913   1.1114339649e+02   4.4468785566e+01    0.1598842    0.1222008  71.96 0.0003351264    1.584    0.369
       170 -11.0744      3.4919    100.4627   1.4503488562e+02   5.4840430762e+01    0.3140145    0.2308391  62.28 0.0008626596    1.299    0.230
       171  -9.0946     84.6888    100.3351   1.1338051077e+02   4.5994908040e+01    0.1632197    0.1210994  73.97 0.0004410608    1.681    0.405
       172 -11.4719     20.6026     97.8673   1.3809247206e+02   5.4590366621e+01    0.5386627    0.2689283  77.36   0.00219681    2.225    0.551
       173 -10.7738     63.3697     98.4695   1.2096364180e+02   4.9928396452e+01    0.5190958    0.2475619  26.83  0.001986485    2.284    0.562
       174  -9.2451    141.0160     97.0524   9.4891344187e+01   3.4756905685e+01    0.1852916    0.1831821   8.74 0.0009570111    1.018    0.017
       175  -9.9708    119.9876    101.2019   1.0194826227e+02   3.8662215622e+01    0.2688752    0.1890769  14.01  0.001067352    2.008    0.502
       176 -10.7393      2.0272     93.4125   1.4514403676e+02   5.6718550431e+01    0.3779702     0.136386 -64.00   0.00160862    2.312    0.568
       177 -11.1578     11.3199     91.1381   1.4117649872e+02   5.6908096394e+01    0.3591484    0.2200861   4.69  0.001850565    1.952    0.488
       178  -9.7487    171.3850     91.1818   8.6138557959e+01   2.8666232852e+01    0.2229298    0.1385506 -45.26 0.0009480512    1.642    0.391
       179 -10.9079     96.4478     90.1654   1.0643628958e+02   4.6243554996e+01    0.4443256    0.2975126  -9.19  0.001637724    2.593    0.614
       180 -10.6841     26.2620     90.7423   1.3482479339e+02   5.6073261144e+01    0.2660172    0.2241908 -18.78  0.001523923    1.352    0.260
       181 -10.6437     73.0934     88.7923   1.1477077583e+02   5.0915074502e+01    0.2267487    0.1989748  68.61 0.0003942297    1.223    0.182
       182  -9.4889    103.5267     88.5188   1.0352340891e+02   4.5155352148e+01    0.1592996    0.1563832  50.28 0.0003389281    1.005    0.005
       183 -10.3731     39.9952     80.9408   1.2701440690e+02   5.7442610265e+01    0.5098801    0.2364043  34.45   0.00161005    2.176    0.540
       184 -10.2200     45.3130     87.2866   1.2598817078e+02   5.5196461174e+01    0.2886169    0.2267789 -45.52 0.0002106381    1.272    0.214
       185 -11.4132     48.5690     85.1345   1.2410490565e+02   5.5383280104e+01     0.514498    0.3134508  61.94 0.0003480292    2.085    0.520
       186  -9.1625      6.7599     88.3214   1.4282149745e+02   5.7853791748e+01    0.1446755    0.1180649  12.15  0.000141688    1.424    0.298
       187  -9.2594    227.4655     93.4752   7.7159748770e+01   1.5985230294e+01    0.1352961    0.1182418 -26.79 0.0001238574    1.004    0.004
       188 -10.5886    112.8670     85.7933   9.9647302821e+01   4.3719167465e+01    0.3606754    0.3091494  75.37 0.0009196123    1.322    0.244
       189 -10.7901     67.0888     85.8716   1.1641690921e+02   5.2627054901e+01    0.2411566    0.2096788  75.50  0.001232757    1.258    0.205
       190 -10.7187    117.8901     83.3732   9.7332626166e+01   4.3097319842e+01    0.3288881    0.2918064 -11.12 0.0005626172    1.261    0.207
       191 -10.0224     29.7452     82.3922   1.3196267119e+02   5.8010404190e+01    0.3660399    0.1690443 -54.96 0.0009829843    1.920    0.479
       192 -11.5281     18.7611     81.0659   1.3675343541e+02   5.9145146357e+01    0.5987833    0.3416994   9.16  0.002904949    2.043    0.510
       193 -11.1300     23.6814     79.3404   1.3423218708e+02   5.9277683086e+01    0.3517539    0.2323934 -79.70  0.001004756    1.421    0.296
       194 -11.0426     85.4327     80.9708   1.0771625862e+02   5.0629965462e+01     0.289937    0.2306529  15.08   0.00124753    1.463    0.317
       195 -11.0900     71.2274     79.2398   1.1285577066e+02   5.3624249471e+01    0.3016535     0.277482 -28.15 0.0004469492    1.121    0.108
       196 -11.2103     75.4946     79.8761   1.1129413000e+02   5.2731731255e+01    0.3674339    0.2639336 -53.74    0.0013513    1.379    0.275
       197 -10.2733     74.3459     76.3063   1.1068108784e+02   5.3808343318e+01    0.2921931    0.2242115  -3.64  0.001136543    1.663    0.399
       198 -10.2710      2.1708     72.4008   1.4343576110e+02   6.2140744501e+01    0.2794049    0.1878566 -65.45 0.0007218809    1.266    0.210
       199 -11.4850      3.2402     77.9639   1.4344541571e+02   6.0673054426e+01    0.3545126    0.2395461 -81.33 0.0009960983    1.268    0.211
       200 -11.5532      7.3782     74.2986   1.4117695239e+02   6.1477523927e+01    0.4872733    0.2689236 -49.32  0.002464271    1.686    0.407
       201 -10.3245     93.3380     77.2587   1.0358869587e+02   4.9916310766e+01    0.3379424    0.2628165  -7.51  0.001011698    1.673    0.402
       202 -11.8183     58.8072     75.5487   1.1714511357e+02   5.6500278507e+01     0.670016      0.36213  57.88  0.002481609    2.733    0.634
       203 -10.3297     65.3015     73.7057   1.1373163417e+02   5.5969546844e+01    0.2361909    0.2269417   3.01 0.0003786491    1.064    0.060
       204 -11.5488     62.0754     71.8989   1.1461371172e+02   5.6924230094e+01    0.4679515    0.2715493 -43.57  0.001761789    1.742    0.426
       205 -11.0321    150.0461     77.5843   8.6852843693e+01   3.6399052640e+01    0.2888121    0.2303663 -37.88 0.0003207158    1.264    0.209
       206 -10.1208    177.2784     76.1725   8.0720083629e+01   2.9851768041e+01    0.2811022    0.1959717 -85.31  0.001200401    2.015    0.504
       207  -9.7080    121.5354     76.4780   9.4023398899e+01   4.3694776890e+01    0.1606674    0.1571887  45.73 0.0002307012    1.004    0.004
       208 -10.1431     87.9590     76.5040   1.0534775164e+02   5.1191754639e+01    0.2343801    0.1546222  39.87   0.00045707    1.508    0.337
       209 -10.5382     41.5386     64.1399   1.2218427722e+02   6.1614474076e+01    0.2348229    0.2022508   7.18 0.0003006125    1.239    0.193
       210 -10.1094     44.9512     75.0263   1.2336556405e+02   5.8442941899e+01    0.2097107    0.2033887 -70.76 0.0003253998    1.042    0.040
       211 -11.4009     40.3604     72.7756   1.2500029256e+02   5.9534304090e+01    0.5733194    0.3563355 -52.39 0.0007496008    1.476    0.322
       212 -10.7455     36.6482     68.1983   1.2571574896e+02   6.1096501098e+01    0.4219666    0.2415535 -42.44  0.001927119    1.738    0.425
       213 -10.7790    102.7982     73.0175   9.8828966544e+01   4.8817080858e+01    0.2804314     0.228383  42.54 0.0005663767    1.207    0.171
       214 -10.5273     27.6214     71.2909   1.3089952381e+02   6.1095951755e+01    0.5579183    0.2180854 -78.75   0.00200329    2.946    0.661
       215 -10.5145     21.5927     65.9937   1.3291242695e+02   6.2906267031e+01    0.3043641    0.1895851  27.58  0.001255775    1.736    0.424
       216 -10.6343     16.9353     72.5247   1.3636606356e+02   6.1490957734e+01    0.2524149    0.1778092 -89.45 0.0007775979    1.389    0.280
       217 -10.6429     16.4443     67.6203   1.3583608159e+02   6.2794188530e+01    0.3001859     0.217948  82.97  0.001160977    1.428    0.300
       218  -9.8144    245.0089     72.7468   7.0109152412e+01   1.5436513248e+01    0.1444787     0.112397  64.32 0.0005517221    1.530    0.346
       219 -10.2367    175.1006     71.6591   7.9812082221e+01   3.1139982701e+01    0.2787066    0.2141681 -26.88 0.0002937005    1.336    0.252
       220 -10.5220    152.4396     72.0600   8.4577466418e+01   3.6804894127e+01    0.3022943    0.2157086  39.36 0.0007317794    1.500    0.334
       221 -11.0141     78.1778     72.0024   1.0773389268e+02   5.4147255314e+01    0.4024834    0.2143231  44.65 0.0009457391    1.931    0.482
       222 -10.7814    140.9648     71.5253   8.7122127545e+01   3.9833001610e+01    0.2460296    0.1551673  52.25 0.0005987277    1.550    0.355
       223 -11.2530     95.7145     67.2977   9.9336338961e+01   5.1641172262e+01    0.6729555    0.3895769 -35.80  0.001891709    1.901    0.474
       224 -11.3370     49.5876     70.7966   1.2006813092e+02   5.8963435321e+01    0.3918777    0.2180871  39.64   0.00134316    1.884    0.469
       225 -10.0770     51.2739     67.3593   1.1827936747e+02   5.9609941638e+01     0.308161    0.1918458 -40.63 0.0009663823    1.638    0.389
       226  -9.6211    230.3356     68.9479   7.0869231953e+01   1.8855842548e+01    0.1867341    0.1532284 -31.85 0.0004693479    1.080    0.074
       227 -10.6816    159.6883     69.1665   8.2096383152e+01   3.5459534573e+01    0.4494908    0.2565594  83.97  0.001476994    3.233    0.691
       228 -11.1693     68.6669     67.2072   1.1018442068e+02   5.6992541364e+01    0.3132655    0.2388339 -43.34 0.0003452461    1.293    0.226
       229 -10.6798     31.1796     66.6564   1.2811997698e+02   6.2003097088e+01    0.3539783    0.2245216 -67.48  0.001110621    1.457    0.314
       230 -12.0107      4.4826     65.3889   1.4158645737e+02   6.3876025114e+01    0.6177661    0.2852088  58.04  0.002554685    2.568    0.611
       231  -9.5797    146.7092     65.9544   8.3923386334e+01   3.9371694965e+01    0.2183361    0.1973885 -43.90 0.0002893599    1.119    0.106
       232 -10.7762     76.9040     65.1945   1.0594420176e+02   5.5976863195e+01    0.5996387     0.254629 -43.03  0.002116581    2.432    0.589
       233 -11.3305     83.6737     62.3682   1.0214352148e+02   5.5280112428e+01    0.5654591    0.3449791  43.70   0.00215357    1.633    0.388
       234 -10.1295     86.6590     59.3127   9.9814319578e+01   5.5322489736e+01    0.2958423    0.2552943 -83.17  0.001452394    1.412    0.292
       235 -10.1390    174.0298     63.9540   7.7714913532e+01   3.2659999776e+01    0.2275545    0.2178534 -73.92 0.0004787559    1.032    0.031
       236 -10.0519    130.0168     63.9924   8.7408460347e+01   4.4042227506e+01    0.2331341    0.2312225 -37.55  0.001211187    1.037    0.036
       237 -10.4302    121.6235     62.4414   8.9184921378e+01   4.6470064015e+01    0.4136989    0.2583885 -17.45  0.001184659    2.294    0.564
       238 -10.2490     92.8917     61.6286   9.8307268508e+01   5.3480499780e+01     0.386883    0.2261618 -43.80 0.0006455217    1.739    0.425
       239 -10.6007     56.2165     62.3269   1.1431840146e+02   6.0156070722e+01    0.2628899    0.2303702 -61.14 0.0006290139    1.160    0.138
       240 -10.6937     51.6890     62.4129   1.1656288318e+02   6.0779701497e+01    0.3033602    0.2286949 -31.16 0.0007213375    1.387    0.279
       241 -11.4426      4.9156     53.2529   1.3978451457e+02   6.6953737968e+01    0.4582315    0.2807378 -46.39  0.002502072    1.460    0.315
       242 -10.8654     10.8164     62.6851   1.3796529842e+02   6.4341513223e+01    0.2618259     0.211251  64.42 0.0003980577    1.348    0.258
       243  -9.6783    202.3070     62.5183   7.2813143762e+01   2.5945800773e+01    0.1760297    0.1351216  48.93   0.00046714    1.419    0.295
       244 -11.4812     26.7733     61.5007   1.2924286833e+02   6.3690564798e+01     0.443859    0.2362482   6.64  0.001987444    2.249    0.555
       245 -11.3636     33.5474     59.7260   1.2516462627e+02   6.3556182834e+01    0.3273158    0.2403983 -31.31 0.0007136565    1.391    0.281
       246  -9.7126    160.5291     61.0403   7.9363871687e+01   3.6608881410e+01    0.2337318    0.1530624 -32.62   0.00101574    1.546    0.353
       247 -11.0095     70.0548     59.2796   1.0678362755e+02   5.8599678083e+01    0.4288145    0.3371683 -69.49   0.00207278    1.521    0.343
       248 -11.1330     64.3473     59.6661   1.0953465859e+02   5.9505410479e+01    0.4240739    0.2195328  35.36  0.001299754    1.960    0.490
       249  -9.7683     17.9964     59.0425   1.3347566215e+02   6.4916317155e+01    0.2112604    0.1484193  64.98 0.0005529882    1.660    0.397
       250 -10.8395    123.1127     56.6997   8.6682195079e+01   4.7158260692e+01    0.3231289    0.2342936 -62.22 0.0008469906    1.670    0.401
       251 -10.4287     44.8752     57.7728   1.1856037475e+02   6.2805543616e+01    0.3377592    0.1777463  35.91 0.0006700652    1.977    0.494
       252 -10.0387    113.2355     57.5295   8.9872193420e+01   4.9507764413e+01    0.4151896    0.1462843  48.26  0.001303323    2.713    0.631
       253 -10.7970    101.6355     55.6624   9.2909838791e+01   5.2693602401e+01    0.5824183    0.2563573  48.28  0.001624194    2.201    0.546
       254  -9.0682     75.3290     56.2652   1.0331727737e+02   5.8286110961e+01    0.1527923     0.118603   1.09 0.0003579609    1.573    0.364
       255 -11.9928     37.8766     51.7321   1.2042487125e+02   6.5095505496e+01    0.6885787    0.4340827 -40.10   0.00281068    1.527    0.345
       256 -10.8801     44.8010     51.6484   1.1655441927e+02   6.4294091351e+01    0.2703574    0.2353098 -38.56 0.0003858426    1.067    0.063
       257 -11.8817    128.0018     51.5663   8.3475267415e+01   4.6787188612e+01    0.4450969    0.3420862 -21.94 0.0005000069    1.453    0.312
       258 -11.3185     13.6998     51.3212   1.3436610682e+02   6.7103451841e+01    0.4330782     0.383357  63.37  0.002563452    1.279    0.218
       259 -11.8736      6.8139     42.0528   1.3673444157e+02   6.9691760444e+01    0.6343732    0.1451299 -64.04 0.0009184127    2.902    0.655
       260 -11.0313     11.2927     44.0597   1.3429984509e+02   6.9025520259e+01    0.4049419    0.2483086 -42.46  0.001360729    1.456    0.313
       261  -9.3461    122.5015     51.4230   8.4882458495e+01   4.8253757418e+01    0.1606844    0.1490674  37.94 8.600051e-05    1.082    0.076
       262 -10.8882    114.5221     49.3516   8.6344467389e+01   5.0678245918e+01     0.420494     0.306988 -37.23  0.001921806    1.417    0.294
       263 -10.2917     71.8759     51.3015   1.0287393859e+02   6.0027780801e+01    0.4611061    0.2369059  33.88 0.0009329893    2.070    0.517
       264 -10.3547     76.7476     50.4179   1.0036518649e+02   5.9256684566e+01    0.2513798    0.2028632   6.49  0.000535226    1.415    0.294
       265  -9.4713    208.6550     48.7221   6.8255605132e+01   2.6367141544e+01    0.1921043    0.1137583 -38.93 0.0003933212    1.502    0.334
       266 -10.9607    107.7820     48.9206   8.8223839428e+01   5.2461079088e+01     0.272804    0.2297169  37.72 0.0002795986    1.182    0.154
       267 -11.1099     51.3830     48.4101   1.1180023370e+02   6.4147420365e+01    0.3162252    0.2394699  62.60 0.0007408576    1.766    0.434
       268  -9.7011    196.8242     48.2039   6.9585981363e+01   2.9272661855e+01    0.1796215    0.1644243  20.12 0.0002450217    1.270    0.213
       269 -10.6047    153.2482     47.0907   7.6199844087e+01   4.0740065208e+01    0.5552725    0.2626595 -62.58  0.001621386    3.988    0.749
       270 -10.7348    101.0454     48.4633   9.0234611265e+01   5.4204294349e+01    0.3405861    0.2465638  50.02  0.001049714    1.336    0.251
       271  -9.6866    104.3418     46.2972   8.8254423902e+01   5.3787436165e+01    0.3197525    0.2079513  12.37 0.0005997358    2.468    0.595
       272 -10.5950    142.7075     46.0494   7.7990886099e+01   4.3746284312e+01    0.3367972    0.2557759 -47.85 0.0006716989    1.358    0.264
       273 -10.5388     62.0409     47.2185   1.0583385766e+02   6.2704455057e+01    0.4342384     0.212095  27.78  0.001540288    2.431    0.589
       274 -10.0545     87.0635     52.3840   9.6932191673e+01   5.6679647669e+01    0.2273729     0.187055  43.99  0.001115023    1.195    0.164
       275  -9.2118    233.4311     45.4334   6.4791244382e+01   2.1260548884e+01    0.1296923    0.1113379 -44.18 0.0001693199    1.019    0.019
       276 -11.0559    122.9613     44.4493   8.2079396503e+01   4.9304594970e+01    0.5246828    0.3664922 -54.92   0.00175711    1.637    0.389
       277  -9.7626     91.5485     45.0136   9.2142446303e+01   5.7099803283e+01    0.2259213    0.1526259 -37.50 0.0003819467    1.522    0.343
       278 -11.6621     96.4791     40.6277   8.8473922549e+01   5.6714984920e+01    0.6494439    0.4562578 -71.73  0.002721217    2.142    0.533
       279  -9.0619    237.9734     43.7582   6.3969497259e+01   2.0514074757e+01    0.1362868    0.1075026  76.98 0.0001908307    1.414    0.293
       280  -9.1077    175.6429     43.2461   7.1095039213e+01   3.5327467784e+01    0.1534385    0.1075307 -72.33 0.0003309279    1.597    0.374
       281 -10.2196    163.0593     42.4961   7.2873907834e+01   3.8770502461e+01    0.2240568    0.2007813 -40.70 0.0003199733    1.124    0.110
       282 -10.8286     64.6666     41.5999   1.0211162776e+02   6.3418805147e+01    0.2852482    0.2443072 -30.21  0.001034311    1.143    0.125
       283 -10.0953    110.0183     41.7715   8.4616355575e+01   5.3129168923e+01     0.378462    0.2389707  71.80 0.0007129326    1.962    0.490
       284 -10.9293     80.7585     41.9784   9.5030767446e+01   6.0097813773e+01    0.2993429    0.2248465  53.34  0.001016547    1.402    0.287
       285  -9.5194     52.2198     41.9951   1.0873072637e+02   6.5453847616e+01    0.1909357    0.1132988 -48.81 0.0004655455    1.638    0.389
       286 -10.3046     23.7090     41.6444   1.2572268805e+02   6.8866128424e+01    0.7083991    0.3580562  59.48  0.002686256    3.609    0.723
       287  -9.6601     32.4121     34.2591   1.1736493907e+02   6.9783993687e+01    0.3898895    0.1419014  31.75  0.001538499    2.767    0.639
       288 -10.6669     27.7165     35.6274   1.2102513394e+02   6.9944682466e+01    0.3007376    0.1700481 -45.18  0.001475638    1.561    0.359
       289 -11.3920     24.1115     35.2837   1.2332956475e+02   7.0342052787e+01    0.3115562    0.2511133   2.48   0.00081307    1.281    0.219
       290  -9.6893     29.1407     40.8009   1.2197392488e+02   6.8602754528e+01    0.1876235    0.1371929 -30.83 0.0003430904    1.311    0.237
       291 -10.2374    226.4186     40.1434   6.4141936166e+01   2.3421521524e+01    0.2278739    0.1793184 -79.28 0.0005204345    1.311    0.237
       292 -11.1728    135.6951     38.5785   7.6769098488e+01   4.6774874001e+01     0.443933    0.2718484 -23.81  0.001866647    1.831    0.454
       293  -9.8933     43.9997     39.1881   1.1220161624e+02   6.7266533892e+01    0.2572765    0.1724135 -63.09 0.0009877235    1.731    0.422
       294 -10.8356     85.2086     38.6491   9.1730403853e+01   5.9720213273e+01    0.2780933    0.1951432  31.95 0.0004085583    1.496    0.331
       295 -11.4791     81.8619     36.3182   9.1977697446e+01   6.0892304216e+01    0.4020371    0.3112819  20.01  0.001095198    1.416    0.294
       296 -11.1072     70.2947     36.3802   9.7009929317e+01   6.3354512197e+01    0.4852692    0.3112914 -10.83  0.001129501    2.265    0.558
       297  -9.6693      1.3172     37.8523   1.3954434147e+02   7.0864262469e+01    0.1823004   0.08840077 -63.48 0.0003733531    1.629    0.386
       298  -9.7683    101.9490     36.9441   8.5038718077e+01   5.5977021398e+01    0.2334717     0.216242  51.75 0.0005743186    1.043    0.041
       299 -10.2805    146.6355     35.8090   7.3517956762e+01   4.4168642288e+01    0.2174789     0.186333  59.04 0.0009880903    1.129    0.114
       300  -9.3059     56.6990     36.2948   1.0373780560e+02   6.5922488311e+01    0.1349591    0.1170327  80.10 0.0002649549    1.573    0.364
       301 -10.0875    111.0219     35.0144   8.1475007648e+01   5.3942316404e+01    0.2254876    0.2161048  67.77 0.0003525809    1.048    0.046
       302 -10.2310    105.9825     34.2533   8.2610183741e+01   5.5371422046e+01    0.2892857    0.2126375 -62.11  0.001234302    1.689    0.408
       303 -10.4433    150.9913     34.0915   7.2104465262e+01   4.3205369142e+01    0.2297231     0.216759  64.15 0.0004754569    1.060    0.057
       304  -9.9874    129.9194     33.2680   7.6000618537e+01   4.9112863712e+01    0.2722579    0.2039822 -58.58 0.0006146254    1.481    0.325
       305 -11.1902      2.6433     32.4493   1.3760362546e+02   7.2145904696e+01    0.3769546    0.2727359  31.11  0.001187327    1.644    0.392
       306 -10.1459    137.0178    247.7150   1.2310881112e+02   7.2902315751e+00    0.1694703    0.1154432  29.84 0.0004562165    1.066    0.062
       307  -9.6946    127.8547    249.6581   1.2514212837e+02   8.2275373334e+00    0.1501466    0.1241351  21.30  0.001108527    1.189    0.159
       308 -10.1400     96.6214     32.7345   8.4878071327e+01   5.7985166726e+01    0.2475702    0.1721796  22.15  0.000612582    1.753    0.430
       309 -10.1835     77.2778     33.5732   9.2559894481e+01   6.2392978890e+01     0.215131    0.1331013  35.80 0.0009400416    1.646    0.393
       310 -10.4931    178.8438     31.8270   6.7096338105e+01   3.5985305995e+01    0.2612819    0.2012593 -63.70 -0.0006383859    1.276    0.216
       311  -9.9668     89.9563     31.9106   8.6797735229e+01   5.9750463926e+01    0.2207823    0.2075377  37.10 0.0003201028    1.019    0.019
       312 -10.4672     18.8464     31.9291   1.2581821020e+02   7.1526753180e+01    0.2467628    0.1540122  47.49  0.001243447    2.078    0.519
       313  -9.7555     56.0175     31.0171   1.0152285113e+02   6.7086488655e+01    0.1753285    0.1592047 -12.84 0.0004681591    1.033    0.032
       314 -10.4917     50.2428     27.7687   1.0310110895e+02   6.8700638306e+01    0.5160636    0.1836862 -36.84  0.001778707    3.169    0.684
       315 -10.4085     54.1413     23.2778   9.8433530459e+01   6.8859018856e+01    0.2564917    0.2195771 -13.65 0.0006069011    1.109    0.098
       316 -10.2727    154.3272     27.9535   6.9376325986e+01   4.3078412725e+01    0.3558874    0.1894659  -4.17  0.001226717    3.112    0.679
       317  -9.5985    100.8583     28.7637   8.1690695463e+01   5.7514431508e+01    0.1982218    0.1767139 -80.37 0.0004697574    1.278    0.217
       318 -10.4424    124.9145     27.9346   7.4982727658e+01   5.1209023690e+01    0.2246859    0.2060172  51.45   0.00118668    1.060    0.056
       319  -9.7094    203.9606     26.9845   6.2835867419e+01   3.0199382483e+01    0.1658001    0.1468146 -63.78   0.00039536    1.015    0.015
       320 -10.0119     90.3907     26.7044   8.4129202117e+01   6.0450345338e+01    0.2680418    0.1777001  65.50 0.0007339643    1.677    0.404
       321 -11.1793     70.6229     26.0034   9.1622935484e+01   6.5124849033e+01    0.5641975    0.2611237  41.20  0.002247161    2.112    0.527
       322 -10.6517     25.2142     26.6754   1.1913996266e+02   7.2201872807e+01    0.3600799    0.2125147  -2.64  0.001245375    1.979    0.495
       323  -9.4056    146.4126     26.4394   7.0153439534e+01   4.5452222826e+01    0.1517223    0.1385071 -80.74 0.0001020556    1.065    0.061
       324 -10.6356    129.5372     24.2782   7.2501258050e+01   5.0402265973e+01    0.4611264    0.2160756 -50.63  0.001664151    2.602    0.616
       325 -11.2962     61.3647     24.1478   9.5060092324e+01   6.7341110987e+01    0.3862867    0.2822186 -67.70  0.001639454    2.211    0.548
       326 -10.9649     65.2820     21.3103   9.1539240232e+01   6.7016405813e+01    0.3215735    0.2250173  32.77 0.0008120783    1.391    0.281
       327  -9.7520     16.6858     25.9423   1.2524664761e+02   7.3054792999e+01    0.2690964   0.08311443 -55.82  0.001079211    2.473    0.596
       328 -10.4066    215.9443     24.8581   6.1169857382e+01   2.7591145799e+01    0.1853763    0.1813413  72.51 0.0005587497    1.203    0.169
       329  -9.8663    220.9158     24.3174   6.0615423851e+01   2.6507959410e+01    0.1770046    0.1532048 -81.61 0.0003723188    1.142    0.124
       330 -10.4749     84.3159     22.2366   8.4042888371e+01   6.2581342516e+01    0.2571542    0.2126332  12.76 0.0008145118    1.271    0.213
       331 -10.6960     19.8316     18.7574   1.1967560768e+02   7.4406192093e+01    0.3800947    0.2324031  10.24  0.001369872    1.709    0.415
       332 -10.6089     19.9976     15.4774   1.1789631073e+02   7.5085603426e+01    0.3003745    0.1696812  12.10 0.0006377715    1.868    0.465
       333 -10.6017     23.6841     21.8162   1.1807565539e+02   7.3404294414e+01    0.3664924    0.1880394 -50.58  0.001790159    1.713    0.416
       334 -10.7001     27.2586     19.5655   1.1419362427e+02   7.3515802646e+01    0.2773516    0.2150331  17.57 0.0007818247    1.304    0.233
       335 -10.1694    124.1891     21.9756   7.2678090237e+01   5.2163069820e+01     0.204049    0.1944794  62.61 0.0004295067    1.033    0.032
       336 -10.6897     89.9950     21.6717   8.1755764207e+01   6.1268892450e+01    0.2094873    0.1737906  51.32 0.0002367711    1.130    0.115
       337  -9.6497    136.8175     20.1853   6.9481348538e+01   4.8866532439e+01    0.2069806    0.1655346  43.12 0.0003366462    1.299    0.230
       338  -9.1751     45.5278     20.5120   1.0196013756e+02   7.0839076317e+01     0.140083    0.1219635  -4.62 0.0008096541    1.035    0.034
       339  -9.4228     35.6468     19.7545   1.0811088284e+02   7.2454298176e+01    0.1745873    0.1221069 -51.86 0.0003640714    1.549    0.354
       340 -10.1789    103.9216     19.1650   7.6308602437e+01   5.8006529694e+01    0.2981065     0.183215  41.10  0.001312569    1.633    0.388
       341  -9.1978    119.6820    247.6731   1.2659618928e+02   9.5831465514e+00     0.112788   0.07896787   8.55 0.0003045334    1.678    0.404
       342  -9.6278    156.6689    245.7202   1.1899825288e+02   4.9502822638e+00    0.1166904   0.07291579  12.45 0.0002909634    1.605    0.377
       343  -9.6488    115.4359    244.7046   1.2717927247e+02   1.0578574351e+01    0.1279806      0.11111 -24.45 0.0005949878    1.518    0.341
       344 -12.2474     74.1808    238.5384   1.3526767539e+02   1.6819219674e+01    0.6176677    0.2826238  41.04  0.003468042    1.550    0.355
       345 -10.6934    217.3492     16.3887   5.8858060783e+01   2.8192757177e+01    0.4349371    0.1416657  59.24  0.001707705    3.191    0.687
       346 -10.0980    108.3623     17.1007   7.4186474436e+01   5.7066907492e+01    0.2461101    0.1964249 -79.59 0.0005009102    1.439    0.305
       347  -9.9815    109.9242    242.9422   1.2814999152e+02   1.1569908979e+01    0.1916043    0.1102906  51.22 0.0008313912    1.700    0.412
       348  -9.8017     34.2348     15.9921   1.0694206673e+02   7.3368765001e+01    0.3038768     0.168195  -0.92  0.001226945    2.917    0.657
       349 -10.3590      9.7456     15.9888   1.2702291501e+02   7.5707584689e+01    0.2276072    0.1600527 -18.46 0.0007336421    1.344    0.256
       350 -11.7123     34.5595    241.4823   1.4358926987e+02   2.0751107898e+01    0.5495223     0.173469  36.08  0.002872553    2.069    0.517
       351  -9.5249     24.4427    232.4815   1.4530928567e+02   2.3333893149e+01    0.1945744    0.1044883  42.68 0.0007754974    1.313    0.238
       352 -10.7787     31.6643    237.4924   1.4401992131e+02   2.1735153426e+01    0.2587134    0.1634353  65.09   0.00123899    1.358    0.264
       353 -10.3533     29.2077    233.1561   1.4435851829e+02   2.2746635743e+01    0.2823355    0.1184452  43.77   0.00109393    1.607    0.378
       354  -9.6645    164.4594     14.5644   6.3359994542e+01   4.1824216249e+01    0.1461565    0.1304857 -81.21 0.0001592276    1.021    0.021
       355 -10.8574    156.3470    240.9205   1.1849151712e+02   5.6274585309e+00    0.1572126    0.1409973  43.14  0.001173169    1.433    0.302
       356  -9.7182     50.6522     14.3737   9.5130313809e+01   7.1005463238e+01    0.1981141    0.1762904 -85.09  0.001119459    1.657    0.396
       357 -11.2405     73.9887    233.0060   1.3491588536e+02   1.7786201006e+01    0.2391705    0.1858531  45.61 0.0009965106    1.051    0.049
       358  -9.4706     50.2963    240.3377   1.4034479980e+02   1.9279356713e+01   0.09635642   0.08456966  -4.08 0.0004617058    1.653    0.395
       359 -10.0400     55.7755     13.3718   9.1624450864e+01   7.0181531830e+01    0.1984714    0.1183324  35.76 0.0009398723    1.615    0.381
       360  -9.4084     15.2862     13.6566   1.2104306457e+02   7.5857454725e+01    0.1160823   0.09906618  69.10 0.0007019666    1.644    0.392
       361 -10.0263    195.7893    238.5534   1.1065036942e+02   7.1354108661e-01    0.2075855    0.1255007  20.67   0.00116992    1.248    0.199
       362  -9.5786      4.0517     11.5132   1.3044604582e+02   7.6952927117e+01    0.1586406    0.1146134   0.75  0.000303807    1.437    0.304
       363 -10.6777    177.6150    234.8196   1.1355836995e+02   3.5554037792e+00    0.2558363     0.155826   7.35  0.001251736    1.714    0.417
       364  -9.2048    243.3081    237.3264   1.0230905475e+02  -4.8431182681e+00    0.1116145   0.05938405   4.54 0.0007037814    1.654    0.395
       365 -10.2531    159.9038    235.8707   1.1716427057e+02   5.8242405846e+00    0.1889252    0.1295715  16.87 0.0006030122    1.261    0.207
       366 -10.1562    179.3651    243.6843   1.1438531711e+02   2.2226043002e+00    0.1092994   0.07663665  44.54 0.0007039656    1.770    0.435
       367 -10.0344     72.6118    250.1354   1.3636070574e+02   1.5111420268e+01    0.1789622    0.1360878  15.02  0.001251248    1.581    0.368
       368 -11.6316     18.3783    237.7373   1.4668853370e+02   2.2980505226e+01     0.497338    0.1493097  33.38  0.002585108    2.278    0.561
       369 -10.2905    167.0277    233.9088   1.1550139143e+02   5.1119877671e+00     0.187473    0.1394797  21.04 0.0008059953    1.028    0.028
       370 -10.5640    153.4665    233.7100   1.1818685592e+02   7.0096423157e+00    0.2228969    0.1511617   1.15  0.001355241    1.698    0.411
       371  -9.8103     85.9738    233.1558   1.3235283716e+02   1.6260407011e+01    0.1685139    0.1102515  61.76 0.0007148507    1.583    0.368
