#   1 NUMBER                 Running object number                                     
#   2 MAG_AUTO               Kron-like elliptical aperture magnitude                    [mag]
#   3 X_IMAGE                Object position along x                                    [pixel]
#   4 Y_IMAGE                Object position along y                                    [pixel]
#   5 X_WORLD                Barycenter position along world x axis                     [deg]
#   6 Y_WORLD                Barycenter position along world y axis                     [deg]
#   7 A_WORLD                Profile RMS along major axis (world units)                 [deg]
#   8 B_WORLD                Profile RMS along minor axis (world units)                 [deg]
#   9 THETA_WORLD            Position angle (CCW/world-x)                               [deg]
#  10 FWHM_WORLD             FWHM assuming a gaussian core                              [deg]
#  11 ELONGATION             A_IMAGE/B_IMAGE                                           
#  12 ELLIPTICITY            1 - B_IMAGE/A_IMAGE                                       
         1 -14.8131    217.0484     35.4955   2.8950532549e+02   6.1033343164e+00   0.08030801   0.04529276  64.02  0.006769416    2.615    0.618
         2 -18.8792    220.5368     87.7608   2.8977808729e+02   5.4799238521e+00    0.3991496    0.3390084 -40.94   0.04762788    1.192    0.161
         3  -9.9646     21.6592     30.9681   2.9170782696e+02   7.2852086757e+00  0.009210687  0.008124872 -62.10 0.0003368915    1.111    0.100
         4 -10.9063     42.6298     22.2382   2.9141611626e+02   7.2653293684e+00   0.02523523   0.01482148  82.95  0.001975393    2.674    0.626
         5 -10.5395    121.5170     14.3133   2.9046778161e+02   6.9014686257e+00   0.01527126   0.01070094  64.10 0.0005515899    1.717    0.418
         6 -12.6146    142.7728      8.2598   2.9018901938e+02   6.8482799368e+00   0.01725179   0.01228825 -57.87  0.000456769    1.357    0.263
         7 -10.5757    142.7547      2.4737   2.9015461829e+02   6.9151262231e+00   0.01625646   0.01147953 -14.51 -0.0001040152    1.781    0.438
         8 -12.3870    238.4631     10.5500   2.8911221801e+02   6.2665470796e+00   0.01899538   0.01547429  13.07  0.000589143    1.318    0.241
         9 -10.2622     94.8746     11.6916   2.9075629795e+02   7.0857301919e+00   0.01090005  0.008402691 -48.85 0.0002740387    1.277    0.217
        10 -15.8031    213.0916     48.2127   2.8962644919e+02   5.9795908658e+00   0.05812981   0.04264432 -57.24  0.004443037    1.319    0.242
        11  -9.5584    117.1298      7.8595   2.9047928517e+02   7.0013074349e+00  0.009921166  0.008643096  72.05 0.0005658849    1.239    0.193
        12 -12.1528    210.4599      6.0986   2.8940441203e+02   6.4806028911e+00   0.01424066   0.01171124 -13.00 0.0004814073    1.370    0.270
        13  -9.4532    201.4810      6.5344   2.8950931069e+02   6.5277238659e+00  0.006489313  0.006338143 -49.11  0.000129943    1.013    0.013
        14 -10.3007    166.1339      2.2588   2.8988663860e+02   6.7821236545e+00    0.0116947   0.01083029 -75.43   0.00122171    1.085    0.079
        15 -10.3250    150.8692      2.4066   2.9006163642e+02   6.8688946251e+00   0.01546703   0.01028879  58.37  0.001032797    1.779    0.438
        16 -10.6159    180.4530      1.5831   2.8971932560e+02   6.7068647795e+00   0.01118169  0.008525725  26.78  0.001252147    1.338    0.253
        17  -9.3827    167.2733    232.5546   2.9124678393e+02   4.1151016459e+00  0.009209242  0.006456479   7.72 0.0009508934    1.675    0.403
        18 -10.7441    228.9536    250.4921   2.9065221674e+02   3.5512918548e+00   0.01486728  0.009429076  39.83  0.001002668    1.594    0.373
        19 -10.5922    232.6863    248.9660   2.9060073933e+02   3.5473373081e+00   0.01253776   0.01002798  23.87 0.0004443995    1.287    0.223
        20  -9.9865    222.2477    250.2484   2.9072695311e+02   3.5928821941e+00  0.009035819  0.007462656  66.68 0.0005741274    1.335    0.251
        21  -9.9482    204.9704    249.6962   2.9092000370e+02   3.6991416829e+00  0.009202868  0.008621868  30.26 0.0005267907    1.086    0.079
        22 -10.2275    182.7015    249.9883   2.9117487604e+02   3.8244451119e+00  0.009476995  0.008639518 -67.49  0.000849902    1.085    0.078
        23 -11.0813    165.7167    249.5704   2.9136552443e+02   3.9273758364e+00   0.02184235   0.01249522  52.00  0.001481273    2.046    0.511
        24 -10.0085    124.8448    250.1219   2.9183371505e+02   4.1568730124e+00  0.009984351  0.008777412  70.00 0.0005952663    1.218    0.179
        25 -10.9557    154.1144    231.2105   2.9138849408e+02   4.2066395208e+00   0.01214267   0.01071739 -70.96 0.0003543621    1.134    0.118
        26 -10.0018    144.9545    231.4314   2.9149402353e+02   4.2569717610e+00   0.01178519  0.008996705  88.68 0.0003607446    1.510    0.338
        27  -9.8554     69.0490    230.4742   2.9235238064e+02   4.7056537381e+00  0.009740582   0.00858679 -62.23 -5.308993e-05    1.111    0.100
        28  -9.6297    113.9498    231.0000   2.9184430863e+02   4.4408527444e+00   0.01069991  0.003749805  26.92 0.0007256099    2.912    0.657
        29 -10.0828    149.6786    227.2564   2.9141548329e+02   4.2779727739e+00    0.0128836   0.01093688 -34.64  0.001037369    1.224    0.183
        30 -10.3329    127.6043    226.7032   2.9166340197e+02   4.4117826511e+00   0.01311286   0.01040463  52.27  0.001468334    1.338    0.252
        31 -10.2649    203.9412    226.0250   2.9079099943e+02   3.9786535048e+00   0.01842052  0.007982692  32.19  0.001587899    2.235    0.553
        32 -12.2168    238.5824    224.0258   2.9038540083e+02   3.8013586180e+00   0.01408936   0.01271404  34.97 0.0004114838    1.125    0.111
        33 -10.5589    180.8089    223.1036   2.9103667455e+02   4.1461513917e+00   0.01995405  0.008882909  17.31  0.001568662    2.912    0.657
        34  -9.5464    165.0425    223.5262   2.9121852839e+02   4.2323683481e+00   0.01007664   0.00648071  27.09 0.0006827816    1.585    0.369
        35 -10.2251     93.5470    222.1818   2.9202428838e+02   4.6604723600e+00   0.01119128  0.009053262  29.32 0.0002912504    1.254    0.203
        36 -10.5559     63.2258    220.1097   2.9235730596e+02   4.8590817279e+00    0.0181127  0.009437668  43.76 0.0008470462    2.018    0.505
        37 -11.0665     59.9630    215.1372   2.9236501108e+02   4.9353907622e+00   0.02191436   0.01350363  34.83  0.002234961    1.614    0.381
        38  -9.6094    179.2172    216.8073   2.9101735242e+02   4.2281343554e+00  0.009313894  0.007426336 -33.40 0.0005003277    1.336    0.252
        39 -10.3452    124.3610    215.9352   2.9163640839e+02   4.5550278751e+00   0.01222616  0.009822324  14.57 0.0008416141    1.331    0.249
        40 -10.0222      3.0790    214.1753   2.9300737549e+02   5.2734797852e+00   0.01461966  0.008928513  17.68  0.000844656    1.833    0.454
        41 -11.0703    216.0606    211.0527   2.9056415467e+02   4.0815782871e+00   0.01506626  0.008286152  42.82 0.0007429073    1.884    0.469
        42 -10.5311     89.8581    211.1641   2.9200095979e+02   4.8091798704e+00   0.00993218  0.009658445 -72.90 0.0003297401    1.021    0.020
        43 -11.3716     87.6372    207.6822   2.9200560169e+02   4.8622558480e+00    0.0210956   0.01378681 -13.45  0.001084118    2.079    0.519
        44 -10.5023     96.9410    208.9509   2.9190716677e+02   4.7939557307e+00  0.009596026  0.009148233 -49.50 0.0003156573    1.033    0.032
        45  -9.7465     14.0067    205.6806   2.9283261470e+02   5.3090349812e+00  0.009084934  0.008500881  23.72  0.000408228    1.093    0.085
        46 -10.6889    244.6177    202.1351   2.9018650006e+02   4.0193125865e+00   0.01175045    0.0106346 -29.45 0.0006344959    1.143    0.125
        47 -10.3785    191.8605    202.0441   2.9078574145e+02   4.3256861823e+00   0.02014899     0.010872  61.27  0.001675994    2.735    0.634
        48  -9.8806    206.6280    202.0579   2.9061787309e+02   4.2401017983e+00  0.009432671  0.007931836 -58.30 0.0005940994    1.158    0.136
        49  -8.9265    210.2673    201.2765   2.9057184015e+02   4.2280743896e+00  0.006475477  0.004858403 -30.53            0    1.481    0.325
        50  -9.8703     46.9602    201.5271   2.9243251363e+02   5.1676754207e+00   0.01000314  0.006511418  25.72 0.0007157889    1.579    0.367
        51 -11.4675    215.0005    197.8545   2.9049765179e+02   4.2402285340e+00   0.02046201   0.01413296  62.47  0.002112379    1.737    0.424
        52 -10.6241    149.1788    196.2289   2.9123683126e+02   4.6396274591e+00   0.01216214  0.009419094 -72.08 0.0005247306    1.327    0.246
        53 -10.1836    230.8729    194.1268   2.9029500949e+02   4.1914191270e+00   0.02142967  0.009005998 -61.31  0.001719655    2.281    0.562
        54  -9.7946    166.3541    195.9746   2.9103983482e+02   4.5433225042e+00  0.009568031  0.008248695 -61.28 0.0008946928    1.134    0.118
        55 -10.8891    155.6569    194.6888   2.9115393645e+02   4.6200076911e+00   0.02046449   0.01493604  30.91  0.002052848    1.381    0.276
        56  -9.5809    249.4048    194.8477   2.9008869709e+02   4.0757702052e+00   0.01091611  0.007674527  20.67  0.001162539    1.508    0.337
        57 -10.4730    141.2373    192.9373   2.9130767223e+02   4.7235602014e+00   0.01040874  0.008829333  71.13   0.00121561    1.289    0.224
        58  -9.4701    106.7033    194.4816   2.9171010295e+02   4.9050246518e+00   0.01156952  0.005824941 -63.05 0.0006815887    1.951    0.487
        59 -11.4022    207.7253    191.4020   2.9054196503e+02   4.3568988083e+00    0.0234228   0.01463014 -46.82  0.001278022    1.603    0.376
        60 -11.1930    202.1398    192.8538   2.9061413243e+02   4.3724423706e+00   0.01877054   0.01418573 -59.01 0.0009578157    1.284    0.221
        61 -11.0828    117.5972    189.9304   2.9155899689e+02   4.8948113462e+00   0.02575205   0.01204755 -72.67  0.002107878    2.609    0.617
        62 -10.7112    129.9821    192.4480   2.9143291580e+02   4.7942100524e+00   0.01140824  0.009257759 -70.68 0.0004600994    1.247    0.198
        63 -10.5897    226.3750    189.9282   2.9032113280e+02   4.2659732622e+00   0.01867622   0.01016201 -76.00  0.001089735    2.242    0.554
        64 -10.2827     48.4452    192.2637   2.9236069592e+02   5.2663066932e+00   0.01079017   0.01028482 -22.75  0.001351689    1.075    0.070
        65 -11.1971    213.5811    187.2695   2.9045076542e+02   4.3707616584e+00   0.01469786   0.01158065 -47.83 0.0005904675    1.254    0.203
        66 -12.0312    217.5433    186.0356   2.9039836139e+02   4.3620832671e+00   0.02347054   0.01853695 -82.00  0.001705624    1.372    0.271
        67 -10.9233    143.5074    188.8116   2.9125730169e+02   4.7581545594e+00    0.0167202   0.01151613  85.61  0.001416943    1.837    0.456
        68  -9.6722    106.8946    190.5084   2.9168433090e+02   4.9498754264e+00  0.009947048  0.006491769  26.95    0.0010237    1.563    0.360
        69 -10.0836     55.2567    188.3615   2.9225993567e+02   5.2722555621e+00   0.01530274  0.009062342  71.61  0.001328877    2.551    0.608
        70 -11.1943    230.7471    187.1008   2.9025458875e+02   4.2733229216e+00   0.02204462   0.01059582  44.70  0.001730688    2.242    0.554
        71  -9.1326    128.4681    188.4616   2.9142646759e+02   4.8490511616e+00  0.006504117   0.00632487 -46.96 8.093214e-05    1.018    0.018
        72 -10.2484     75.4340    187.0674   2.9202232549e+02   5.1710398088e+00   0.01796031  0.009242974 -39.80  0.001581639    2.240    0.554
        73 -10.5539    110.8973    184.8318   2.9160502050e+02   4.9924388303e+00   0.01819394   0.01088858 -64.92  0.001806796    1.667    0.400
        74  -9.6168    103.3936    249.2098   2.9207240189e+02   4.2910958617e+00  0.008906516  0.006270159 -79.53 0.0003322843    1.588    0.370
        75 -15.6286    243.4641    107.7455   2.8963663300e+02   5.1161647851e+00    0.1241909   0.05313523 -38.57  0.009397891    3.134    0.681
        76 -14.8904    245.9956     73.8010   2.8940499600e+02   5.4932728654e+00   0.04591415   0.03535293 -71.03  0.005194423    1.328    0.247
        77 -14.9698    190.7025     89.6671   2.9012912807e+02   5.6309078067e+00    0.0653958   0.03665013  -2.00  0.005390343    2.935    0.659
        78 -15.7869    187.7750     77.0938   2.9008738584e+02   5.7930686370e+00   0.07776225   0.06809258 -52.05  0.009439492    1.118    0.105
        79 -10.6208    193.2995    247.4374   2.9103924082e+02   3.7926953876e+00   0.01162718  0.008193034  84.93  0.001189402    1.765    0.434
        80 -10.1477     13.2078    178.0956   2.9267841647e+02   5.6328035009e+00  0.009687692   0.00838829 -36.28 0.0003161151    1.186    0.157
        81  -9.8809    236.0238    177.4703   2.9013722401e+02   4.3540231402e+00   0.00984212  0.006419053  29.19 0.0008101463    1.547    0.354
        82 -10.2571    160.9318    176.3995   2.9098510673e+02   4.8009744841e+00   0.01252459  0.009260251  89.57  0.001116604    1.589    0.370
        83 -11.8682    128.2233    155.9667   2.9123603693e+02   5.2262192696e+00   0.01824749   0.01335125  89.05  0.001708787    1.621    0.383
        84 -10.6228    112.7368    157.4140   2.9142110027e+02   5.2989029790e+00   0.01230753   0.00599226  32.51 0.0006826514    2.010    0.502
        85  -9.9917     18.4142    166.3139   2.9254924068e+02   5.7392059448e+00   0.01139662  0.005956854  28.15 0.0005117409    1.929    0.482
        86 -10.2277     15.9862    156.7153   2.9252003077e+02   5.8642021095e+00  0.009308744  0.009079466  27.05  0.001176872    1.046    0.044
        87 -11.3230    238.9133    153.9920   2.8996440052e+02   4.6084931096e+00   0.01554762   0.01200122 -49.19  0.001074302    1.274    0.215
        88 -11.2678    139.0018    155.2937   2.9110924286e+02   5.1717319118e+00  0.009253989  0.008582741  29.18 0.0004514108    1.098    0.089
        89 -10.6864     77.0763    154.3624   2.9180942082e+02   5.5398751794e+00   0.01162209  0.009339041 -74.01  0.000162222    1.282    0.220
        90 -10.6950    147.1661    176.7950   2.9114418726e+02   4.8759609613e+00   0.01420356  0.009538339  62.49  0.001428591    1.819    0.450
        91 -10.6516    121.2880    150.2447   2.9128101430e+02   5.3324327400e+00   0.01569672  0.009173128  47.22  0.001515371    1.856    0.461
        92 -10.9994    129.0817    149.9384   2.9119038759e+02   5.2909619437e+00   0.01695605  0.008154916  38.86  0.001480725    2.070    0.517
        93  -9.2062     33.3021    177.3346   2.9244481101e+02   5.5261289748e+00  0.006967489  0.004813215 -31.38 0.0003189176    1.659    0.397
        94  -9.8744     21.5062    182.9204   2.9261238791e+02   5.5293051349e+00  0.009863015  0.006334871 -62.07 0.0004489413    1.517    0.341
        95 -11.1235     11.4712    146.7681   2.9251255010e+02   6.0052103027e+00   0.01960006    0.0123986  61.32 0.0008320664    1.991    0.498
        96 -10.5717     42.4492    149.0224   2.9217256282e+02   5.8010430155e+00  0.009958353   0.00877622  27.11 0.0003099398    1.157    0.136
        97 -10.3334     32.4569    135.5674   2.9220667064e+02   6.0141502051e+00   0.01482414   0.00928316 -41.56  0.001284952    1.690    0.408
        98 -10.6482    124.4748    133.1276   2.9114282321e+02   5.5119278816e+00   0.01015044  0.006346611 -62.43  0.001022805    1.564    0.361
        99  -9.7002    247.4970    173.9375   2.8998576043e+02   4.3283582196e+00  0.009782547  0.006307118 -60.78 0.0004528896    1.504    0.335
       100 -11.3426    169.7576    173.5144   2.9086746936e+02   4.7832977817e+00    0.0145007   0.01069381  87.27  0.001170298    1.612    0.380
       101 -10.4460     73.2007    128.0504   2.9169722083e+02   5.8665019302e+00  0.009981885  0.008605824 -39.78 0.0003837152    1.176    0.150
       102  -9.4593     42.4794    126.9762   2.9204129729e+02   6.0558533834e+00  0.009517295   0.00566159  83.43 0.0008102176    2.565    0.610
       103 -10.2896    101.3145    125.0738   2.9135890118e+02   5.7387693798e+00   0.01041811  0.008989673  -2.69 0.0002837471    1.263    0.208
       104 -10.3720     57.8069    124.9778   2.9185455049e+02   5.9907232313e+00   0.01026295  0.009328348  25.09 0.0002741374    1.124    0.111
       105 -11.6790     98.5559    117.8060   2.9134709754e+02   5.8387137684e+00   0.02339279   0.01473505  27.78   0.00240292    1.611    0.379
       106 -11.5811    122.6462    117.7892   2.9107232427e+02   5.6998009311e+00   0.01434133   0.01189887 -84.65  0.001623606    1.293    0.226
       107 -10.4936    233.5048    171.4185   2.9012979153e+02   4.4385295025e+00   0.01316861    0.0109799  63.92 0.0007128714    1.307    0.235
       108 -11.8922    138.7797    116.4344   2.9088035745e+02   5.6222174513e+00   0.01650412   0.01296025 -60.93   0.00188749    1.242    0.195
       109  -9.9956    140.9769    172.0581   2.9118648990e+02   4.9664899153e+00   0.01006586  0.009813893  76.56 0.0005807385    1.043    0.041
       110  -9.4675     38.7588    110.6603   2.9198679687e+02   6.2659347021e+00  0.009174502  0.005765359  36.79 0.0005098545    1.590    0.371
       111  -9.9848     25.4226    172.2374   2.9250443429e+02   5.6303991127e+00  0.008789758  0.006330292 -79.67 0.0005772632    1.538    0.350
       112 -11.8804    214.4583    173.6804   2.9035984727e+02   4.5227102802e+00   0.02194527   0.01301961 -62.55  0.002183729    1.650    0.394
       113 -10.4154     29.4625    107.3309   2.9207311466e+02   6.3579086626e+00   0.01200027   0.01079786  73.13   0.00065715    1.178    0.151
       114 -10.6070     99.3585    106.5248   2.9127077528e+02   5.9644890855e+00   0.01814971   0.01198838  20.27    0.0018832    1.623    0.384
       115 -12.8202    203.6214    177.5584   2.9050620862e+02   4.5406337951e+00   0.02458263    0.0217768  34.05  0.002994655    1.145    0.126
       116 -15.9260    217.3299     64.3907   2.8967492702e+02   5.7682988060e+00    0.1366455   0.02168391  30.77  0.007979834    4.948    0.798
       117 -11.5664    115.8147     98.7007   2.9103648627e+02   5.9598907188e+00   0.01744501    0.0113516 -41.87  0.001792527    1.610    0.379
       118 -10.3699    107.7550     89.9087   2.9107601086e+02   6.1080493360e+00   0.01481642  0.007999844 -55.64  0.001061776    1.755    0.430
       119 -10.3109      2.8887     89.9032   2.9227296197e+02   6.7121164336e+00   0.01756049  0.005383468 -50.33  0.001268605    3.079    0.675
       120 -10.2109     83.9511    170.0000   2.9182394587e+02   5.3193828251e+00    0.0110137  0.003750035  26.91 0.0008103486    2.998    0.666
       121  -9.7071    104.9359     85.9964   2.9108485133e+02   6.1695395913e+00  0.007873283  0.007605813 -60.20 0.0006424086    1.014    0.014
       122 -10.9887    115.7192     84.6102   2.9095358395e+02   6.1232668556e+00    0.0195423  0.009981387  42.50  0.001592849    2.028    0.507
       123  -9.3362     17.5256     84.5623   2.9207405808e+02   6.6897650661e+00  0.006436652  0.006352337 -83.93 0.0001069348    1.019    0.019
       124  -9.7640     58.7813     83.2106   2.9159495877e+02   6.4679719685e+00  0.009134168  0.007334032 -37.31 0.0004225764    1.295    0.228
       125 -11.0500    211.6978    166.4319   2.9034805632e+02   4.6224503285e+00   0.01294694  0.009969839  69.08 0.0009081517    1.501    0.334
       126 -11.0467    125.4248     77.7219   2.9080180850e+02   6.1467553203e+00   0.01402103  0.009036343  31.76  0.001341401    1.551    0.355
       127  -9.1737    205.3073    167.2888   2.9042585603e+02   4.6495510542e+00  0.006720278  0.004904088 -27.75 0.0002550738    1.574    0.365
       128  -9.3980     80.4240     75.5127   2.9130206776e+02   6.4321594527e+00  0.006482968  0.006295176 -66.65  0.000212658    1.015    0.015
       129 -10.7400    105.0153     73.0954   2.9100703245e+02   6.3181426008e+00   0.01125149  0.009755041 -88.71 0.0004278565    1.227    0.185
       130  -9.5070    102.4007    166.7450   2.9159435425e+02   5.2506393759e+00  0.009364053  0.005752899 -51.54 0.0008028156    1.575    0.365
       131 -11.5337     49.2690     73.5027   2.9164576164e+02   6.6349564861e+00   0.01177941   0.01132122 -75.76 0.0002648344    1.038    0.037
       132 -12.0885    131.0362     72.5030   2.9070667704e+02   6.1745974585e+00   0.01987382   0.01505685  42.24  0.001338807    1.348    0.258
       133 -10.7493    119.8672     69.4938   2.9081611418e+02   6.2739328436e+00   0.01295993  0.009944282  71.70 0.0007977753    1.521    0.342
       134  -9.4201     57.5433     69.5640   2.9152782746e+02   6.6328077793e+00  0.006431906  0.006342167 -67.57  6.72485e-05    1.009    0.009
       135 -11.6900    107.8530     65.7086   2.9093059973e+02   6.3870835000e+00   0.01948657   0.01323215 -42.64   0.00119626    1.521    0.342
       136 -11.4794    220.7328    178.3218   2.9031614533e+02   4.4327470050e+00   0.01588449   0.01391427  63.02  0.001695513    1.213    0.176
       137 -10.9349    146.4914     61.9525   2.9046745840e+02   6.2070338410e+00   0.01388716  0.006694913 -70.43 0.0008192594    2.354    0.575
       138 -10.2031     95.0172     62.5240   2.9105808177e+02   6.4980031468e+00   0.01131939   0.00813028 -63.32 0.0009829081    1.369    0.269
       139 -10.2117     56.1299    164.8855   2.9211071597e+02   5.5388110675e+00   0.01378291  0.008853684 -69.25  0.001402632    1.611    0.379
       140 -12.1832    126.2933     54.9721   2.9065614605e+02   6.4044999405e+00   0.02213884   0.01385426 -62.67  0.002263831    1.566    0.361
       141 -10.9938    131.7777     53.7360   2.9058620400e+02   6.3870533512e+00   0.01327387    0.0116856  46.63   0.00118681    1.165    0.142
       142 -12.3675    133.0250     48.1341   2.9053852646e+02   6.4445196263e+00   0.02347027   0.01899034 -21.67 0.0008853197    1.379    0.275
       143 -11.0766    143.0687     55.6614   2.9046892280e+02   6.2994902152e+00  0.009462941  0.008594597  21.18 0.0007387045    1.131    0.116
       144  -9.1642    101.3042     54.3331   2.9093746999e+02   6.5563058052e+00   0.00696523  0.004821507 -30.96 0.0006271593    1.661    0.398
       145 -11.1684    138.4630     52.7765   2.9050422142e+02   6.3594539308e+00   0.01489513  0.009678308  16.10  0.001511386    1.727    0.421
       146  -9.7992     94.4867     51.1386   2.9099622510e+02   6.6325723620e+00    0.0094976   0.00871262  24.76 0.0004359586    1.114    0.102
       147 -10.6595    129.0759    179.4733   2.9136612186e+02   4.9494833415e+00  0.009959131  0.006472305  27.39 0.0009614646    1.566    0.361
       148  -9.8757    106.6465     51.9343   2.9086218668e+02   6.5531490555e+00  0.009543801  0.008429101 -63.28 0.0006638342    1.112    0.101
       149 -11.5581    124.5133     47.5949   2.9063240974e+02   6.4999799910e+00   0.01976991   0.01248008  -0.51  0.001869104    2.160    0.537
       150 -11.5892    140.3637     41.0703   2.9041262235e+02   6.4836046139e+00   0.01997553  0.009958304 -42.87  0.001575177    2.186    0.542
       151 -10.5811     88.3498     57.0488   2.9110153094e+02   6.5997384305e+00   0.01208956  0.009172609  38.86 0.0006139125    1.333    0.250
       152  -9.3877     33.3057     44.6511   2.9165625958e+02   7.0601855542e+00  0.006940795  0.004932811  66.64 0.0007042148    1.702    0.412
       153 -10.1019     54.7906     40.2729   2.9138471354e+02   6.9870371789e+00   0.01069237  0.008784616 -78.76 0.0005265139    1.279    0.218
       154  -9.8956    126.7111     40.4833   2.9056486686e+02   6.5693760921e+00    0.0121113  0.006705969  19.30 0.0008372344    2.033    0.508
       155  -9.3718     32.3026     39.7034   2.9163824276e+02   7.1231026557e+00  0.006699569  0.004929782  63.47 0.0002655947    1.580    0.367
       156 -10.1203    145.4781     31.4604   2.9029686398e+02   6.5649193021e+00   0.01194847  0.007066583 -30.07  0.001091008    2.178    0.541
       157 -11.4698    147.2854     36.9759   2.9030921063e+02   6.4907958148e+00   0.02032776   0.01252902  45.65  0.002040387    1.716    0.417
       158 -11.1772    141.6914     35.3875   2.9036352479e+02   6.5415156521e+00   0.01663738   0.01130094   6.54  0.001700159    1.779    0.438
       159 -10.5185    229.9828    164.7404   2.9013002815e+02   4.5360831084e+00   0.01143315  0.009238315 -51.58 0.0003970448    1.209    0.173
       160 -10.3997    150.6324     32.1390   2.9024213091e+02   6.5272399181e+00   0.01710767  0.008471335  52.86  0.001423253    2.605    0.616
       161 -11.3882    234.8995    164.4105   2.9007215942e+02   4.5114072503e+00   0.02323368   0.01188756  28.19  0.002153679    1.971    0.493
       162 -10.7089    133.0204     30.6014   2.9043384633e+02   6.6469438730e+00   0.01246913  0.009106354 -53.20 0.0004934344    1.328    0.247
       163 -10.9950    132.1433    246.3018   2.9172802292e+02   4.1589486264e+00   0.02063748   0.01493281  77.49 0.0003199326    1.698    0.411
       164 -10.0338     99.0553     25.9366   2.9079364168e+02   6.8971732660e+00   0.00978161   0.00932722 -46.65 0.0002955853    1.036    0.035
       165  -9.7340    152.7532     25.0407   2.9017551031e+02   6.5968701313e+00  0.009793775  0.008494567  74.67 0.0004447192    1.249    0.199
       166 -10.9940    128.1400     22.9481   2.9044380078e+02   6.7635117893e+00   0.01184773  0.009109856  85.48  0.000894911    1.511    0.338
       167  -9.6930    123.2385     24.4927   2.9050896659e+02   6.7740421202e+00    0.0121253  0.006716138  17.98  0.001113748    2.077    0.519
       168  -9.5899     69.4736    247.4938   2.9244831474e+02   4.5063156109e+00  0.006528546   0.00631662 -46.09 0.0002379449    1.024    0.024
       169 -10.0244    198.1902     18.3626   2.8961760168e+02   6.4104334799e+00   0.01109971  0.008479513 -49.34 0.0005944333    1.287    0.223
       170 -10.3233    112.2140     18.1981   2.9059719018e+02   6.9104396405e+00   0.01618241  0.008431292 -58.63  0.001005023    1.825    0.452
       171  -9.8915    235.9257     17.8444   2.8918477690e+02   6.1972121986e+00   0.00935741  0.008937146 -89.34 0.0003860219    1.064    0.060
       172 -14.8882    219.7338     57.4312   2.8960595324e+02   5.8346608776e+00    0.0359116   0.02374169  24.16  0.002139437    1.572    0.364
       173 -11.1666    157.9059    162.1424   2.9093470771e+02   4.9832896892e+00   0.01309154   0.01052541  73.70  0.001153836    1.410    0.291
       174 -10.1627    141.0464     29.9799   2.9033856783e+02   6.6076631543e+00  0.009682594  0.009240503 -45.18            0    1.038    0.037
       175 -11.5524    215.4669    244.2823   2.9076853982e+02   3.7010234982e+00   0.02143338   0.01313628  42.40 0.0006900084    1.677    0.404
       176  -9.8781    142.6737    242.9901   2.9158857277e+02   4.1364809671e+00  0.009624018  0.008668532 -67.78  0.001167636    1.100    0.091
       177 -10.7564    226.0708    241.5658   2.9063189692e+02   3.6710934235e+00   0.01227961   0.01136383  84.68 0.0005431545    1.123    0.109
       178 -10.2369     99.0326     12.8619   2.9071580565e+02   7.0482035348e+00   0.00959762  0.009444698  84.53 0.0004196879    1.028    0.027
       179  -9.7129     66.2222    242.4120   2.9245524945e+02   4.5838184999e+00  0.008934584  0.005908285  40.18 0.0002618353    1.532    0.347
       180  -9.3882     93.0329    241.5100   2.9214470086e+02   4.4398589592e+00  0.009179382  0.006511609  25.76 0.0003270118    1.446    0.308
       181 -10.5462    236.5646    235.3034   2.9047542697e+02   3.6827455795e+00   0.02004028   0.01100942 -59.04  0.001929744    1.739    0.425
       182 -11.9503    187.8538    236.4309   2.9103576146e+02   3.9513811590e+00   0.01177038     0.010699 -73.84 0.0002636836    1.105    0.095
       183 -10.0728    127.1458    238.1749   2.9173668352e+02   4.2817606874e+00   0.01206855  0.008056507  13.79 0.0009291382    1.704    0.413
       184  -9.9278    192.6347    237.3236   2.9098670742e+02   3.9134320439e+00    0.0104184  0.007442387  64.74 0.0007123018    1.668    0.400
       185  -9.5018     32.1851    233.3753   2.9278935308e+02   4.8841361228e+00  0.009665936  0.005708011  38.77 0.0009470668    1.699    0.412
       186 -10.6171    175.7647    232.0522   2.9114721989e+02   4.0718534654e+00   0.01651016  0.009511425  22.67  0.001290448    1.849    0.459
