#   1 NUMBER                 Running object number                                     
#   2 MAG_AUTO               Kron-like elliptical aperture magnitude                    [mag]
#   3 X_IMAGE                Object position along x                                    [pixel]
#   4 Y_IMAGE                Object position along y                                    [pixel]
#   5 X_WORLD                Barycenter position along world x axis                     [deg]
#   6 Y_WORLD                Barycenter position along world y axis                     [deg]
#   7 A_WORLD                Profile RMS along major axis (world units)                 [deg]
#   8 B_WORLD                Profile RMS along minor axis (world units)                 [deg]
#   9 THETA_WORLD            Position angle (CCW/world-x)                               [deg]
#  10 FWHM_WORLD             FWHM assuming a gaussian core                              [deg]
#  11 ELONGATION             A_IMAGE/B_IMAGE                                           
#  12 ELLIPTICITY            1 - B_IMAGE/A_IMAGE                                       
         1 -13.3631    211.1673      2.9873   6.0049120463e+01   3.2163427187e+01     1.341199    0.5778919  65.14  0.002965406    1.977    0.494
         2 -14.1261    188.1560     27.0710   6.8619672871e+01   3.5062808966e+01     1.630305     1.348895 -16.17  0.004820296    1.512    0.339
         3 -13.9590    196.0488     20.7151   6.5948799705e+01   3.3871998672e+01     1.316252    0.9525465 -58.93  0.005450971    1.389    0.280
         4 -13.9622     68.3904    145.4672   1.2819963412e+02   3.7574833318e+01     3.475658     1.585532 -84.25  0.008061145    6.271    0.841
         5 -11.3922     32.8254      4.4161   9.9659783479e+01   6.8917090606e+01    0.3698367    0.1028479 -33.93  0.001692593    3.328    0.700
         6 -12.8032    201.9727     12.9012   6.3326180267e+01   3.3309265740e+01    0.6042365     0.505089  58.64  0.001301699    1.268    0.212
         7 -11.8784     76.8915    184.2737   1.3216402183e+02   2.7228153854e+01    0.3157233    0.2468368 -50.72 0.0007103908    1.480    0.324
         8 -12.4139    231.1123    249.1561   1.1082142406e+02  -1.1504665283e+01    0.5699832    0.1832326  43.49   0.00240031    3.013    0.668
         9 -13.0725    180.1155    249.0952   1.2024399255e+02  -3.2125071505e+00     1.144273    0.2605798  37.85  0.003563245    4.532    0.779
        10 -13.0076    141.3379    248.9336   1.2757236355e+02   3.4534124603e+00    0.7835474    0.6289262 -76.15  0.005022843    1.473    0.321
        11 -12.4557    125.7972    244.7120   1.2998766573e+02   6.8136357740e+00    0.4492537    0.3370335 -82.61   0.00275364    1.516    0.340
        12 -11.2594    104.1449    236.8943   1.3318249573e+02   1.1827873667e+01     0.215735    0.1735063 -82.11 0.0008507245    1.272    0.214
        13 -13.5051     97.3226    247.6021   1.3563709220e+02   1.0920940049e+01    0.8884318    0.6083677  31.04    0.0051632    1.896    0.473
        14 -12.5326    108.1513    245.6403   1.3342218449e+02   9.5581436698e+00    0.4242974    0.3775576  76.85 0.0009758933    1.167    0.143
        15 -11.9414     62.6321    249.1298   1.4195325883e+02   1.5737478629e+01    0.6438269    0.2319475  56.88  0.003047841    2.480    0.597
        16 -13.4191     57.2093    226.5399   1.4095869893e+02   2.0858277362e+01     1.224784    0.5002747 -59.60  0.005639177    2.571    0.611
        17 -14.8190     34.3345    247.3677   1.4657100267e+02   1.9710419896e+01     2.105456     1.211831  54.30   0.01409064    1.410    0.291
        18 -13.0451     48.4138    230.9558   1.4294181029e+02   2.1125614241e+01    0.5313984    0.4136146  65.89  0.001295571    1.139    0.122
        19 -13.5178     49.3986    222.6048   1.4204803129e+02   2.2683333153e+01    0.6516489    0.5603325 -75.43  0.001471881    1.374    0.272
        20 -16.3896     51.1314    204.8312   1.4004077508e+02   2.6199430356e+01      12.8788      5.82654  74.43   0.05179222    2.899    0.655
        21 -13.2626     90.2087    165.0551   1.2611657211e+02   2.9637076371e+01     3.559604    0.8358557  49.05   0.00103538    5.747    0.826
        22 -16.0819      7.9498    240.6103   1.5038062460e+02   2.3925604272e+01     17.88902     1.085745 -75.02   0.01265343   12.410    0.919
        23  -9.8970    163.8324    156.4105   1.0684339228e+02   1.7370705179e+01    0.3295678    0.2429391 -77.24  0.001424829    1.774    0.436
        24 -12.6240     46.0823    146.8918   1.3408999966e+02   4.0034446155e+01    0.6738253    0.2878874 -71.35  0.002916303    2.238    0.553
        25 -10.2653    103.0362    148.3077   1.1984018506e+02   3.1433451063e+01    0.3090757     0.258163 -61.27 0.0007968646    1.140    0.123
        26  -9.9815    105.4917    144.9596   1.1853388341e+02   3.1787912850e+01    0.3668666    0.2269166 -39.20   0.00152586    1.893    0.472
        27 -12.3234     91.9624    147.8872   1.2258432973e+02   3.3425841910e+01     0.288426    0.2602776 -42.70 0.0004810554    1.222    0.182
        28 -10.2179    133.7267    144.4304   1.1130836433e+02   2.6444833774e+01    0.9358321    0.1757678 -53.75  0.001650901    9.742    0.897
        29 -11.9632     54.8370    145.7455   1.3171030442e+02   3.9273623600e+01     0.521272    0.2198569 -49.39  0.002209548    2.388    0.581
        30 -11.5720     84.6645    172.5535   1.2865855628e+02   2.8756997450e+01    0.4199932    0.2777316  73.48 0.0005245949    1.691    0.409
        31  -9.9051    112.6650    134.9048   1.1451771855e+02   3.2828410556e+01    0.2938048    0.2339228  -3.05 0.0009404711    1.757    0.431
        32 -10.8180    100.3657    131.7542   1.1706372216e+02   3.5815933694e+01    0.2946117    0.2326388 -31.83 0.0004674596    1.462    0.316
        33 -11.2331     36.9330    132.7482   1.3429269077e+02   4.4319338811e+01      0.23744    0.1605506 -67.17  0.000700978    1.221    0.181
        34 -12.2751     45.1020    129.8043   1.3164849892e+02   4.4152163551e+01     0.295353    0.2801963  41.25  0.001977597    1.252    0.201
        35 -12.6618     41.1368    127.3714   1.3230984706e+02   4.5140529573e+01    0.5235289    0.2384705 -48.55  0.002439147    2.073    0.518
        36  -9.8232    160.6947    128.0687   1.0097090065e+02   2.4234528224e+01    0.2680889    0.2013308 -63.43  0.001205908    1.487    0.327
        37  -9.4931    118.3889    127.7715   1.1138086612e+02   3.3377035574e+01    0.2220299    0.1377615 -39.63 0.0005843437    1.730    0.422
        38  -9.6934    108.9624    122.4619   1.1262320160e+02   3.6411822000e+01    0.2071079    0.1961819 -57.79  0.000331729    1.015    0.015
        39 -14.5380     11.9102    206.9380   1.4763555510e+02   3.0177214444e+01     1.205301     0.855544  58.81  0.002978559    1.318    0.241
        40 -12.2097     41.4906    114.4988   1.2994203522e+02   4.8072505385e+01    0.4346218    0.2256912 -74.61  0.002009719    2.162    0.537
        41 -11.0288    168.2600    113.1212   9.5477990938e+01   2.5645748866e+01    0.3827647    0.3136055 -80.42 0.0008895738    1.420    0.296
        42  -9.5307    205.3271    110.4907   8.7198321832e+01   1.7393501641e+01    0.3544277    0.2069998  31.54  0.001341497    2.530    0.605
        43  -9.5181    112.4915    209.4960   1.2798703183e+02   1.5896702260e+01    0.1370765    0.1200105  67.72 0.0002359327    1.023    0.023
        44  -9.9110     15.9548     91.7546   1.3330808262e+02   5.5296448998e+01    0.1537198    0.1354937 -53.26 0.0003846705    1.122    0.109
        45 -13.4254     72.9820    169.8908   1.3099486232e+02   3.1137139149e+01    0.4978636    0.2849637 -46.05  0.001526051    2.072    0.517
        46  -9.2497    155.2781     76.6695   8.8459962613e+01   3.5835846800e+01    0.1532311    0.1177493 -73.33 0.0002768222    1.600    0.375
        47 -10.3090    226.1011    200.9253   1.0315191065e+02  -3.6712861774e+00    0.2751376    0.2031645 -49.81 0.0007728408    1.642    0.391
        48  -9.0188    129.6983     54.3081   8.7687656586e+01   4.5546688861e+01    0.1393348    0.1131728 -77.34            0    1.601    0.375
        49  -9.1649    114.6638     45.3553   8.8566929484e+01   5.0170254074e+01    0.1377486    0.1097338 -75.05 0.0007042641    1.801    0.445
        50 -12.1751    249.4503    247.3247   1.0727129354e+02  -1.3982261326e+01    0.4538839    0.3142771 -38.12  0.002938188    1.778    0.437
        51 -10.8961    193.1746    194.8604   1.0844366989e+02   3.5328217415e+00    0.8894216    0.4300952 -63.46  0.002342633    6.727    0.851
        52 -11.9301     72.5382    190.7579   1.3398681434e+02   2.6393823942e+01    0.4081207    0.2567109 -45.06  0.001800362    2.104    0.525
        53 -11.5356    162.2741    248.7769   1.2357909727e+02  -1.0898115726e-01    0.3630983    0.2293061  22.28  0.001872296    2.062    0.515
        54 -11.3028    148.9738    249.4312   1.2619166860e+02   2.0674331261e+00    0.3276863    0.2351288 -87.23  0.001860327    1.916    0.478
