#   1 NUMBER                 Running object number                                     
#   2 MAG_AUTO               Kron-like elliptical aperture magnitude                    [mag]
#   3 X_IMAGE                Object position along x                                    [pixel]
#   4 Y_IMAGE                Object position along y                                    [pixel]
#   5 X_WORLD                Barycenter position along world x axis                     [deg]
#   6 Y_WORLD                Barycenter position along world y axis                     [deg]
#   7 A_WORLD                Profile RMS along major axis (world units)                 [deg]
#   8 B_WORLD                Profile RMS along minor axis (world units)                 [deg]
#   9 THETA_WORLD            Position angle (CCW/world-x)                               [deg]
#  10 FWHM_WORLD             FWHM assuming a gaussian core                              [deg]
#  11 ELONGATION             A_IMAGE/B_IMAGE                                           
#  12 ELLIPTICITY            1 - B_IMAGE/A_IMAGE                                       
         1 -13.4766    244.0530     60.0757   3.5425856756e+02   2.1373482851e+01     1.029593    0.9389106   8.72  0.008000431    1.643    0.391
         2 -10.5687     17.9770      3.8591   2.5751476717e+01   7.7143106571e+01    0.3217238    0.2032545 -59.99  0.001578941    2.880    0.653
         3 -10.6491     50.8275    244.8577   6.4374938586e+01   1.5508377269e+01    0.3356006    0.1700247 -83.50  0.001733783    2.486    0.598
         4 -11.2480     40.2099    152.7908   5.9232766222e+01   3.8438472832e+01     0.347806    0.3164043  -2.79 0.0005978306    1.239    0.193
         5 -13.9234      5.3610     16.3297   4.5274779435e+01   7.6645247677e+01     11.99548          nan -57.04   0.02052375   17.756    0.944
         6 -14.2548      7.3487    239.9262   7.4128894606e+01   2.0459967581e+01     2.291975     1.788679  47.10  0.009079343    1.004    0.004
         7 -13.4741      4.5902    169.8277   7.2090222359e+01   3.7027528991e+01     1.904976    0.8404223  89.70  0.005330593    2.196    0.545
         8 -15.0236     12.1598    157.9959   6.9009578484e+01   3.9614332685e+01     6.702271      2.07867  78.64   0.01908131    4.710    0.788
         9  -9.6076     61.9286    222.6837   6.0051057286e+01   1.8859377945e+01    0.1851181    0.1487533  33.69 0.0004817661    1.071    0.066
        10  -9.8200     71.0719    241.7322   5.9457583412e+01   1.4017577304e+01    0.1737524     0.140062  26.53 0.0004350685    1.063    0.059
        11  -8.3474    155.0000    230.3959   3.9623075231e+01   6.5496541235e+00    0.2368696    0.0653732 -49.61 0.0009280593    3.881    0.742
        12  -8.8356    109.5333    218.3123   4.7990701498e+01   1.4151264809e+01    0.2694639     0.136201 -71.59  0.001139434    3.168    0.684
        13 -11.4670     56.9238    211.6495   6.0359408273e+01   2.1820685501e+01    0.4550567    0.2688937  53.10  0.001680824    1.667    0.400
        14  -8.0238    138.8139    199.0074   3.8528013224e+01   1.4149131483e+01    0.1608553     0.098551 -48.87  0.000364978    1.686    0.407
        15  -9.9133     98.6958    181.0771   4.5590386226e+01   2.3577317625e+01    0.3001614    0.2458318 -48.58 0.0008518449    1.265    0.210
        16  -9.9767     71.2882    176.9998   5.2635435260e+01   2.8323293427e+01    0.1960678    0.1886621  85.09 0.0005396645    1.062    0.058
        17 -10.3168     78.0126    172.6904   5.0095927993e+01   2.8493375421e+01    0.4283233    0.2139732 -89.56  0.001368443    3.949    0.747
        18 -10.8821     69.4743    170.1939   5.2248807674e+01   3.0271382956e+01    0.4376708     0.280271  38.71 0.0003332567    1.466    0.318
        19 -10.5527     71.3298    166.0372   5.1107444452e+01   3.1081061805e+01    0.3079807    0.1880393 -52.14  0.001385234    1.686    0.407
        20  -8.0439    144.5447    169.4749   3.2252354544e+01   1.9242168922e+01    0.1362152    0.1283469 -16.25 0.0001647319    1.032    0.031
        21 -10.6174     88.4806    166.4266   4.6128737112e+01   2.8556350170e+01    0.3192345    0.2573417  62.25  0.001571154    1.347    0.258
        22  -9.1685    112.0193    242.9710   5.0292598460e+01   9.2798522917e+00    0.1428892    0.1271486  10.07 0.0004861765    1.089    0.082
        23  -9.5186     67.7930    160.3853   5.1360529198e+01   3.3016860367e+01    0.2002954      0.14292  14.81 0.0002031451    1.569    0.363
        24 -10.7341     78.2161    157.8137   4.7766732022e+01   3.2219052872e+01    0.3623539    0.2638133 -75.45  0.001578038    1.488    0.328
        25 -12.8856     66.8906    143.3739   4.8955855497e+01   3.7626408101e+01     1.014351    0.7618598  68.68   0.00369116    1.474    0.322
        26 -11.5912     55.6622    145.7135   5.3078868103e+01   3.8522275639e+01    0.5328275    0.4782991 -24.11  0.001039279    1.249    0.199
        27  -9.6704    249.4862    139.4959   8.7503495935e+00   9.4908516595e+00    0.1137739   0.08396568 -34.79 0.0001109498    1.025    0.025
        28 -12.4743     38.7375    140.5565   5.8200269017e+01   4.1958003663e+01    0.6030571    0.3736048  -1.56   0.00153137    2.167    0.539
        29 -11.4706     70.2934    129.5126   4.5276322371e+01   4.0816438638e+01    0.4291504    0.3241971 -48.20  0.002041876    1.351    0.260
        30  -9.5506    238.5145    142.5061   1.0650768815e+01   1.0419690758e+01     0.116798   0.08865383 -33.64 0.0008104449    1.014    0.014
        31 -10.2354     83.6897    132.8351   4.1503511176e+01   3.7814613474e+01    0.2960385    0.2840602 -56.90  0.001104908    1.048    0.045
        32  -9.4152     88.2420    130.7926   3.9633393331e+01   3.7577291812e+01    0.2103245    0.1811454 -21.44  0.000339735    1.326    0.246
        33  -8.9285    105.4732    130.0135   3.4266921888e+01   3.4745329825e+01    0.2344256    0.1491006 -55.31 0.0008716596    1.562    0.360
        34  -8.8894    154.3667    226.1968   3.9176542197e+01   7.3138423924e+00    0.1526503    0.1144723 -54.74 0.0005163471    1.699    0.412
        35  -9.0159    100.5303    125.2385   3.4644071729e+01   3.6802014519e+01    0.3311298    0.1942831  22.36  0.001273999    2.302    0.566
        36  -9.7071     86.3507    119.9269   3.7852851574e+01   4.0663652010e+01    0.2750534    0.2265042  26.92 0.0004097952    1.298    0.230
        37 -10.6229     51.6976    115.9072   4.9365180782e+01   4.7182981022e+01    0.5634312     0.271624  85.76  0.001529196    4.786    0.791
        38  -7.9795    183.6731    116.6866   1.3548917091e+01   2.2993977523e+01    0.1320439    0.1021653  -8.16 0.0007042708    1.667    0.400
        39  -8.8574    100.4272    115.0133   3.2266861054e+01   3.9303692052e+01     0.222499    0.2021559  43.54 0.0002324918    1.120    0.108
        40  -8.9121    204.4945    110.7594   9.0320324022e+00   2.0425501132e+01    0.2485617    0.1535123  34.17  0.001298665    2.269    0.559
        41  -9.2827    245.6638    100.6753   2.0009407359e+00   1.5577803211e+01    0.1088016   0.08035687 -14.03 0.0007051253    1.717    0.418
        42  -8.6898     31.0247     96.0694   5.4110205511e+01   5.5118048260e+01    0.2410061    0.1658716  62.97 0.0006626921    1.667    0.400
        43  -9.3956     28.8702     86.5634   5.3148844486e+01   5.7904205396e+01    0.2550448    0.1946778 -66.51 5.259801e-05    1.260    0.206
        44 -10.2656     16.8556     80.1939   5.7861953635e+01   6.0722590388e+01    0.3962978    0.1768765  57.45  0.001383416    3.293    0.696
        45 -14.7505      6.9635    200.4362   7.2815370793e+01   2.9200344687e+01     2.974828     2.589995  36.52   0.01481241    1.141    0.123
        46 -12.5917    226.9516     67.4363   3.5720772952e+02   2.3206001052e+01     0.611147    0.4242173 -46.50  0.004029164    1.102    0.092
        47 -12.7094     31.7446    156.9155   6.2498917254e+01   3.8197291236e+01     1.203429    0.6559905   3.12 0.0006779484    2.473    0.596
        48 -11.0268     13.1636     60.6605   5.5603074393e+01   6.6054453942e+01    0.2965321    0.2781517 -84.20 0.0008114909    1.142    0.124
        49  -8.5738    106.3029     25.6779   1.9683153045e+00   5.5140457131e+01    0.1433801   0.09695303 -68.99 0.0006817097    1.633    0.388
        50  -8.2661     60.4520     21.4203   1.3125546415e+01   6.6526228146e+01    0.1342945    0.1213855  46.81 0.0001666525    1.014    0.014
        51 -11.4357     13.6986     18.7818   3.9237219007e+01   7.5277791054e+01    0.4363209    0.2089144  30.29  0.002113985    1.975    0.494
