#   1 NUMBER                 Running object number                                     
#   2 MAG_AUTO               Kron-like elliptical aperture magnitude                    [mag]
#   3 X_IMAGE                Object position along x                                    [pixel]
#   4 Y_IMAGE                Object position along y                                    [pixel]
#   5 X_WORLD                Barycenter position along world x axis                     [deg]
#   6 Y_WORLD                Barycenter position along world y axis                     [deg]
#   7 A_WORLD                Profile RMS along major axis (world units)                 [deg]
#   8 B_WORLD                Profile RMS along minor axis (world units)                 [deg]
#   9 THETA_WORLD            Position angle (CCW/world-x)                               [deg]
#  10 FWHM_WORLD             FWHM assuming a gaussian core                              [deg]
#  11 ELONGATION             A_IMAGE/B_IMAGE                                           
#  12 ELLIPTICITY            1 - B_IMAGE/A_IMAGE                                       
         1 -10.2188     97.6498     13.4902   7.8828410976e+00   5.9225336908e+01    0.3783482    0.1701625 -29.41  0.001556397    2.384    0.580
         2 -10.1243     41.0067     13.7900   2.9999568838e+01   7.2695553309e+01    0.2057142    0.1828894  -3.06 0.0002477271    1.110    0.099
         3  -9.6831     67.7156      1.3576   9.6029104448e+00   6.8158599393e+01    0.1951665    0.1062775  55.10 0.0004739297    1.531    0.347
         4 -10.7393    174.1826    244.8345   4.8127878087e+01   2.4817876630e+00    0.1924689    0.1633312 -44.87  0.001412909    1.760    0.432
         5 -10.8898     53.4364    249.5022   7.4200142034e+01   1.6699012287e+01    0.3102716    0.2038736  30.30 0.0009985402    1.234    0.190
         6  -9.6627     56.5232    246.5191   7.3344202216e+01   1.6875859162e+01     0.236452    0.1014292  50.19  0.001053604    1.957    0.489
         7 -10.2401     39.1958    249.4569   7.7301053827e+01   1.8245222715e+01    0.2985732   0.09006674  55.83  0.001299323    3.116    0.679
         8 -11.5196     12.4525    249.5942   8.3009805372e+01   2.0848772865e+01    0.4691035    0.1259277  46.34  0.002345968    2.217    0.549
         9 -11.9620      7.1956    242.9578   8.3955843775e+01   2.2519444945e+01    0.3518429    0.2109482  61.03  0.002356035    1.357    0.263
        10 -12.7268     20.4094    247.6182   8.1271248824e+01   2.0457236316e+01    0.8702937    0.3557327  26.20   0.00460484    2.056    0.514
        11  -8.9454    106.3171    243.3295   6.2023804297e+01   1.1350731152e+01    0.1195711   0.08492221   1.47 0.0002433054    1.682    0.406
        12 -10.4947     97.9512    241.8437   6.3732907975e+01   1.2667892697e+01    0.3169038    0.1931393  18.67 0.0009113948    1.592    0.372
        13  -9.2385    221.0221    239.6483   3.9020936258e+01  -2.2772857619e+00      0.15199    0.1026245  11.09 0.0004938955    1.099    0.090
        14 -11.0107    166.7701    241.9446   4.9190834661e+01   3.7774634771e+00    0.2290439    0.1375447  31.21 0.0007659378    1.364    0.267
        15  -9.8336    231.2026    234.4838   3.6615765190e+01  -2.7864547742e+00     0.181965    0.1200419 -15.17 0.0007236256    1.275    0.215
        16 -11.3855    168.0858    233.9344   4.7869099141e+01   4.7078128956e+00    0.5821377    0.2621045  34.93  0.003068476    1.862    0.463
        17 -11.5807    162.2390    226.5497   4.8032208389e+01   6.5327741041e+00    0.5404412    0.3363243 -30.06  0.002705177    1.794    0.443
        18  -9.1807     50.3205    235.3223   7.4063993321e+01   1.9610151661e+01    0.1107978    0.0902309  -7.47  0.000704508    1.673    0.402
        19 -10.3849     73.7245    244.4348   6.9370063761e+01   1.5233960380e+01    0.2045352    0.1709096  29.76 0.0005762625    1.160    0.138
        20  -9.5264    100.8336    233.1234   6.2229519306e+01   1.3780520985e+01    0.1914133    0.1411166  43.41 0.0005713782    1.207    0.171
        21  -9.4047     90.6001    231.6634   6.4438707960e+01   1.5378665522e+01     0.181712    0.1371764  -0.70 0.0007219039    1.636    0.389
        22  -9.1149    238.3380    229.6652   3.4779260440e+01  -3.0045626567e+00   0.08776455   0.07910966   8.92 0.0007051709    1.748    0.428
        23  -8.8236    191.5851    227.1466   4.2393066975e+01   2.6442402875e+00    0.1447009   0.09370657 -16.14 0.0002704424    1.511    0.338
        24 -10.9017     98.9487    225.4235   6.1866848363e+01   1.5396974046e+01    0.3593712    0.2738181 -28.30  0.001746161    1.693    0.409
        25 -11.6278     95.1237    217.6727   6.1945583177e+01   1.7352838468e+01    0.5527036    0.2913443  39.47  0.001960193    1.523    0.343
        26  -9.7509    169.4733    224.8600   4.6331261613e+01   5.8120758511e+00    0.3441395    0.1982779  49.91  0.001724702    2.691    0.628
        27  -9.3436    107.5181    222.9648   5.9593860978e+01   1.4670672081e+01    0.1687754    0.1002939 -28.18 0.0008098482    2.530    0.605
        28  -9.2455    157.5129    221.9329   4.8361986306e+01   7.8672046915e+00    0.1614367    0.1204492 -35.63   0.00071718    1.539    0.350
        29 -10.3796     99.9772    217.4888   6.0758097639e+01   1.6717826583e+01    0.2804078    0.2506566  74.77  0.001822613    1.331    0.249
        30 -10.0572     56.0182    216.8863   7.1460759602e+01   2.2549583287e+01    0.1846724    0.1609911  63.33            0    1.170    0.145
        31 -10.2083     24.7581    216.8287   7.9111813586e+01   2.5961763935e+01    0.2706118   0.09146204  45.97  0.001246218    2.109    0.526
        32 -10.1117    170.6684    215.2752   4.4689432823e+01   7.0577276729e+00     0.232786    0.1721656   9.41 0.0007870274    1.173    0.148
        33 -10.4800    126.3782    221.1482   5.5037439263e+01   1.2353536986e+01    0.2985692    0.2188763  62.22 0.0008220729    1.859    0.462
        34  -9.1734    190.2565    214.9901   4.0817879098e+01   4.4539856899e+00    0.2252416     0.109882   4.87 0.0009017802    3.610    0.723
        35 -10.1514     64.8083    213.5625   6.9009129455e+01   2.2155384881e+01    0.4393275    0.1577647  44.12  0.001869353    2.221    0.550
        36  -9.0872    131.2812    214.6314   5.3071957847e+01   1.2773981456e+01    0.1259081   0.09397264  57.06 0.0007014105    1.691    0.409
        37  -9.8515    112.6568    213.3557   5.7239185063e+01   1.5694619076e+01    0.3358715    0.2006283  -0.77  0.001466506    2.747    0.636
        38  -9.7472     20.9804    211.0000   7.9776264200e+01   2.7541546331e+01    0.3437525   0.05993953  24.12   0.00105794    4.994    0.800
        39 -10.9576     12.8319    204.7455   8.1543963130e+01   2.9623775340e+01    0.4432513    0.1888081 -75.12  0.002177103    2.479    0.597
        40 -11.5748     16.3723    196.8441   8.0330044777e+01   3.1035545207e+01    0.4739367    0.2703713 -39.38  0.001690369    2.735    0.634
        41  -9.3748    212.6395    207.6548   3.5609404717e+01   2.5587691098e+00    0.3114156   0.08975944  40.19  0.001247126    3.980    0.749
        42  -9.4353    124.1850    205.9454   5.3529885481e+01   1.5369505104e+01    0.1712227    0.1499688  19.11 -0.0006383859    1.078    0.072
        43 -10.6537    165.7245    199.1761   4.3201202601e+01   1.0279448329e+01    0.3109007    0.2192071 -10.63  0.001487906    1.524    0.344
        44  -8.6398    132.9861    199.1679   5.0481684777e+01   1.5279008706e+01    0.1750125   0.08671317  33.30 0.0007917136    1.711    0.416
        45  -9.0109     43.9810    198.5003   7.3173014764e+01   2.7854298568e+01     0.207007     0.108682  32.80  0.001019562    1.573    0.364
        46  -8.7187    105.4689    197.4817   5.6950232023e+01   1.9816594640e+01    0.1397454    0.1189627  28.27 0.0002322952    1.053    0.050
        47 -11.0101    172.6318    194.8349   4.1053942900e+01   9.9451361058e+00    0.3506847    0.2102282 -44.60     0.001161    1.910    0.477
        48  -9.2140    162.6294    194.2919   4.3058627212e+01   1.1553804275e+01    0.1271024   0.09893903  54.74 0.0007025177    1.722    0.419
        49  -9.8285     94.0126    181.3323   5.7738009722e+01   2.4973588926e+01    0.3175265    0.2549092 -62.37  0.001070593    1.418    0.295
        50 -10.2017    104.0462    189.4918   5.6219686033e+01   2.1672040063e+01    0.3218311    0.2179867  30.73 0.0009350597    1.292    0.226
        51  -9.6720    204.2733    188.1461   3.3822108306e+01   6.3467908891e+00    0.2083938     0.160869  55.56  0.001234808    2.103    0.525
        52 -10.7914     10.9421    187.2302   8.1360967966e+01   3.3679907029e+01    0.3881589    0.1811293  59.44 0.0007571257    1.835    0.455
        53 -11.5054     14.0264    180.5982   8.0231936496e+01   3.4956822526e+01    0.6457221    0.3238119  29.85  0.003244264    1.743    0.426
        54 -10.1939    178.0802    197.2837   4.0355929682e+01   8.7494590295e+00    0.2103892    0.1566568 -10.18 0.0006455653    1.306    0.234
        55 -10.1910    175.5317    184.5390   3.8695981554e+01   1.1172335742e+01    0.1707321    0.1249954 -47.87 2.498046e-05    1.663    0.399
        56 -10.2313    226.4807    183.1533   2.9175428212e+01   4.0160269991e+00    0.2591433    0.1859489  42.90  0.001168852    1.815    0.449
        57  -9.1952     47.0000    182.1347   7.1025582933e+01   3.1244138900e+01    0.2427098    0.1679069 -66.67  0.000809211    1.584    0.369
        58  -9.3958     48.1651    177.3411   7.0255062706e+01   3.2242892985e+01    0.3453915   0.09736128 -66.39  0.001214392    3.458    0.711
        59  -9.4463     70.0862    177.8823   6.3977300083e+01   2.9280725450e+01    0.2115727     0.168048 -23.42  0.001105963    1.635    0.388
        60 -12.6625      4.8449    173.6692   8.2512919621e+01   3.7332579488e+01    0.5024217    0.3027622  72.29 0.0003578759    1.469    0.319
        61 -10.9585      4.9799    166.4632   8.2196970748e+01   3.9053318558e+01    0.5198336    0.2746251  -6.05  0.002298272    2.883    0.653
        62  -9.7757    148.9749    174.7589   4.2724217056e+01   1.7236632009e+01    0.2917644     0.128984  38.66  0.001062201    2.061    0.515
        63 -11.7306     98.0905    189.1716   5.7730989278e+01   2.2652810098e+01    0.5375534    0.3739465  65.30  0.001839123    1.735    0.424
        64  -9.6167     30.1104    172.8183   7.5165022987e+01   3.5321617469e+01    0.2112058    0.1515621 -15.25 0.0007355321    1.944    0.486
        65 -10.4827    177.1505    169.4020   3.5603531369e+01   1.3440983475e+01    0.4046222    0.2377633 -39.30  0.002035874    1.731    0.422
        66 -10.5085    206.4898    168.4353   2.9867716432e+01   8.9261064446e+00    0.2651854    0.1126274 -36.27  0.001225212    2.220    0.550
        67  -8.7181    121.3320    169.6706   4.8601295551e+01   2.3017051097e+01    0.1500877    0.1096031  63.58 0.0007051856    1.718    0.418
        68  -9.2526    200.0132    166.9802   3.0747764360e+01   1.0144797528e+01    0.1990966    0.1362937   0.62 0.0004327346    1.594    0.373
        69 -10.3745    219.3734    164.7056   2.6989292079e+01   7.5560231285e+00    0.2483561    0.1880407 -38.19  0.001576221    1.404    0.288
        70  -9.5791    149.6157    163.8379   4.0546000182e+01   1.9206933003e+01     0.254904    0.1819452  26.71 0.0007677579    1.351    0.260
        71 -10.0083    204.8473    175.4925   3.1463665380e+01   8.1167310759e+00    0.2321587    0.1650275 -28.22  0.001407532    1.309    0.236
        72  -9.4434     99.8262    158.5372   5.2544722878e+01   2.9199012435e+01    0.2771232    0.2143587 -59.23   0.00138935    1.419    0.295
        73 -12.1717    204.8754    151.5013   2.6874135134e+01   1.1777357554e+01    0.6413468    0.3212923 -36.22  0.003131922    1.853    0.460
        74  -8.7113    105.2533    157.6082   5.0832160859e+01   2.8475022573e+01    0.1515657    0.1136917  74.34 0.0006957508    1.683    0.406
        75 -10.0204     23.4754    154.6205   7.5853147978e+01   4.0492090697e+01    0.2530439    0.1026033 -63.54  0.001034059    2.432    0.589
        76  -9.7479    135.5382    154.0945   4.2048506005e+01   2.3733529651e+01    0.3037122    0.2050908  35.82 0.0007419658    1.385    0.278
        77  -8.9890     68.5389    154.4788   6.1357113770e+01   3.5171834489e+01    0.1536124    0.1319154  55.30 0.0003545224    1.080    0.074
        78  -9.7360     40.8096    153.5377   7.0154603604e+01   3.9003588869e+01    0.2263661    0.1890463 -87.23 0.0003788892    1.189    0.159
        79  -9.1807      5.7488    152.0207   8.1335311881e+01   4.2569951773e+01    0.1712133    0.1032031 -88.26 0.0003717364    1.543    0.352
        80 -11.2424    189.4645    150.1611   2.9391400012e+01   1.4594700662e+01    0.3389317    0.2313514 -46.48  0.001174354    1.603    0.376
        81 -10.0569     26.0400    148.0285   7.4486449234e+01   4.1948088544e+01    0.3466794     0.159436  51.15  0.001470441    2.030    0.507
        82 -10.2351    148.6972    144.3216   3.6809531433e+01   2.3221014808e+01     0.523144    0.3255029 -72.77  0.001923886    3.262    0.693
        83 -10.2093     19.2699    145.5825   7.6546939355e+01   4.3182205543e+01    0.3217814    0.2049388 -48.54  0.001246351    1.806    0.446
        84  -9.7086    224.1570    147.8863   2.3008493071e+01   9.2672458955e+00    0.2456638    0.1356489  37.74  0.001327518    1.960    0.490
        85  -9.6449    125.5078    143.3376   4.2449442493e+01   2.7942484343e+01    0.3708234    0.2438461 -88.84  0.001381059    2.928    0.658
        86  -9.1031     55.0179    144.2211   6.4307630799e+01   3.9672053627e+01    0.2246825    0.1507606  72.80 0.0007267932    1.641    0.390
        87  -9.3105    117.0129    143.4960   4.4803354164e+01   2.9541389834e+01    0.2404858    0.1186045  55.83 0.0008091162    2.812    0.644
        88  -9.9232    188.4208    156.7704   3.0922324014e+01   1.3672365784e+01     0.256866    0.1219981 -43.49  0.001140794    2.178    0.541
        89  -9.1910     13.4987    141.4855   7.8197370406e+01   4.4704872256e+01    0.3275559    0.1502417 -48.65  0.001229899    2.571    0.611
        90 -10.3234     24.3117    138.6794   7.4250666811e+01   4.4546763204e+01    0.4565541    0.2032673  49.42  0.001480067    2.119    0.528
        91 -10.8425     19.8371    139.1075   7.5845200946e+01   4.4821728499e+01     0.505751    0.1810877  34.95  0.001081241    2.369    0.578
        92 -10.4912    197.8567    136.5357   2.5020115231e+01   1.5369638498e+01    0.3325911    0.2400552  -1.41  0.001770225    1.634    0.388
        93  -9.9773    203.1863    136.3810   2.4065829126e+01   1.4453500297e+01    0.2455597    0.1279287  48.37 0.0009423298    2.148    0.534
        94 -11.2603    187.8591    134.5620   2.6406297127e+01   1.7521253430e+01    0.3956206    0.2177173 -41.79  0.001763809    1.769    0.435
        95 -10.8848     13.9141    133.9797   7.7520404306e+01   4.6634344969e+01     0.435749     0.318577 -47.17  0.001363438    1.533    0.348
        96  -9.8229     47.0000    132.0822   6.5389085089e+01   4.3887631571e+01    0.3356172     0.170686 -71.57   0.00106108    2.000    0.500
        97  -9.9250     44.6585    128.3389   6.5705175372e+01   4.5169544101e+01    0.3178467    0.1646925  52.24  0.001289812    2.004    0.501
        98  -8.8338    209.7616    131.9942   2.2052502834e+01   1.4001392091e+01    0.1679858   0.09871383 -34.69 0.0004837324    1.533    0.348
        99 -10.1252    131.8493    130.9255   3.8041256734e+01   2.9380186310e+01    0.4226125    0.2246128 -58.93  0.001581909    2.453    0.592
       100  -8.6961     83.2908    131.6598   5.2660434286e+01   3.8582331011e+01    0.1624466    0.1164166  69.06 0.0005167974    1.647    0.393
       101  -9.2020    153.2292    128.9403   3.2324578106e+01   2.5380496860e+01    0.1990494    0.1226673 -43.79 0.0008775163    1.651    0.394
       102  -9.4213    162.4401    128.0935   3.0070200367e+01   2.3656592677e+01    0.2185957    0.1408632 -39.95 0.0005269153    1.550    0.355
       103  -9.7272     98.3293    127.0245   4.6818556855e+01   3.6987600307e+01    0.4176621    0.2434168 -81.54  0.001395203    3.193    0.687
       104  -9.9928    118.5541    125.8553   4.0492304972e+01   3.3236615364e+01    0.4188596     0.322754  73.41  0.001479121    1.614    0.380
       105 -10.7498     66.3334    126.4761   5.7498528948e+01   4.2690253878e+01    0.4946808    0.3314857 -21.08  0.002041016    2.206    0.547
       106 -10.3052     61.3215    126.3079   5.9270609558e+01   4.3486433115e+01    0.4545844    0.1979111  47.94  0.001626448    2.398    0.583
       107  -9.7485     77.7305    126.0953   5.3422549778e+01   4.0946317852e+01    0.2841775    0.2205075  27.43 0.0003825426    1.318    0.241
       108 -10.7361     75.3137    122.1839   5.3464523386e+01   4.2357053777e+01    0.6925869    0.3704135 -32.30  0.002350454    3.084    0.676
       109  -9.7740     47.6505    125.3245   6.4141488541e+01   4.5607247569e+01    0.3623417    0.2127351  54.71  0.001231362    1.783    0.439
       110 -10.1314     43.3187    121.1978   6.5144497047e+01   4.7242164822e+01    0.4804344    0.2542678  87.74  0.001849031    2.415    0.586
       111  -8.5502     14.6748    126.2781   7.6638411287e+01   4.8613695454e+01    0.1477854   0.08890118  54.37 0.0002276512    1.589    0.371
       112 -10.3395    180.8109    122.5260   2.5045807897e+01   2.0966550846e+01    0.5464904    0.3039976 -39.62  0.002496326    1.724    0.420
       113  -9.5505     56.2559    121.6649   6.0308535919e+01   4.5439754951e+01    0.2736422    0.1822561  35.94 0.0007138655    1.430    0.301
       114  -8.9802     27.3775    121.8192   7.1377689003e+01   4.8758922386e+01    0.2034907    0.1203979 -62.74 0.0006664461    1.630    0.386
       115  -9.3109    104.2343    123.7620   4.4240930158e+01   3.6620556791e+01    0.2133636    0.1864559   4.51  0.001042952    1.323    0.244
       116 -10.3700    140.9650    117.0977   3.2411031688e+01   3.0377618870e+01    0.7819538    0.3144001 -55.36  0.002345314    3.742    0.733
       117 -11.2194     58.9763     90.7199   5.2548883349e+01   5.3160215453e+01    0.8168539    0.6395903 -44.79  0.003829448    1.327    0.246
       118 -11.9907     63.9701     96.0100   5.1805148469e+01   5.0997796544e+01    0.8548452     0.657904 -69.41  0.004090649    1.373    0.272
       119 -11.7831     71.1556    117.4136   5.3959117072e+01   4.4281287635e+01    0.8268262    0.5933895 -82.68  0.003678702    1.624    0.384
       120 -10.4656     72.8825    111.0047   5.1918500486e+01   4.5645420711e+01    0.2990185    0.2903368  84.16 0.0003043512    1.036    0.034
       121 -11.1378     61.7290    106.9474   5.5281293831e+01   4.8520142381e+01    0.9832966    0.4542035  57.56  0.003125416    3.293    0.696
       122 -11.7137     67.5483    104.2882   5.2392070034e+01   4.8275930594e+01    0.6658639    0.3643037  38.44  0.002702936    1.743    0.426
       123  -9.3321    119.4886    117.9991   3.8338834214e+01   3.4815635827e+01    0.2411922    0.1575714 -49.00  0.001034826    1.597    0.374
       124 -10.8344    107.8369    113.1341   4.0564865261e+01   3.8390258229e+01    0.7398531     0.427679 -45.46  0.002994057    1.826    0.452
       125 -11.8259     54.0446    110.3405   5.9037951984e+01   4.8759545504e+01    0.9749931     0.451955  48.31  0.003612165    2.317    0.568
       126 -11.0009    132.4093    102.8577   3.0889588782e+01   3.5248932836e+01    0.7334925     0.313548  41.61  0.002535534    2.445    0.591
       127  -9.5572     21.9942    109.5317   7.2058772839e+01   5.2540303215e+01    0.2824522    0.1838147  77.65  0.001352604    1.595    0.373
       128 -11.1155    159.3981    110.4396   2.6482139271e+01   2.7665810745e+01    0.6858682    0.2285328 -45.05  0.002235612    3.069    0.674
       129 -10.4278    249.8527    102.8817   1.0583366423e+01   1.1533190845e+01    0.6410407    0.1395805 -30.21  0.001928824    5.546    0.820
       130  -9.6970     92.8701    105.2064   4.3364297005e+01   4.3356971946e+01    0.2950786    0.2096064 -22.46  0.001218003    1.969    0.492
       131 -10.9749    150.5007    102.9059   2.6512841717e+01   3.1101766470e+01    0.6050115    0.3034555 -55.03  0.002202442    2.543    0.607
       132 -10.1354     73.9014    105.0794   5.0144134494e+01   4.6984592783e+01    0.2357408    0.2061185  68.43 0.0003735983    1.185    0.156
       133  -9.9955     17.0600    112.5300   7.4426968407e+01   5.2116049501e+01    0.4208272    0.1757164  37.59  0.001727743    2.240    0.553
       134 -10.3980     17.7300    103.3148   7.3111563257e+01   5.4546985067e+01    0.3501259    0.2144527 -67.37  0.001003991    1.510    0.338
       135  -9.4224    176.1373    102.1612   2.1050585868e+01   2.5521528014e+01    0.2026075     0.170935 -71.64 0.0008238358    1.341    0.254
       136 -10.6862     84.3759    100.4766   4.5098044256e+01   4.6192838599e+01     0.539442    0.3149174  55.29  0.002098711    1.967    0.492
       137 -10.3750     92.4469    111.8354   4.5188067730e+01   4.1830103991e+01    0.4451433    0.3125985 -72.81  0.001591209    1.730    0.422
       138  -9.4515     30.1169    100.9543   6.7375569610e+01   5.4130783246e+01    0.2259954    0.1847461  66.27 0.0005387774    1.244    0.196
       139 -10.4879     75.4701     99.0420   4.8031389232e+01   4.8229000505e+01    0.3114126    0.2246961  17.48  0.001045475    1.669    0.401
       140  -9.6581    185.6427    114.4720   2.2280801222e+01   2.1395932923e+01    0.2756371    0.1579706 -39.36 0.0009413635    1.646    0.393
       141  -9.6326    171.7608     94.6348   1.9957903640e+01   2.7804240032e+01    0.3021006    0.1788609  -4.64 0.0009630278    4.189    0.761
       142  -9.6484    129.9564    117.2533   3.5274269005e+01   3.2734389835e+01    0.3242602    0.2026185 -72.21  0.001188068    2.654    0.623
       143 -10.4043     24.3734     92.1715   6.8556155193e+01   5.7016339715e+01    0.4436179    0.2393063 -83.27  0.001451208    1.976    0.494
       144 -10.7666     86.4963     86.4846   4.0353673114e+01   4.9121449032e+01    0.3956046    0.3003338  83.62  0.001372584    1.720    0.419
       145  -8.9158     34.6932     89.3582   6.3197651988e+01   5.6766689976e+01    0.1570522      0.10509  63.45 0.0007040867    1.728    0.421
       146 -10.7929    104.9804     82.9927   3.2959768832e+01   4.5830088681e+01    0.6380928    0.3699192 -64.02  0.001780082    2.453    0.592
       147  -9.3612     48.2699     84.4108   5.5704270381e+01   5.6379206236e+01    0.2153732    0.1323879  40.87 0.0009418274    1.624    0.384
       148  -9.1580    116.6521     83.1271   2.9483903446e+01   4.3052356976e+01    0.2554457    0.2012406  12.64  0.000367085    1.703    0.413
       149 -10.5055    119.5552     80.5299   2.7857061901e+01   4.2882723782e+01    0.4376985     0.305381  85.48   0.00178453    2.021    0.505
       150 -10.1267     91.8180     90.8005   3.9735368927e+01   4.6998325079e+01    0.4413096    0.3552369  69.84  0.001131501    1.396    0.283
       151 -10.2060    134.1190    108.4292   3.1929592454e+01   3.3696261863e+01    0.5601485     0.229724 -43.16  0.001943021    2.512    0.602
       152 -10.2876    176.7971     79.0290   1.4969586117e+01   2.9292046731e+01    0.5039889    0.2872489  84.75  0.001925957    2.885    0.653
       153  -9.9094    124.1042     87.9229   2.8860173436e+01   4.0284965243e+01    0.6263554    0.1971288 -40.53  0.001850273    3.404    0.706
       154  -9.8937    138.7509     90.7049   2.5920130365e+01   3.6226963745e+01     0.508769     0.196539 -47.33  0.001683994    2.766    0.638
       155 -11.4696     82.0374     86.7206   4.2084121822e+01   4.9978804503e+01    0.7276026     0.474027  64.03 0.0007998628    1.977    0.494
       156  -9.5946     10.0056     74.0384   7.2885718562e+01   6.2830069076e+01    0.1994413    0.1844596 -68.46 0.0003598575    1.016    0.015
       157  -9.2172    116.3123     72.6507   2.6238708321e+01   4.5239768563e+01    0.1654482    0.1232567 -81.20 0.0007045958    1.719    0.418
       158  -9.5895    106.4258     72.0855   2.8960093657e+01   4.7765461109e+01     0.334249    0.2124327  68.88  0.001321741    1.981    0.495
       159  -9.6673     82.1633     72.1998   3.7383276613e+01   5.3285742123e+01     0.221978    0.1881973  80.76  0.001072836    1.362    0.266
       160  -9.3373     95.4250     71.1966   3.2226024703e+01   5.0548989217e+01    0.2254477    0.1499898 -57.98 0.0008010094    1.732    0.423
       161  -9.2230    100.2011     60.2123   2.6730291564e+01   5.1604778818e+01    0.2198861    0.1837066  89.73  0.000593492    1.362    0.266
       162  -9.0843     73.2655     59.2991   3.6287418347e+01   5.7951257839e+01    0.2374145    0.1297761 -58.37 0.0008946488    2.358    0.576
       163  -9.6749      2.1714     56.8319   7.4749641022e+01   6.7598460265e+01    0.1917453    0.1730437  68.56 0.0006599876    1.207    0.171
       164  -8.5999    172.2283     50.0048   7.6626214979e+00   3.4818509943e+01    0.1682677    0.1134052 -35.96            0    1.459    0.315
       165  -8.8254     92.5216     50.5159   2.5520391694e+01   5.5273475915e+01    0.1550645    0.1447797  66.60  0.000230409    1.048    0.046
       166 -11.0111     45.5482     48.9680   4.5662644221e+01   6.5318061454e+01    0.2489932    0.2076873  25.55 0.0003731167    1.168    0.144
       167  -8.7899      1.2911     45.9907   7.3453092693e+01   7.0323455987e+01    0.1581847    0.1069642 -70.92 0.0003698973    1.370    0.270
       168  -8.5144    113.7396     41.3025   1.5720396306e+01   5.1359923795e+01    0.1501126    0.1128581 -71.18 0.0001776936    1.515    0.340
       169  -9.8257    212.0000     40.0002   5.2518158632e-01   2.6899318260e+01    0.2099142   0.06513226 -30.78 0.0005526792    2.928    0.659
       170  -9.0038    112.2924     34.6449   1.3472510038e+01   5.2711116688e+01    0.1578261    0.1102086 -68.58 0.0003907436    1.685    0.407
       171  -8.7253    119.6674     33.3192   1.1288360267e+01   5.0913036847e+01    0.1590978    0.1088343 -71.80 0.0007048632    1.695    0.410
       172  -9.2331    110.3716     24.7417   9.9095558705e+00   5.4525384627e+01    0.1945322    0.1458715  -9.35 0.0009491983    1.677    0.404
       173  -9.7468     44.2860     25.0584   3.4892223283e+01   7.0260110509e+01    0.2214374    0.1814932  33.63 0.0004443964    1.138    0.121
       174 -10.1637     13.0432     21.0057   5.6035256288e+01   7.5393995754e+01    0.2404411     0.167999  11.15   0.00060268    1.387    0.279
       175 -10.6881      4.3964    248.5920   8.4663714625e+01   2.1747539317e+01    0.2611347     0.123585  53.61  0.001561157    1.524    0.344
       176  -8.4890    247.7763    248.0046   3.5958861618e+01  -5.8241976780e+00    0.1162033   0.06449434 -23.17 0.0005148794    1.576    0.365
