#   1 NUMBER                 Running object number                                     
#   2 MAG_AUTO               Kron-like elliptical aperture magnitude                    [mag]
#   3 X_IMAGE                Object position along x                                    [pixel]
#   4 Y_IMAGE                Object position along y                                    [pixel]
#   5 X_WORLD                Barycenter position along world x axis                     [deg]
#   6 Y_WORLD                Barycenter position along world y axis                     [deg]
#   7 A_WORLD                Profile RMS along major axis (world units)                 [deg]
#   8 B_WORLD                Profile RMS along minor axis (world units)                 [deg]
#   9 THETA_WORLD            Position angle (CCW/world-x)                               [deg]
#  10 FWHM_WORLD             FWHM assuming a gaussian core                              [deg]
#  11 ELONGATION             A_IMAGE/B_IMAGE                                           
#  12 ELLIPTICITY            1 - B_IMAGE/A_IMAGE                                       
         1 -16.9418    237.0735     29.8318   6.9690795921e+01   2.3287952352e+01     7.293342     2.264889 -27.49   0.02903441    2.554    0.608
         2 -14.7554      8.6268     79.1335   1.4375949037e+02   5.8373307004e+01     2.014124      1.07734 -57.43    0.0110414    1.588    0.370
         3  -9.0791    159.6825    129.6493   1.0860168221e+02   2.5726620866e+01    0.1487903    0.1056362   2.47 0.0007047522    1.736    0.424
         4  -9.3797    204.3489    218.1682   1.1599277483e+02   5.7458281258e+00    0.1319503   0.09925648 -33.68 0.0008167362    1.710    0.415
         5  -9.0979    198.5012    215.4945   1.1659945108e+02   6.8423391048e+00    0.1139002   0.08632999  19.35 0.0008105235    1.027    0.026
         6  -9.5794    185.4970    213.5283   1.1858697262e+02   8.8779309759e+00    0.1986975    0.1094742 -36.38   0.00119785    2.121    0.529
         7 -13.2308    245.8781    192.6754   1.0516448203e+02   2.8238205466e+00     0.872133    0.3773989 -40.97  0.004076544    3.933    0.746
         8 -11.7216    248.8590    184.7534   1.0332566186e+02   3.2344209900e+00    0.3529442    0.2164429 -28.35  0.002272749    1.692    0.409
         9 -12.9927    242.7513    180.4773   1.0350643583e+02   4.5375896860e+00    0.5411161    0.2842423 -33.68  0.002594772    2.083    0.520
        10  -9.4643    203.6505    210.7824   1.1501346493e+02   6.6693684698e+00    0.1361323    0.1011645 -33.88 0.0009414683    1.685    0.406
        11  -9.4529    199.0000    210.9741   1.1584351201e+02   7.2940923723e+00    0.1557658   0.06188438 -35.51 0.0007440317    2.850    0.649
        12 -10.0329    218.5635    209.1313   1.1224706506e+02   4.8020912453e+00    0.2536381   0.09375653 -23.14  0.001147312    3.534    0.717
        13  -9.9988    192.7714    209.6841   1.1673795813e+02   8.3199124325e+00    0.1981712    0.1523906 -36.50  0.001386866    1.657    0.396
        14  -9.3781    178.0000    210.0233   1.1942819641e+02   1.0371219753e+01    0.1628902   0.06475281 -40.14 0.0008059469    2.967    0.663
        15  -9.3818    161.6318    210.1665   1.2246271672e+02   1.2681062301e+01    0.1512783    0.1017996 -24.87 0.0009533991    1.773    0.436
        16  -9.4675    156.6847    206.5052   1.2289203553e+02   1.3890500388e+01    0.1798386    0.1075189 -42.70  0.001077988    2.000    0.500
        17  -9.4650    207.0396    206.3354   1.1374993543e+02   6.7052350164e+00    0.1625611    0.1208624  20.23  0.000667145    1.055    0.052
        18  -9.5845    149.6302    205.8310   1.2414922970e+02   1.4996709814e+01    0.1408251    0.1133085 -60.25 0.0009504926    1.701    0.412
        19 -11.3931    238.6227    204.2391   1.0822824811e+02   2.6182906092e+00    0.2327552   0.08846302 -26.02  0.001209213    2.654    0.623
        20 -10.3231    198.0122    203.1803   1.1482329497e+02   8.3568318732e+00    0.2567465     0.162504 -26.28  0.001363032    1.689    0.408
        21 -12.2281    243.8165    200.2825   1.0676696977e+02   2.3294231966e+00     0.278902    0.1565471 -18.70  0.001698331    1.649    0.394
        22  -9.7572    167.3030    201.8553   1.2022067664e+02   1.2994681078e+01    0.2019323    0.1075259 -49.71  0.001081898    2.567    0.610
        23 -10.0665    130.3823    201.7401   1.2738678975e+02   1.8344559230e+01    0.1943109    0.1480154 -34.69  0.001287278    1.579    0.367
        24  -9.6795    211.2929    201.0591   1.1218802470e+02   6.7112203726e+00    0.1619199    0.1280233   2.67 0.0007829533    1.122    0.108
        25 -10.4632    230.5893    199.3063   1.0869880213e+02   4.2111870023e+00    0.1890385   0.09812134 -30.83 0.0009643654    2.035    0.509
        26  -9.6568    150.4523    200.0048   1.2318879486e+02   1.5724297022e+01    0.1595753    0.1169659 -40.26 0.0009024068    1.601    0.375
        27 -10.1805    139.0856    198.6081   1.2523840341e+02   1.7585927506e+01    0.2113812    0.1724562 -29.38 0.0008444862    1.425    0.298
        28  -9.7154    177.5053    196.9968   1.1757480454e+02   1.2147848673e+01    0.1613719    0.1150341 -33.35 0.0008069326    1.584    0.369
        29 -11.6994    237.1306    194.4904   1.0684404498e+02   3.8242671939e+00     0.240082    0.1408059 -19.49   0.00111826    1.594    0.373
        30  -9.3809    186.6256    202.7964   1.1679342686e+02   1.0048609249e+01    0.1411854    0.1092795 -40.36 0.0009477068    1.670    0.401
        31  -9.6942    156.6046    195.2403   1.2130113656e+02   1.5516032446e+01     0.153789    0.1097273 -26.30 0.0009499072    1.613    0.380
        32  -9.3011    209.4422    194.4928   1.1143214500e+02   7.7452726367e+00    0.1185305   0.09245146  13.36 0.0001431738    1.024    0.024
        33 -10.2573    147.8434    193.5183   1.2277865411e+02   1.7079556366e+01     0.234231    0.1519976 -23.68  0.001329325    1.987    0.497
        34  -9.7213    124.2817    198.3690   1.2818673817e+02   1.9734972245e+01    0.1143162   0.08711676  -4.49 0.0007014704    1.693    0.409
        35 -10.3673    231.1431    192.9062   1.0753475042e+02   4.8234540607e+00    0.2025205    0.1323667 -13.35 0.0008139322    1.394    0.283
        36 -10.6420    224.7792    191.8898   1.0840268380e+02   5.8349508259e+00    0.2321058    0.1400075 -31.61  0.001111286    1.807    0.447
        37 -10.1542    186.2461    192.4992   1.1524241950e+02   1.1438343622e+01    0.2103575    0.1592491 -25.33  0.001233897    1.416    0.294
        38  -9.3740    214.4928    191.9537   1.1014054415e+02   7.3101369829e+00    0.1632099    0.1058174 -25.41  0.001024863    1.571    0.364
        39  -9.4356    199.1586    191.1650   1.1268274226e+02   9.6707606902e+00    0.1480699    0.1359563  11.98 0.0008585786    1.322    0.244
        40  -9.6428    202.6165    196.7353   1.1298796268e+02   8.4707525026e+00    0.2043062      0.10465 -28.62  0.001132609    2.089    0.521
        41  -9.4780    179.4071    189.7847   1.1607572201e+02   1.2842575062e+01    0.1601667     0.106897 -19.60 0.0009451378    1.652    0.395
        42  -9.5834    172.3780    190.2052   1.1747668973e+02   1.3857910588e+01    0.1487599    0.1157196 -46.30 0.0007564629    1.646    0.392
        43 -11.3013    237.5328    186.9429   1.0547854525e+02   4.5743421336e+00    0.2499413     0.175955 -11.83  0.001056081    1.254    0.203
        44  -9.6376    220.2827    187.4408   1.0838727371e+02   6.9933312761e+00    0.1931465    0.0954863 -29.49 0.0008145886    2.047    0.512
        45  -9.9513    127.7538    187.9615   1.2609207875e+02   2.0935470376e+01     0.145103    0.1046728 -49.57 0.0008875848    1.603    0.376
        46 -11.3502    230.7673    186.5213   1.0649271868e+02   5.5804362657e+00    0.2323033    0.1765509   3.93 0.0008011124    1.050    0.048
        47  -9.7793    167.0000    185.0194   1.1768402866e+02   1.5434665315e+01    0.1813013    0.0698873 -42.07 0.0008006254    2.930    0.659
        48 -10.0113    140.0149    185.0043   1.2311745591e+02   1.9593429448e+01     0.196703    0.1431455  -0.29  0.001138036    1.720    0.419
        49 -10.1488    202.9565    183.0423   1.1062045978e+02   1.0126439799e+01    0.2296077      0.15883 -25.16  0.001312014    1.474    0.322
        50 -10.6442    224.0158    183.3041   1.0703711103e+02   6.9272345150e+00    0.1697206    0.1282588  14.39 0.0006915604    1.052    0.049
        51 -10.5825    211.0898    182.5840   1.0910916520e+02   8.9445471318e+00     0.230677    0.1561025 -14.06  0.001006197    1.420    0.296
        52 -11.0370    235.5630    181.0210   1.0474218575e+02   5.5046530499e+00    0.2370757    0.1709295 -14.69  0.001008236    1.265    0.210
        53  -9.2045    157.6684    180.3040   1.1877307390e+02   1.7608538296e+01    0.1193368   0.09514614  61.18 0.0005951942    1.657    0.396
        54 -12.3404    246.6118    167.9043   1.0058591978e+02   5.3577519730e+00    0.4377096    0.2461997 -10.35  0.001734788    1.665    0.399
        55 -14.2003    247.4470    154.4279   9.7845037758e+01   6.7479844740e+00     1.400554    0.6820608 -27.54  0.007531547    1.846    0.458
        56 -10.2142    225.6662    178.8526   1.0596554387e+02   7.2027300689e+00    0.1568691   0.09932014 -32.80 0.0006975278    1.737    0.424
        57 -10.4643    191.1091    178.3381   1.1194897364e+02   1.2593428239e+01      0.21161      0.15439 -12.81 0.0008891249    1.367    0.269
        58  -9.0274    138.3131    179.3435   1.2261607025e+02   2.0782769156e+01     0.126436   0.09262504   0.13 0.0004299714    1.706    0.414
        59  -9.8440    219.5106    178.5177   1.0693750246e+02   8.1662218759e+00    0.1226769   0.09595942   9.36 6.239735e-05    1.010    0.010
        60  -9.3099    176.5059    178.4907   1.1474310939e+02   1.4892102233e+01     0.127047    0.1051881  17.10 7.214502e-05    1.017    0.016
        61  -9.9300    182.8571    182.6660   1.1424349305e+02   1.3294694928e+01     0.208333     0.154694 -16.62  0.001295723    1.383    0.277
        62  -8.9189    177.2928    183.6877   1.1547312999e+02   1.4021540723e+01    0.1097938   0.09660285  60.61 0.0003195548    1.592    0.372
        63  -9.6323    152.3900    175.8288   1.1911750778e+02   1.9151549931e+01    0.1720547    0.1145655 -28.69 0.0009500539    1.729    0.422
        64 -11.1778    231.7745    174.4612   1.0415900125e+02   6.8045183287e+00    0.2170565      0.14493 -20.18  0.001072995    1.388    0.280
        65 -10.6152    219.5259    173.9447   1.0609957107e+02   8.7196855700e+00    0.1744816    0.1082393 -25.25 0.0007708598    1.565    0.361
        66  -9.4512    145.5045    179.5037   1.2113666151e+02   1.9642197275e+01    0.1262541    0.1084197  23.81 0.0002929987    1.034    0.033
        67  -9.6630    206.3710    169.7909   1.0761611789e+02   1.1310654326e+01    0.1725157    0.1052135 -17.82 0.0007373036    1.672    0.402
        68 -11.6652    237.8017    168.3698   1.0205055325e+02   6.6069811811e+00    0.2580065    0.1393325 -23.04  0.001055647    1.701    0.412
        69  -9.5307    134.6887    169.6650   1.2186396139e+02   2.2998037229e+01    0.1290475   0.09615507  -1.24 0.0007044456    1.681    0.405
        70 -10.8293    223.6249    166.7744   1.0406161131e+02   8.9643984589e+00      0.15944    0.1051927 -31.43 0.0007630035    1.595    0.373
        71  -9.2682    191.7706    166.0203   1.0957891615e+02   1.4203046777e+01    0.1579289    0.1007877 -31.35 0.0006215356    1.612    0.380
        72  -9.0991    179.4526    166.4825   1.1202532875e+02   1.6181437406e+01    0.1301707    0.1098048  13.70 0.0001478388    1.015    0.015
        73 -11.5436    234.0010    163.0265   1.0163553169e+02   7.8071697203e+00    0.1939823    0.1503194   0.48 0.0007174085    1.034    0.033
        74  -9.0486    177.6224    161.6931   1.1148658771e+02   1.7212394068e+01    0.1399757   0.09157881   9.77 0.0007027842    1.780    0.438
        75 -12.2407    237.1875    157.5615   1.0005699955e+02   7.9619768148e+00    0.3231384    0.2527653  35.12  0.001429641    1.421    0.296
        76 -11.5049    227.2217    156.5298   1.0146465397e+02   9.6616663109e+00    0.2274766    0.1523571 -19.64 0.0006828382    1.355    0.262
        77 -11.5317    234.8196    146.7017   9.8239512547e+01   9.6494234566e+00    0.2699489    0.1431621 -27.02 0.0009010378    1.716    0.417
        78  -9.5107    194.3583    221.2315   1.1813520119e+02   6.7547559476e+00    0.1310292    0.1018672 -36.55  0.000949705    1.710    0.415
        79  -9.4191    210.8368    217.8616   1.1485831549e+02   4.9063768058e+00    0.1362387    0.1186954  12.13   0.00106211    1.347    0.258
        80 -11.0134    233.9735    131.9939   9.5253662474e+01   1.1624479374e+01    0.2109767    0.1330174   4.60 0.0007075754    1.664    0.399
        81  -9.4451    145.0215     23.2670   7.9322313765e+01   4.6295658731e+01    0.1976848    0.1889907  50.08 0.0003501216    1.060    0.056
