#   1 NUMBER                 Running object number                                     
#   2 MAG_AUTO               Kron-like elliptical aperture magnitude                    [mag]
#   3 X_IMAGE                Object position along x                                    [pixel]
#   4 Y_IMAGE                Object position along y                                    [pixel]
#   5 X_WORLD                Barycenter position along world x axis                     [deg]
#   6 Y_WORLD                Barycenter position along world y axis                     [deg]
#   7 A_WORLD                Profile RMS along major axis (world units)                 [deg]
#   8 B_WORLD                Profile RMS along minor axis (world units)                 [deg]
#   9 THETA_WORLD            Position angle (CCW/world-x)                               [deg]
#  10 FWHM_WORLD             FWHM assuming a gaussian core                              [deg]
#  11 ELONGATION             A_IMAGE/B_IMAGE                                           
#  12 ELLIPTICITY            1 - B_IMAGE/A_IMAGE                                       
         1 -14.6072    148.2589     62.8209   8.8260831829e+01   3.9783662661e+01     1.447661     1.201542  11.82  0.001243584    1.272    0.214
         2 -14.8340    158.9799     47.9140   8.0854311722e+01   3.9541877241e+01      1.35889     1.096127 -22.57  0.003732826    1.205    0.170
         3 -13.6796    198.0212      7.3377   6.0928384294e+01   3.4158401618e+01    0.8536655    0.5586382 -57.33  0.004049232    1.710    0.415
         4 -14.9222    171.3959     17.2263   6.7781305844e+01   4.0223448455e+01     1.546113     1.259052 -78.15  0.005710586    1.435    0.303
         5 -14.4325    185.3717     11.5871   6.3847194349e+01   3.7087723761e+01      2.39371     1.134102 -76.32  0.007506678    4.091    0.756
         6 -12.7703    139.7459    201.0276   1.2017731485e+02   1.6842163967e+01    0.5153122    0.3135209  42.56  0.003147439    1.347    0.257
         7 -20.3507     80.9233    176.7661   1.2872412743e+02   2.9386198171e+01       13.093     6.024219 -67.79   0.06929532    2.308    0.567
         8 -12.4756    134.5231    198.8934   1.2087652294e+02   1.7963817780e+01    0.5042507    0.3141293  18.59  0.002691877    2.417    0.586
         9 -10.6470     24.7395    202.7741   1.4125686359e+02   3.0951259395e+01    0.1282327   0.09649421  77.67  0.000343441    1.113    0.101
        10 -10.4657     21.2192    194.4961   1.4145675508e+02   3.2689304285e+01    0.1139553   0.07990424  52.58 0.0002964251    1.238    0.192
        11 -13.0562    188.8003    176.7118   1.0729562935e+02   1.2257730546e+01    0.8378087    0.4743618 -59.43  0.003482297    4.000    0.750
        12 -12.8996    204.6596    174.6145   1.0402600794e+02   9.7627230972e+00    0.5042241     0.436435  14.37  0.002144311    1.082    0.076
        13 -12.5009    196.7149    175.4224   1.0561071885e+02   1.1047652008e+01     0.449774    0.3787703 -69.37    0.0025614    1.898    0.473
        14 -12.9904    193.1541    165.5259   1.0444893754e+02   1.3055135208e+01    0.3625796    0.3086839 -13.63 0.0009358412    1.216    0.178
        15 -13.5258    190.0128    161.0009   1.0417936923e+02   1.4282498898e+01    0.9565469    0.4580558 -35.24  0.002525123    2.276    0.561
        16 -10.7987     32.6997    250.5612   1.4210056333e+02   2.2861761804e+01   0.08428946   0.05961202  66.09 0.0002846854    1.101    0.092
        17 -13.1303    230.2034    168.0170   9.8330310563e+01   6.1376992159e+00    0.4180092     0.265827 -24.38  0.002408361    1.592    0.372
        18 -10.8093     15.1293    160.7384   1.4075788834e+02   3.9423741868e+01    0.2910641    0.1230226 -83.47  0.001684145    2.024    0.506
        19  -9.9863    170.2645    158.6459   1.0757905165e+02   1.8285983039e+01     0.123058    0.1052149  89.22 0.0006984094    1.624    0.384
        20 -12.5975    142.9881    156.2675   1.1275853076e+02   2.3612879158e+01    0.3889217    0.2115505  49.84  0.001706862    1.811    0.448
        21 -11.1588    139.4401    249.7738   1.2560190470e+02   1.0399496170e+01    0.1785815    0.1459666 -75.59  0.001114228    1.689    0.408
        22 -10.4862     28.0351    232.9950   1.4208740985e+02   2.5838575414e+01    0.1029637   0.06966412  78.37  0.000446017    1.236    0.191
        23 -12.4563    161.2775    152.9923   1.0833152121e+02   2.0870520491e+01    0.2821882    0.2619117  24.55 0.0009846203    1.034    0.033
        24 -10.3959     18.1837    153.6186   1.3967991214e+02   4.0571654469e+01    0.1753577    0.1223756 -60.47 0.0006656983    1.592    0.372
        25 -10.4264     17.6970    150.6544   1.3958209800e+02   4.1202790129e+01    0.2203725    0.1073598 -63.95   0.00133193    1.943    0.485
        26 -11.8538    174.1594    148.4076   1.0480125604e+02   1.9203221485e+01    0.3455562    0.3016478 -53.02    0.0013819    1.380    0.275
        27 -10.8248    139.4075    245.2721   1.2517735688e+02   1.0940038044e+01    0.2307679    0.1293854  53.28 0.0009912043    1.622    0.383
        28 -10.2925      7.7491    149.0951   1.4158050254e+02   4.2284898624e+01    0.1532497    0.1052883 -86.53  0.001131051    1.166    0.142
        29 -11.1182     27.9750    138.0531   1.3632369130e+02   4.2918193748e+01    0.1663559    0.1361616  84.48 0.0003767139    1.037    0.036
        30 -12.7519    160.4672    127.9704   1.0332344722e+02   2.5368299148e+01    0.4339595    0.3621703 -58.98  0.001733964    1.421    0.296
        31 -10.5917    171.0016    137.4857   1.0317469750e+02   2.1622165580e+01    0.2111263    0.1301003  44.81 0.0007003498    1.539    0.350
        32 -10.9369    167.4107    112.6626   9.8205778297e+01   2.6651573786e+01    0.3044113    0.2459033 -85.04  0.001385045    1.791    0.442
        33 -11.0665    140.3589    240.2608   1.2452894049e+02   1.1419894048e+01    0.1788646    0.1519478 -33.09 0.0007698888    1.628    0.386
        34 -10.7930    205.3426    110.2220   9.0001562514e+01   1.8856194162e+01    0.2994817    0.1923914  40.34 0.0009819391    1.512    0.338
        35 -12.1752     29.8743    104.8959   1.3228946900e+02   4.9949334147e+01    0.3295248    0.2198112   1.29 0.0008654588    2.312    0.567
        36 -13.1233    135.7490    238.0412   1.2506576376e+02   1.2333551533e+01    0.3044913    0.2527807  68.68   0.00131864    1.350    0.259
        37  99.0000     32.5769    221.7346   1.4087488302e+02   2.7122940872e+01    0.2223579    0.1594923 -48.66  0.001733843    2.341    0.573
        38 -11.0320    217.8516    218.2412   1.0895466485e+02   2.5533782328e+00    0.1683019     0.144282 -18.68  0.001058578    1.467    0.318
        39 -13.0235     50.6244     91.7175   1.2418798856e+02   5.0954014666e+01    0.3554852     0.268564  15.20  0.001167932    1.707    0.414
        40 -11.6138     24.5555    215.3407   1.4187644674e+02   2.8901137985e+01    0.1362501   0.09193583  53.14 0.0007864928    1.196    0.164
        41 -13.1478     11.6122    205.7311   1.4358957294e+02   3.1626604097e+01    0.3425882    0.2476792  25.96  0.002790372    1.926    0.481
        42 -10.7971    142.9143     81.6817   9.5440074430e+01   3.7640255897e+01    0.2569523    0.2048271 -23.39 0.0004840321    1.273    0.214
        43 -11.1269    103.4017     81.9586   1.0603245797e+02   4.5553587862e+01    0.2451999    0.2080601  39.76 0.0003590228    1.249    0.200
        44 -10.9930    126.7219    248.6552   1.2752668958e+02   1.2231621773e+01    0.1489075    0.1074279  11.74  0.001058716    2.161    0.537
        45 -13.4378    163.2411     38.8636   7.6852076764e+01   3.9746382228e+01    0.5097871    0.4797577  26.58 0.0008511146    1.038    0.036
        46 -11.6914    128.2366    245.1402   1.2696784502e+02   1.2464440682e+01    0.1429306    0.1322883  51.15 0.0004061775    1.274    0.215
        47 -10.5988    150.4311    249.3486   1.2380934727e+02   8.9560482586e+00    0.1646563    0.1259165  15.61 0.0008134459    1.581    0.368
        48 -11.2521     13.5071     59.8094   1.3061395813e+02   6.1286967000e+01     0.197453    0.1677732  88.20  0.000406935    1.244    0.196
        49 -11.9484    115.9388    247.6008   1.2915547015e+02   1.3773905404e+01    0.2809838    0.1772466 -35.28  0.001900214    2.890    0.654
        50 -10.9906     14.1706    241.4912   1.4446499245e+02   2.5868328178e+01     0.154899   0.07275528  73.08 0.0007862063    1.697    0.411
