#   1 NUMBER                 Running object number                                     
#   2 MAG_AUTO               Kron-like elliptical aperture magnitude                    [mag]
#   3 X_IMAGE                Object position along x                                    [pixel]
#   4 Y_IMAGE                Object position along y                                    [pixel]
#   5 X_WORLD                Barycenter position along world x axis                     [deg]
#   6 Y_WORLD                Barycenter position along world y axis                     [deg]
#   7 A_WORLD                Profile RMS along major axis (world units)                 [deg]
#   8 B_WORLD                Profile RMS along minor axis (world units)                 [deg]
#   9 THETA_WORLD            Position angle (CCW/world-x)                               [deg]
#  10 FWHM_WORLD             FWHM assuming a gaussian core                              [deg]
#  11 ELONGATION             A_IMAGE/B_IMAGE                                           
#  12 ELLIPTICITY            1 - B_IMAGE/A_IMAGE                                       
         1 -11.2362     40.0860     21.7250   4.5002701714e+01   6.7460494707e+01    0.7999782    0.4063873   2.07  0.003228054    3.872    0.742
         2 -11.5278     32.7138     18.5441   4.6968091749e+01   6.8869293205e+01    0.4639729    0.2992299   1.86   0.00122049    1.554    0.357
         3 -10.8060     15.2869     19.6172   5.6201522060e+01   7.0648757309e+01    0.3948499     0.189152 -49.58  0.001816617    2.374    0.579
         4 -10.6095    213.3891     18.3342   5.7704872338e+00   3.0331782676e+01    0.3093655    0.2856947 -82.99  0.001497432    1.256    0.204
         5 -11.0926     35.5023     12.0539   4.2658964808e+01   6.9335982990e+01    0.1970261    0.1336374 -39.87 0.0007889302    1.797    0.443
         6 -10.2213     31.6906     10.0080   4.3464294173e+01   7.0097770411e+01    0.2077025    0.1451198  32.27  0.001282333    1.409    0.290
         7 -11.7950     92.1889     10.0357   2.1985381694e+01   5.9423729482e+01    0.5105983    0.1982753  53.40            0    2.086    0.521
         8 -11.5254     44.0713     11.0898   3.8414123464e+01   6.8210420522e+01     0.337034    0.2193124  17.01  0.001235199    1.438    0.305
         9  -9.9686    203.1508     11.2021   5.1292776174e+00   3.3457680725e+01    0.1776875    0.1529268  78.55   0.00109395    1.216    0.178
        10 -10.9397     55.5887      9.7905   3.3217060026e+01   6.6496015791e+01    0.3301909    0.2781302 -89.58  0.001842993    2.094    0.522
        11  -9.5988      2.9393     11.1308   5.9348268322e+01   7.2969481379e+01    0.1260377   0.09320677 -22.45 0.0009399279    1.070    0.065
        12  -9.8317    192.7493      9.9571   5.8375133658e+00   3.5987256386e+01    0.1722375    0.1407806 -75.41 0.0002936039    1.074    0.069
        13 -10.2427     56.6723      3.5384   2.9937924944e+01   6.6924931866e+01    0.3150909    0.1592073  22.15  0.001590807    2.314    0.568
        14 -10.3865     81.5214      8.4880   2.4212364080e+01   6.1775408448e+01    0.3061365    0.1502674  25.52  0.001393618    2.638    0.621
        15  -9.8290     84.3336      7.3237   2.2967147519e+01   6.1307846136e+01    0.2384896    0.1256803  28.25  0.001181385    2.149    0.535
        16  -9.1878    168.9746      9.4907   8.3118485573e+00   4.1647880558e+01    0.1920388   0.09324393 -82.31   0.00081034    2.579    0.612
        17  -9.3898    117.3089      8.7051   1.5948265093e+01   5.3975683534e+01    0.1231841   0.09266553 -77.08  0.000312001    1.589    0.371
        18  -9.0345     16.0000      8.0154   5.0495825913e+01   7.2213609479e+01    0.1673118   0.05437822 -39.70 0.0007970948    2.906    0.656
        19 -10.5255     70.8066      5.1501   2.5960360878e+01   6.4186594217e+01    0.1990882    0.1515476  14.00 0.0002679835    1.272    0.214
        20 -10.8585     38.9444      3.9611   3.7178203025e+01   6.9760090982e+01    0.1958324    0.1465247  35.25 0.0003595059    1.309    0.236
        21 -10.6781    193.9183      4.8450   4.5317789064e+00   3.6246643151e+01    0.1961712    0.1590531  87.15 0.0003428739    1.073    0.068
        22 -12.1866    204.9686      2.6898   3.0738624351e+00   3.3946798693e+01    0.2334002    0.1809689 -75.07 0.0003140461    1.061    0.058
        23 -11.0065     44.7722      4.6849   3.5060036811e+01   6.8792863813e+01     0.377505    0.2779619  72.25  0.002146338    2.836    0.647
        24  -9.5467    148.8072      2.2155   8.8685308306e+00   4.7138200231e+01    0.1735756    0.1233319  56.47 0.0004614351    1.304    0.233
        25 -11.6186     29.5832      4.7249   4.1866960096e+01   7.0996384467e+01    0.2403824     0.179142 -31.53  0.000396226    1.540    0.351
        26  -9.3496    100.5380      1.4027   1.6773580020e+01   5.8353927060e+01    0.1226579    0.1026265  56.46 0.0001919228    1.047    0.045
        27  -9.1063     80.3955      1.5219   2.1660852321e+01   6.2602789220e+01    0.1194951   0.09932566  37.52 0.0002793832    1.022    0.021
        28  -9.5352     19.7624      1.3630   4.5107577503e+01   7.2614625721e+01    0.1396978   0.08363017  20.11  0.000306801    1.466    0.318
        29  -9.0827     11.7124      1.4184   4.9559052132e+01   7.3499425018e+01   0.08981471   0.08469681 -39.74 0.0002582205    1.839    0.456
        30  -9.1944      1.2664      1.6751   5.5876673622e+01   7.4434263576e+01   0.08592141   0.07882421 -16.94 0.0006544515    1.567    0.362
        31 -12.2814     69.2437    135.8426   6.7885804380e+01   3.9884530357e+01     0.299994    0.2442767 -59.59 0.0004023029    1.145    0.127
        32 -10.4891     23.6055    249.5077   9.1544946279e+01   1.9005375787e+01    0.2102491    0.1245063 -79.13  0.001333457    1.603    0.376
        33 -10.6904     26.9374    136.0056   8.0562548614e+01   4.4897220798e+01    0.1937627    0.1655591 -71.18 0.0003026951    1.037    0.035
        34 -11.0836    246.3649    127.6208   2.5418877987e+01   6.5081541837e+00    0.2414574    0.2054227 -28.46 0.0005659229    1.182    0.154
        35 -10.2955     40.3365    128.1569   7.5307139963e+01   4.5510569892e+01     0.268432    0.1881953  28.76 0.0006230624    1.615    0.381
        36 -11.1952     74.9902    126.4579   6.4238482799e+01   4.1368986735e+01     0.277897    0.2105685 -60.17  0.001394439    1.242    0.195
        37 -10.5816     74.6996    122.0275   6.3367568931e+01   4.2510160144e+01    0.2652198    0.2176701 -44.78 0.0003857896    1.208    0.172
        38 -10.7859     44.6890    125.1347   7.3423446046e+01   4.5780601531e+01    0.4228401     0.229032  79.60  0.001597243    3.143    0.682
        39  -9.4877      7.7362    126.6113   8.5020526385e+01   4.8755180533e+01    0.1434771    0.1152741  45.60 0.0003314428    1.417    0.294
        40 -10.9732     83.1122    120.1682   6.0344991704e+01   4.1609635675e+01    0.4799494    0.2499017 -57.74 0.0009198262    1.881    0.468
        41 -11.5804     26.7636    117.4483   7.7809719245e+01   4.9501912276e+01    0.3820226     0.203604 -46.12  0.000416533    1.809    0.447
        42  -9.9993    249.5085    117.4926   2.2885794242e+01   7.6935026877e+00    0.1329498    0.1129605 -43.08 -2.953715e-05    1.053    0.050
        43 -11.1965     69.3468    115.6345   6.3631521046e+01   4.4891173255e+01     0.328928    0.2832677 -79.84  0.001785598    1.212    0.175
        44 -10.8193     16.2557    116.6183   8.1049217985e+01   5.0569503490e+01     0.248846    0.1425519 -81.11  0.001261856    1.707    0.414
        45  -9.5683     79.3398    120.3313   6.1546967276e+01   4.2190189848e+01    0.2450259    0.1491821  24.20  0.001039983    2.030    0.507
        46 -12.0431      2.7880    111.8253   8.4668916850e+01   5.2620664193e+01    0.2264018    0.2082265  73.31 0.0002738981    1.223    0.182
        47 -11.0621     26.4180    110.6928   7.6777795837e+01   5.1175387873e+01    0.4195653    0.1991269 -69.37  0.001914948    1.928    0.481
        48 -12.8964      2.0952    104.7062   8.3924376517e+01   5.4341374491e+01    0.3999202    0.2165561 -42.21  0.001253161    1.793    0.442
        49 -10.2590      4.2379     97.3838   8.2113858147e+01   5.5929890320e+01    0.2852598    0.2034948  17.31  0.001030044    1.692    0.409
        50  -9.7909     40.6765    106.0478   7.1069911212e+01   5.0901383157e+01    0.1942638    0.1523096 -59.49 0.0003373928    1.130    0.115
        51 -10.1694    117.9961    105.4705   4.6336599822e+01   3.8413476126e+01    0.2405588    0.1523542  45.01  0.001031386    1.591    0.371
        52 -10.2504     88.4911    104.7311   5.4878474115e+01   4.4351572127e+01    0.3735076    0.2444973  57.72  0.001642899    1.875    0.467
        53 -10.4520     22.6984    102.9246   7.6655106421e+01   5.3352045079e+01    0.1915027    0.1484572 -62.91 0.0007139253    1.102    0.093
        54 -10.1133    103.7868    101.4916   4.9340961502e+01   4.2207997784e+01    0.2449461    0.2320253 -26.96 -0.0001943352    1.085    0.079
        55  -9.4011    246.5592    101.4998   1.9965605787e+01   1.0962816473e+01     0.133468    0.1122569 -50.48 0.0001210771    1.032    0.031
        56 -11.0991     20.4852     98.3536   7.6587243586e+01   5.4607954536e+01    0.3327283    0.2353457  -2.43  0.001920424    1.716    0.417
        57 -10.8009     19.4763     94.4798   7.6215162277e+01   5.5589861139e+01    0.2542617     0.177936 -43.03  0.001006853    1.298    0.230
        58 -10.2256    107.6731     96.5734   4.6840257325e+01   4.2507701220e+01    0.3752684    0.1793361 -46.68  0.001439624    2.076    0.518
        59  -9.9030     37.2109     97.3184   7.0430300683e+01   5.3335096288e+01    0.2542104    0.1695873  86.52  0.001235029    2.100    0.524
        60 -10.7281     63.9182     96.7994   6.0910236571e+01   5.0152289319e+01    0.2797547    0.1924769 -88.01  0.001252706    2.219    0.549
        61 -10.0115    146.6480     96.3124   3.6481454278e+01   3.3968211905e+01    0.1624938     0.120932 -85.96 0.0007045463    1.726    0.421
        62 -10.7353    119.3796     93.9220   4.2774656701e+01   4.0609949001e+01    0.3037843    0.2640029  71.01 0.0005704766    1.240    0.193
        63 -11.0128     93.5826     92.7824   5.0032931802e+01   4.6097542511e+01    0.4078331    0.2909417  14.65  0.001109875    1.844    0.458
        64 -11.0661    146.2081     91.3403   3.5227167664e+01   3.5065569993e+01    0.3300139    0.2294466  80.86 0.0008934382    1.912    0.477
        65 -10.8437     66.6616     91.7226   5.8632364680e+01   5.0900471641e+01    0.2322225    0.2177679 -48.60 0.0002852723    1.054    0.051
        66 -11.2953     58.3132     91.8488   6.1591155640e+01   5.2068869678e+01    0.3842721    0.2180764  20.43  0.001388981    2.164    0.538
        67  -9.8891      7.5155     91.2845   7.9948920323e+01   5.7144636185e+01    0.1863628    0.1171224 -35.14 0.0004037145    1.585    0.369
        68  -9.1849     47.3118     89.3523   6.4911732892e+01   5.4044846918e+01    0.1459551   0.09339923 -29.74 0.0002437585    1.725    0.420
        69  -9.8829    164.5192     87.5073   3.0160199054e+01   3.1475902385e+01    0.1535938    0.1414776 -81.63   0.00080992    1.045    0.043
        70  -9.4742    160.0011     88.0000   3.1237917962e+01   3.2457366388e+01    0.2539754   0.08534174  53.44 0.0008045858    2.957    0.662
        71  -9.8827     30.8472     87.5038   7.0567280912e+01   5.6222131484e+01     0.158001    0.1284524  19.05 0.0002912375    1.377    0.274
        72 -10.0933    173.0074     85.6746   2.7980289183e+01   2.9796748755e+01    0.2069832    0.1864514  74.43 0.0003574599    1.084    0.078
        73 -10.7628     91.9781     85.1336   4.8325926312e+01   4.8028363196e+01    0.2225251     0.201749 -42.00 0.0003140574    1.089    0.082
        74 -10.5408     81.1675     85.4218   5.1924188263e+01   4.9928615852e+01    0.3090239    0.2737008  25.71  0.001673782    1.155    0.134
        75  -9.2312      7.3125     84.3047   7.8765421157e+01   5.8740087656e+01    0.1299093    0.0728125 -40.61 0.0004793423    1.616    0.381
        76  -9.8903    136.1762     82.8887   3.5251429287e+01   3.9048201124e+01     0.232131    0.2046894 -78.29 0.0005620049    1.208    0.172
        77 -11.0548     65.3790     82.1545   5.6421389596e+01   5.3187877759e+01    0.2244195    0.2131528  34.39  0.000495255    1.142    0.125
        78 -10.5646    181.7554     79.8848   2.4854971807e+01   2.8760158020e+01    0.2750534     0.208412  72.48 0.0006233018    1.338    0.253
        79 -10.0099    149.5231     80.0225   3.1322820288e+01   3.6445747258e+01    0.2182722    0.1221024 -61.73 0.0008092395    2.463    0.594
        80  -9.8958     48.1128     78.5930   6.1773611123e+01   5.6319240143e+01    0.2181416    0.1597432 -32.53 0.0005990656    1.310    0.237
        81  -9.9919     24.7298     76.3916   7.0308086958e+01   5.9238880752e+01    0.3623518    0.1381198 -35.76  0.001363285    3.051    0.672
        82 -10.2583    176.4881     76.9770   2.5053752451e+01   3.0525733997e+01     0.305892    0.2194096  60.88  0.001503923    1.374    0.272
        83 -11.8243     11.8250     74.9140   7.5112321791e+01   6.0536236468e+01    0.3427785    0.3178684 -55.95  0.001560574    1.156    0.135
        84 -10.6032     18.7389     81.0457   7.3735023437e+01   5.8698861407e+01    0.1819303    0.1621877 -29.67 0.0002983114    1.122    0.108
        85 -10.3490    156.3950     74.6005   2.8329114728e+01   3.5777629084e+01     0.307328    0.1113632 -50.63 0.0009535839    3.428    0.708
        86 -11.4816      5.0133     73.1784   7.7471281703e+01   6.1326590735e+01    0.2061894    0.1802431 -46.85 0.0002387296    1.089    0.082
        87  -9.7791    175.8319     71.1819   2.3654160440e+01   3.1678993147e+01    0.2231292    0.1825341 -78.02 0.0004020803    1.226    0.185
        88 -10.2923     37.3060     69.1972   6.3356954624e+01   5.9551631343e+01    0.2390099    0.1917779  81.24            0    1.840    0.456
        89  -9.4229     51.2317     68.3863   5.7591651524e+01   5.8045050469e+01    0.2592979   0.09683677 -47.21  0.001045989    2.422    0.587
        90 -10.5173     17.7336     62.8205   6.9742784126e+01   6.2676965084e+01    0.5913488    0.2546545 -28.61  0.001338347    2.815    0.645
        91 -11.0181     13.5021     66.4640   7.2467824856e+01   6.2229670564e+01    0.3230279    0.1643766 -49.02  0.001751788    1.562    0.360
        92 -11.0148      9.9764     66.2295   7.3892614000e+01   6.2513630198e+01    0.2276336    0.1973442 -11.65 0.0005798809    1.214    0.176
        93 -11.5915      7.6196     63.2304   7.4177116959e+01   6.3287002243e+01    0.3073331    0.1685751 -53.13 0.0007819604    1.443    0.307
        94 -10.8136    144.8224     63.6040   2.7641481088e+01   4.0443417611e+01    0.3023207    0.1997625 -30.47 0.0008215111    1.714    0.417
        95  -9.9563    145.5186     58.4532   2.5979548855e+01   4.1108843585e+01    0.2288322    0.1464892 -22.19 0.0005871163    2.034    0.508
        96  -9.3135    187.0884     61.8664   1.9361063566e+01   3.0501478223e+01    0.1790864    0.1646315  41.21            0    1.316    0.240
        97 -10.4217     97.4494     60.7261   3.8927555796e+01   5.1614676288e+01    0.3367237    0.2150191  59.82  0.001466808    1.870    0.465
        98  -9.1514    169.3158     60.3268   2.1918069629e+01   3.5031701566e+01    0.1420532    0.1128394  27.47 0.0002721184    1.673    0.402
        99 -10.3205     42.2790     58.8450   5.8172579919e+01   6.1052137967e+01    0.3305644    0.1764119 -32.93  0.001086135    1.897    0.473
       100 -10.0384     37.9788     59.2323   6.0084353751e+01   6.1478782235e+01    0.2251309    0.1440698 -27.07 0.0004856466    1.551    0.355
       101  -9.0073    174.3132     59.6597   2.0872530979e+01   3.3923484901e+01    0.1532781    0.1030122 -71.90 0.0007046803    1.699    0.411
       102 -11.2700     58.3081     58.9697   5.1808966803e+01   5.8877122466e+01    0.2225301    0.1809766  24.00 0.0003465977    1.224    0.183
       103  -8.8909    121.2495     57.6881   3.1336786299e+01   4.6950907808e+01    0.1374878    0.1101755 -72.83 0.0006898651    1.515    0.340
       104 -10.6360      2.2304     57.5536   7.5153341723e+01   6.4760480833e+01    0.2000555    0.1059855  19.93  0.001149776    2.137    0.532
       105 -10.5257     85.4034     54.2410   4.0503017070e+01   5.5096181486e+01    0.3674548    0.3387688  17.99  0.001403881    1.014    0.014
       106 -10.0873     14.7532     54.7427   6.8830618477e+01   6.4529772337e+01     0.142026     0.139835 -87.26 0.0006846033    1.332    0.249
       107 -10.2394    127.1738     53.5651   2.8580675506e+01   4.6232793611e+01      0.32149    0.2264235  33.08  0.001295271    1.620    0.383
       108  -9.2279    214.2819     52.9865   1.3452364954e+01   2.5532540805e+01     0.158113    0.1089041 -45.62 0.0003890073    1.361    0.265
       109 -10.3072    137.7757     50.8926   2.5357091907e+01   4.4130844883e+01    0.3287441    0.2349363   3.19  0.001002081    2.105    0.525
       110 -11.8729     61.9235     50.0115   4.7288347315e+01   5.9916724497e+01    0.2854495    0.1853979 -33.89 0.0003748974    1.499    0.333
       111  -9.0516    148.6958     52.2833   2.3517562561e+01   4.1290677761e+01    0.1434138    0.1064587 -78.72 0.0002592116    1.557    0.358
       112  -9.9142    143.1068     51.8359   2.4517833132e+01   4.2709571603e+01    0.2164786    0.1851023 -82.39 0.0004625085    1.223    0.182
       113 -10.0106     92.9696     50.0161   3.6631539959e+01   5.4289702990e+01    0.2021095    0.1848549  25.80  0.001206654    1.017    0.016
       114  -9.7012     78.2440     49.9829   4.1384106909e+01   5.7135885515e+01     0.183135    0.1666969  14.44 0.0005250262    1.016    0.016
       115  -9.1402    102.2620     47.9594   3.3180594830e+01   5.2672442328e+01    0.1602773    0.1198612 -34.71 0.0002122562    1.413    0.292
       116 -10.1126     51.4209     48.2691   5.0787487195e+01   6.1787015797e+01     0.225946    0.1591268  27.07 0.0005880586    1.402    0.287
       117 -10.1356     16.9915     45.9257   6.5142696449e+01   6.6049556788e+01    0.2059599    0.1420975 -40.69 0.0005964282    1.205    0.170
       118  -9.6107    120.4921     44.0186   2.7099955810e+01   4.9190921316e+01    0.1894696    0.1386211 -34.34 0.0003333575    1.474    0.322
       119 -10.8906     70.7612     41.4250   4.0835786519e+01   5.9822254961e+01    0.3549508    0.3314484  88.72   0.00225091    1.456    0.313
       120 -10.8753     67.1027     35.9339   4.0035833688e+01   6.1272383277e+01    0.2573758    0.2367666 -48.97 0.0003667431    1.380    0.276
       121 -10.3007     85.7555     42.9481   3.6349417088e+01   5.6804211699e+01    0.2096918    0.1749571  34.74 0.0002334916    1.109    0.098
       122  -9.3631     52.9611     42.7635   4.8123399583e+01   6.2488675931e+01    0.1643574    0.1426864  -1.74 0.0003823311    1.013    0.013
       123 -10.5692    109.5379     40.9518   2.8796346409e+01   5.2098301082e+01    0.4370386    0.2525908  81.02  0.001626472    3.473    0.712
       124 -11.3772     91.2140     39.8651   3.3531467547e+01   5.6158832565e+01    0.3819441     0.313206 -64.78 0.0004780102    1.621    0.383
       125 -11.1529     38.9386     41.9378   5.3730124285e+01   6.4518857517e+01    0.1898489    0.1612926  10.66   0.00126606    1.150    0.130
       126  -9.5460     28.4653     42.4953   5.8643740930e+01   6.5610031461e+01    0.1236143   0.09832855 -19.64 0.0003495918    1.054    0.051
       127 -10.5239    184.0932     41.2979   1.4571123950e+01   3.4250932535e+01    0.2382406    0.1577512  78.22 0.0006736657    1.435    0.303
       128 -10.4275    116.5461     40.5163   2.6890778114e+01   5.0580408551e+01    0.3210778    0.2312021 -62.14 0.0009397966    1.771    0.435
       129 -10.4274     62.0964     41.0583   4.3888005283e+01   6.1345529570e+01    0.1865971    0.1606276   2.64  0.001179338    1.035    0.034
       130  -9.6138     81.0015     38.7222   3.6312639637e+01   5.8338766421e+01    0.1819913    0.1546139  35.41 0.0003327647    1.099    0.090
       131  -9.0827    130.4426     38.4960   2.3065051418e+01   4.7617857922e+01    0.1375017    0.1259422  63.95 5.951489e-05    1.011    0.011
       132 -11.1630    122.0478     37.5479   2.4609532557e+01   4.9711224264e+01    0.2460164     0.198539 -31.07 0.0003299316    1.361    0.265
       133 -10.3316     22.8699     34.5597   5.8373981363e+01   6.7540015824e+01    0.1864616    0.1363129 -33.33 0.0001534878    1.183    0.154
       134  -9.7196      6.0875     34.6729   6.6770888505e+01   6.8907090965e+01     0.157086    0.1228896 -19.46 0.0006126713    1.089    0.081
       135 -10.8618     46.9778     33.4711   4.6964723999e+01   6.4812006940e+01    0.2825972    0.2000726  46.54 0.0007849552    1.767    0.434
       136  -9.3333      2.4441     34.4904   6.8569610679e+01   6.9172782019e+01    0.1146512   0.08603327 -31.29 3.769942e-05    1.024    0.024
       137  -9.2710     18.2887     32.3264   5.9779170701e+01   6.8347911967e+01    0.1218908   0.07172054 -21.97 0.0007012702    1.613    0.380
       138  -9.6152    217.3026     31.0425   8.1864057396e+00   2.7888814618e+01    0.1767969    0.1393681 -69.81 0.0004011574    1.057    0.054
       139  -9.4571    111.2745     31.3707   2.5056175773e+01   5.2959290181e+01    0.1375223    0.0967471  23.30 0.0007004045    1.681    0.405
       140  -9.6299    101.7245     30.9833   2.7333860264e+01   5.5119390746e+01    0.1723311    0.1666281  22.61 0.0004239208    1.092    0.084
       141  -9.8015     97.2211     29.7709   2.8101944565e+01   5.6236998848e+01    0.1839778    0.1373916  31.12 0.0004649331    1.315    0.240
       142 -10.5217     11.1088     29.8448   6.2487025712e+01   6.9375898841e+01    0.2012303    0.1571268  29.80  0.001151703    1.592    0.372
       143 -10.1353    117.4902     28.4421   2.2603515110e+01   5.1896922022e+01    0.2247746    0.2086892  56.46 0.0005808815    1.042    0.040
       144  -9.6352     39.6179     29.5108   4.8540973665e+01   6.6414416987e+01    0.1616691    0.1016013  16.30            0    1.598    0.374
       145  -9.5187    201.5483     28.5287   9.2743130712e+00   3.1794824656e+01    0.1306547    0.1099222 -82.87 0.0001670067    1.031    0.030
       146 -10.3512     80.9161     27.2838   3.1937691526e+01   5.9877332679e+01    0.2059257    0.1753744 -35.87  0.000829509    1.342    0.255
       147 -11.2040     91.1985     26.2674   2.8472116753e+01   5.7925962348e+01    0.2986234    0.2066154 -27.21  0.001354494    1.567    0.362
       148 -10.7719     19.2381    247.8765   9.2250358264e+01   1.9814781573e+01    0.1799356    0.1529788  -8.67  0.001101652    2.166    0.538
       149  -9.9311    147.2644    243.7249   6.6161295370e+01   2.4580714260e+00      0.20427    0.1679757 -55.34  0.001266613    1.438    0.305
       150  -9.7428     34.7359     26.6627   4.9567356420e+01   6.7464254383e+01    0.1202602    0.1003824  -6.32 0.0002557027    1.058    0.055
       151 -10.2005     33.4433     23.5781   4.8850395804e+01   6.8075033919e+01    0.2077251    0.1616859   5.03  2.38017e-05    1.097    0.088
       152 -11.2765    216.9942     25.6971   7.0434616471e+00   2.8634838341e+01    0.2138444    0.1707741 -68.23 0.0002402442    1.067    0.063
       153 -10.3846    213.0232     23.9236   7.0366013539e+00   2.9743116220e+01    0.1881316    0.1501386 -76.84  0.000289067    1.015    0.015
       154 -10.4399    182.9468     25.4628   1.0707896395e+01   3.6553540786e+01    0.2027293    0.1853039 -51.27   0.00129668    1.233    0.189
       155 -10.3621    125.6338     24.6376   1.9600004944e+01   5.0441204410e+01    0.4223768    0.1800316  64.55  0.001076444    2.224    0.550
       156  -9.7759     53.1192     23.8238   4.0404823607e+01   6.5250669173e+01    0.1722694    0.1592139  16.16 0.0006434068    1.234    0.190
       157  -9.8502    130.2654     23.0144   1.8162252287e+01   4.9529433585e+01    0.1751722    0.1695488 -56.21 0.0005113101    1.154    0.134
       158  -9.9651     44.9855     23.2275   4.3518561168e+01   6.6563677777e+01    0.2061845    0.1196004  12.46 0.0007470049    2.034    0.508
       159 -10.4149    113.2031     21.2016   2.1084342471e+01   5.3691163493e+01    0.3183179    0.2320277 -42.15  0.001460552    1.564    0.361
       160 -10.3694    101.3899     21.2589   2.3889031089e+01   5.6320202070e+01    0.3207382    0.2106091 -49.06  0.001007879    1.916    0.478
       161 -10.6554     63.4585     21.6193   3.5519835138e+01   6.3805608308e+01    0.2413965    0.1786393  16.08 0.0005806215    1.277    0.217
       162  -9.6529      2.3436     21.6720   6.4070821136e+01   7.1374552212e+01    0.2391839     0.110035 -25.72  0.000883933    2.077    0.519
       163  -9.7414     77.9739     20.9834   3.0352556631e+01   6.1197565923e+01    0.1702576     0.152253 -74.36  0.000393396    1.546    0.353
       164 -11.4322      6.5142    242.9974   9.4299411712e+01   2.2135427779e+01    0.2205228    0.1366142 -82.50  0.001271364    1.452    0.311
       165 -10.4711      3.4050    242.7740   9.4845322480e+01   2.2494203876e+01    0.1455164    0.1241641 -64.22 0.0003455005    1.637    0.389
       166 -10.0221    122.9754     18.0120   1.7955912779e+01   5.1773188063e+01    0.1537331    0.1387872  59.32 0.0009728924    1.038    0.037
       167  -9.1161    118.2671     18.6337   1.9117132888e+01   5.2801139051e+01    0.1281301   0.09555604 -66.88 0.0003726109    1.655    0.396
       168  -9.0094    229.7154     17.7298   4.2311135567e+00   2.6826107433e+01    0.1039019   0.08973818  61.06 0.0001901597    1.499    0.333
       169  -8.8363    167.0000     12.9637   9.4710103193e+00   4.1768974919e+01    0.1832722   0.07382686 -28.75 0.0007866471    2.834    0.647
       170  -9.5107     37.2814    241.0243   8.8430452786e+01   1.9108886489e+01    0.2427173   0.07275299  58.91 0.0009162186    3.593    0.722
       171 -10.3555      1.7074    237.7220   9.4913249231e+01   2.3676389761e+01    0.2456937   0.09077819  75.66  0.001181738    2.570    0.611
       172 -10.7503     18.0717    235.1309   9.1741112403e+01   2.2520273001e+01    0.1619223    0.1393185  74.68 0.0005066743    1.237    0.192
       173  -9.2638     57.4371    229.4602   8.3442579990e+01   1.8964589355e+01    0.1280771    0.1034051  68.27 0.0003015813    1.008    0.008
       174 -11.0158      7.5450    229.3972   9.3414188924e+01   2.4808982495e+01    0.2609081    0.1147497 -86.33  0.001054156    1.985    0.496
       175  -9.4962    139.3082    227.3050   6.5505147597e+01   6.7806270560e+00    0.1309422    0.1038215   1.09 0.0004416755    1.608    0.378
       176 -10.6443      1.7887    219.8645   9.4004775813e+01   2.7383809907e+01    0.2726214    0.1226509  87.91  0.001460147    1.907    0.476
       177  -9.5912    249.4271    216.2519   4.2036768715e+01  -8.5282133132e+00    0.1598355    0.1030915 -41.49 0.0006382411    1.650    0.394
       178  -9.5984    133.5871     10.4929   1.3610744729e+01   5.0012561418e+01    0.2848347    0.1131503  67.40  0.001219222    2.211    0.548
       179  -9.5730    244.4477    215.0879   4.2678986085e+01  -7.6915962785e+00    0.1794638    0.1046476 -34.00 0.0005360173    1.559    0.359
       180  -8.9157      8.3197    201.7422   9.1613520974e+01   3.0756172092e+01    0.1245966   0.06962743  63.82 0.0006936385    1.543    0.352
       181  -9.6359    237.4771    186.5543   3.8640316174e+01  -2.1903588812e+00    0.2342319    0.1077666 -30.23  0.001024344    2.265    0.558
       182  -9.0175    229.3433    165.6779   3.5955465312e+01   2.7391314950e+00    0.1316641    0.1063876 -74.47 0.0007050295    1.729    0.422
       183 -10.0072     17.0110    165.4671   8.6701991973e+01   3.8510504731e+01    0.1620526    0.1037774 -24.57  0.000809034    2.528    0.604
       184  -9.0010      1.2892    164.3348   9.0491787360e+01   4.0084973686e+01    0.1226417     0.078223 -55.02 0.0004140605    1.632    0.387
       185  -9.8352    240.3874    163.2373   3.3596942564e+01   1.3147915774e+00    0.1891982     0.111035 -46.34 0.0006561092    1.629    0.386
       186  -9.1208     43.7019    154.3173   7.8329564145e+01   3.8542530591e+01    0.1431026   0.09513944  72.21 0.0007018335    1.613    0.380
       187 -10.3152      7.2118    153.9916   8.8104873886e+01   4.2125935796e+01    0.2011547    0.1425351  81.88  0.001212946    1.253    0.202
       188  -8.8717    232.3029    152.6917   3.2803344648e+01   4.5563260018e+00    0.1314588    0.1036089 -68.30 0.0002881476    1.604    0.376
       189 -10.4031     11.9717    152.5436   8.6717932654e+01   4.2102622833e+01    0.1640002    0.1259681  30.91  0.000356518    1.539    0.350
       190 -10.1008     12.6540    149.2980   8.6200357569e+01   4.2842632657e+01    0.1336251    0.0821389  66.83 0.0006451075    1.676    0.404
       191 -11.7569      3.4009    145.9117   8.8335501464e+01   4.4367341051e+01    0.4551145    0.2377453  89.62  0.001396552    1.776    0.437
       192 -10.4733     23.6271    147.6314   8.3017949210e+01   4.2307214779e+01    0.2015752    0.1352504 -46.42  0.001095933    1.616    0.381
       193  -9.1670     80.4875    140.4368   6.5467096588e+01   3.7001615942e+01    0.1480831    0.1401182 -65.54 0.0001901311    1.054    0.051
       194 -10.4283     15.9993    138.5082   8.4057206403e+01   4.5226989345e+01    0.3051904    0.1723136 -58.17  0.001431586    1.545    0.353
       195  -9.7786      3.0952    138.9852   8.7731238038e+01   4.6066930688e+01    0.1986215     0.121896 -48.00 0.0009188917    1.688    0.407
