#   1 NUMBER                 Running object number                                     
#   2 MAG_AUTO               Kron-like elliptical aperture magnitude                    [mag]
#   3 X_IMAGE                Object position along x                                    [pixel]
#   4 Y_IMAGE                Object position along y                                    [pixel]
#   5 X_WORLD                Barycenter position along world x axis                     [deg]
#   6 Y_WORLD                Barycenter position along world y axis                     [deg]
#   7 A_WORLD                Profile RMS along major axis (world units)                 [deg]
#   8 B_WORLD                Profile RMS along minor axis (world units)                 [deg]
#   9 THETA_WORLD            Position angle (CCW/world-x)                               [deg]
#  10 FWHM_WORLD             FWHM assuming a gaussian core                              [deg]
#  11 ELONGATION             A_IMAGE/B_IMAGE                                           
#  12 ELLIPTICITY            1 - B_IMAGE/A_IMAGE                                       
         1 -15.6318    108.9929    163.2475   1.2332229071e+02   2.7172760056e+01     4.042128     1.936588 -34.59   0.01292746    4.722    0.788
         2 -16.4287    131.4153    183.7853   1.2174468534e+02   1.8969256491e+01      3.12625      2.10645  84.46   0.01500458    2.104    0.525
         3 -16.4284    242.5410     99.8973   8.1647136834e+01   1.1119631346e+01      6.01206     1.846768 -33.89   0.02083629    2.920    0.658
         4 -14.4627    248.6965     55.4503   7.0139107101e+01   1.6329317961e+01     2.173629    0.4222911 -32.96  0.006611174    4.134    0.758
         5 -10.6495    162.3416     12.0347   6.9199559589e+01   4.3005653084e+01    0.1800804    0.1756239 -22.94 0.0003613907    1.115    0.103
         6  -9.7885    123.2834      7.2724   7.4227684191e+01   5.3190167682e+01    0.1375399   0.09041407  34.26 0.0001949912    1.501    0.334
         7 -10.9564     91.4672    117.1657   1.1878493170e+02   4.0535971469e+01    0.2298461    0.1971766  45.17 0.0002571611    1.233    0.189
         8 -13.4168    247.8088    242.5644   1.0950239418e+02  -9.3286857158e+00    0.3966329    0.2639939  -4.57  0.002741715    1.434    0.303
         9 -11.2588     92.6939    210.5879   1.3339746858e+02   2.0133982305e+01    0.2956138   0.09337052 -56.17  0.001233354    3.409    0.707
        10 -11.1304    165.2767    209.0341   1.1887608567e+02   8.3619988458e+00    0.3630929    0.1808147 -37.17  0.001694014    2.552    0.608
        11 -12.8914     66.7116    208.3100   1.3822232943e+02   2.4236907631e+01    0.3153822    0.1824867 -60.51  0.001849193    1.885    0.469
        12 -13.8776     53.2673    205.1033   1.4051904254e+02   2.6585480059e+01    0.6818217    0.2512744 -76.46  0.003146115    2.877    0.652
        13 -15.3620     60.6509    194.5902   1.3808778526e+02   2.7762564418e+01      1.23067    0.7202865 -78.90  0.007121105    1.625    0.385
        14 -12.3715     79.6841    197.0723   1.3448272984e+02   2.4673848264e+01    0.3105921    0.1497446 -62.83  0.001245423    2.095    0.523
        15 -12.1236     80.7811    202.1316   1.3482321962e+02   2.3509316829e+01    0.2243389    0.1615592 -78.52 0.0006679003    1.363    0.267
        16 -10.7787      2.3295    206.6531   1.4992393391e+02   3.1675648425e+01    0.1161941    0.0528359  66.81 0.0007049777    1.758    0.431
        17 -12.9667     74.6457    199.9021   1.3581396539e+02   2.4816239158e+01    0.2984441    0.2408863  62.15  0.001470267    1.080    0.074
        18 -14.9028     22.0433    192.1873   1.4549303252e+02   3.2654318954e+01     1.114423    0.4201911 -84.26  0.005539229    2.500    0.600
        19 -12.0769     61.0137    182.9290   1.3679806003e+02   3.0139450023e+01    0.4652437    0.1820708 -69.48  0.001465124    2.457    0.593
        20 -12.9526    139.3041    217.9435   1.2521498017e+02   1.1363452015e+01    0.4224419    0.3008915  67.55  0.002172249    1.566    0.362
        21 -11.7111     86.6307    195.1013   1.3282625994e+02   2.4060714310e+01    0.2301925    0.1446262 -51.11 0.0009305566    1.906    0.475
        22 -12.5641     13.4904    216.0540   1.4849022936e+02   2.8864006942e+01    0.3227856    0.1637939 -83.45   0.00169625    1.656    0.396
        23 -13.1789     33.7104    188.6456   1.4295251470e+02   3.2169347790e+01    0.2816418    0.1598788  80.40  0.001585596    1.582    0.368
        24 -11.2405    152.8395    186.5865   1.1769237336e+02   1.4515243862e+01    0.2119247    0.1896283 -28.35 0.0007163282    1.278    0.217
        25 -15.6466    127.5431    206.1583   1.2591156050e+02   1.5406788837e+01     1.723252     1.164242 -50.31  0.008684518    1.715    0.417
        26 -13.2506      4.6440    178.7217   1.4795819869e+02   3.6997197525e+01     0.526494    0.1748585 -87.95  0.002451039    2.851    0.649
        27 -12.9715    156.1519    178.7689   1.1561964551e+02   1.5346305575e+01    0.6731339    0.2616265 -55.22  0.002374215    3.529    0.717
        28 -10.8789     89.0563    182.6998   1.3074691543e+02   2.6246704523e+01    0.1789774    0.1561494  65.05 0.0005118593    1.068    0.064
        29 -14.9574    109.5128    192.2863   1.2768421022e+02   2.1051364622e+01     1.447205    0.8649649 -81.27  0.006993227    2.215    0.549
        30 -16.4844    121.1490    195.4145   1.2569591118e+02   1.8498643203e+01     2.278858     1.862804 -32.67   0.01348973    1.620    0.383
        31 -12.0233     86.7539    174.3785   1.3012087451e+02   2.8362615132e+01    0.2517742    0.1868632  28.82  0.001155065    1.658    0.397
        32 -11.5372     90.4981    172.0566   1.2894936121e+02   2.8289947038e+01    0.2415111    0.1575226 -51.70  0.000455496    1.673    0.402
        33 -12.6930    144.3253    170.3193   1.1660971496e+02   1.9239138668e+01    0.2708086    0.2411573  79.94 0.0008024971    1.190    0.160
        34 -13.3658     12.3377    185.8629   1.4692614294e+02   3.4863017298e+01    0.4042931     0.157124 -74.94  0.002200059    2.111    0.526
        35 -12.1022     80.0406    186.0030   1.3310730144e+02   2.6890770221e+01    0.3324545    0.2372431 -69.52  0.001273835    1.377    0.274
        36 -11.6910     82.7907    182.1825   1.3203737793e+02   2.7291511094e+01     0.204245    0.1920278   0.55 0.0008363136    1.477    0.323
        37 -13.6571     74.9692    180.2956   1.3349635850e+02   2.8816378254e+01    0.5946222    0.2541569 -62.52  0.002384395    2.252    0.556
        38 -11.8941    145.5600    164.6989   1.1528051899e+02   2.0123327401e+01    0.2528892    0.1705379  63.00 0.0007830595    1.725    0.420
        39 -10.7395     76.0461    165.3068   1.3128786633e+02   3.1917913955e+01    0.1803494    0.1547959  67.21 0.0004271216    1.086    0.080
        40 -10.7757    150.4742    225.0087   1.2404548806e+02   8.3398931961e+00    0.1600788     0.124685 -57.05 0.0003782191    1.559    0.359
        41 -13.8377     87.5318    206.0020   1.3390406649e+02   2.1774978105e+01    0.8637984    0.5975914 -12.10  0.003844408    4.066    0.754
        42 -12.7809    147.5348    157.8778   1.1350322085e+02   2.1112069986e+01    0.5290185    0.2427092 -59.30  0.001875971    3.091    0.676
        43 -12.0293    144.1944    152.9714   1.1326077935e+02   2.2781925276e+01     0.248687    0.2023931  43.99 0.0003548851    1.190    0.160
        44 -12.9363    131.6530    157.4148   1.1701614942e+02   2.4303913074e+01    0.4170077    0.3003902  80.91  0.001407394    1.810    0.447
        45 -10.7533    159.4764    152.4788   1.0974090951e+02   1.9778152184e+01    0.1456853    0.1402657  44.10 -1.297838e-05    1.002    0.002
        46 -12.8966     83.3291    213.8567   1.3556742718e+02   2.0884383903e+01    0.5033857    0.1977388  53.96  0.002329613    2.383    0.580
        47 -11.9782    149.0711    220.4277   1.2368183867e+02   9.3088896026e+00     0.193701    0.1597841  69.56 0.0007299958    1.321    0.243
        48 -11.2358    139.4929    151.4674   1.1402823486e+02   2.4029530654e+01    0.1453486    0.1387739  64.61 2.550011e-05    1.008    0.008
        49 -11.2196    130.0703    150.9729   1.1611820936e+02   2.5973898319e+01     0.212109    0.2080417  88.01 0.0003630997    1.051    0.049
        50 -12.7070    106.8044    228.0014   1.3261958109e+02   1.4857624683e+01     0.326452    0.2463629 -64.63  0.002175462    1.524    0.344
        51 -14.7800    104.4100    207.9307   1.3077089156e+02   1.8844197182e+01     1.017005    0.6997507  60.55  0.006046274    1.311    0.237
        52 -10.7303     20.3261     95.6864   1.3552091860e+02   5.4103831500e+01    0.1206065   0.08332697  76.00 0.0003197112    1.666    0.400
        53 -12.8288     79.3102    211.1973   1.3607076637e+02   2.1958288009e+01     0.332713    0.1821692 -74.67  0.001846596    1.922    0.480
        54  -9.8551    195.7543     91.9861   8.7347769152e+01   2.3093696994e+01    0.1890672    0.1267917 -34.70 0.0002071566    1.457    0.314
        55 -10.8860     25.0184    147.0451   1.4099978193e+02   4.2027201998e+01    0.1840345    0.1436298 -88.11 0.0004038925    1.021    0.021
        56 -12.1787     73.6743     88.2224   1.1701227377e+02   4.9882760770e+01    0.2940812    0.2549046   2.87 0.0005473626    1.330    0.248
        57 -11.0341     18.7182     86.2527   1.3440497996e+02   5.6346328957e+01    0.1635681   0.09956869  -4.90  0.000897939    2.385    0.581
        58 -11.6331    110.8457    140.4881   1.1865518447e+02   3.1865150718e+01    0.2195775    0.1976187 -26.95 0.0004449809    1.305    0.234
        59 -13.4822    229.3835     57.2585   7.2903583399e+01   2.0489216092e+01    0.4443443    0.3705041 -11.50  0.002185854    1.373    0.272
        60 -11.2721     70.1283     49.6280   1.0619011183e+02   5.8275399023e+01    0.2187488    0.1658718 -42.92 0.0003046336    1.274    0.215
        61 -11.1545     55.5803     46.0000   1.1020854032e+02   6.1062953094e+01    0.2620866   0.07284797  35.87 0.0009389994    3.969    0.748
        62 -12.2012    100.6206    228.2895   1.3379886468e+02   1.5740016089e+01    0.2717396    0.1679602 -61.04  0.001462646    1.852    0.460
        63 -11.4325    250.6077     24.4021   6.2638177551e+01   1.9879244972e+01    0.2295397    0.1158004 -30.09 6.479757e-05    1.913    0.477
        64 -11.6488     39.9938    215.1800   1.4378338708e+02   2.6216744765e+01    0.2005874   0.08693857  61.04  0.001087432    2.041    0.510
        65 -12.1961     47.5982    211.2104   1.4209377590e+02   2.6084889901e+01    0.2055409    0.1293182 -81.53  0.001126048    1.449    0.310
