#   1 NUMBER                 Running object number                                     
#   2 MAG_AUTO               Kron-like elliptical aperture magnitude                    [mag]
#   3 X_IMAGE                Object position along x                                    [pixel]
#   4 Y_IMAGE                Object position along y                                    [pixel]
#   5 X_WORLD                Barycenter position along world x axis                     [deg]
#   6 Y_WORLD                Barycenter position along world y axis                     [deg]
#   7 A_WORLD                Profile RMS along major axis (world units)                 [deg]
#   8 B_WORLD                Profile RMS along minor axis (world units)                 [deg]
#   9 THETA_WORLD            Position angle (CCW/world-x)                               [deg]
#  10 FWHM_WORLD             FWHM assuming a gaussian core                              [deg]
#  11 ELONGATION             A_IMAGE/B_IMAGE                                           
#  12 ELLIPTICITY            1 - B_IMAGE/A_IMAGE                                       
         1  -9.7954     19.6585     18.7830   1.1151746719e+02   6.8447495633e+01    0.4179507    0.1321587 -40.41  0.002075473    2.590    0.614
         2  -8.3926    146.1342     14.3066   7.1605805336e+01   4.6718872517e+01    0.1941138    0.1710463  25.67 0.0003265638    1.227    0.185
         3  -8.6268     80.2617     12.6820   8.6264226615e+01   6.0912032469e+01    0.3058294    0.1836621 -48.52  0.001560227    2.713    0.631
         4  -9.8656     50.2558     11.7507   9.5972884111e+01   6.5834105622e+01    0.2607506    0.2237734 -38.62  0.001865993    1.676    0.403
         5  -7.8508     15.8261     10.8581   1.0999456337e+02   6.9882391689e+01    0.1283191    0.1050494 -12.30 0.0002698273    1.248    0.199
         6  -7.4023     72.3064      9.3133   8.7340782425e+01   6.2648270746e+01    0.1250736   0.07613556  18.50 0.0002608025    1.622    0.383
         7  -8.9644     28.4986      8.3599   1.0327049860e+02   6.8949530526e+01    0.2761361    0.1409962  16.31  0.001624774    2.033    0.508
         8  -8.2005     41.2909      7.7409   9.7689391335e+01   6.7494071011e+01    0.1581397     0.122365  21.41 0.0001816679    1.254    0.203
         9  -7.8524     38.4940      6.9787   9.8473413547e+01   6.7936251950e+01    0.1588983   0.09125239 -22.06 0.0006712713    1.543    0.352
        10  -7.5981    110.2791      7.3933   7.6447354577e+01   5.5472648012e+01    0.1346027   0.08077826  27.24 0.0004976062    1.747    0.428
        11  -9.9377     14.4187      3.0574   1.0723930590e+02   7.1010585177e+01    0.4157669    0.1822959 -23.54  0.002254378    2.125    0.529
        12  -8.1162     18.2993      2.6907   1.0526950385e+02   7.0688805230e+01    0.1545737    0.1055133 -13.02 0.0003068869    1.096    0.088
        13  -8.9841     77.0314      4.8825   8.4083519553e+01   6.2238000419e+01    0.2859133    0.2476329 -42.04  0.001980314    1.592    0.372
        14  -8.3385     56.3362      5.3377   9.0980735794e+01   6.5628546937e+01    0.1944337    0.1704359 -67.88  0.001300997    2.173    0.540
        15  -7.7485    179.3048      5.3110   6.4132454946e+01   3.9577423414e+01    0.1299186   0.08796817  44.43 0.0003582005    1.614    0.380
        16  -8.1760    159.6980      3.3141   6.6221726568e+01   4.4495881474e+01    0.1287867    0.0906895 -72.45 0.0007017388    1.614    0.380
        17  -8.2919    106.0096      3.1926   7.5906226013e+01   5.6729067860e+01    0.1948382    0.1413772 -85.58  0.001084969    2.091    0.522
        18 -10.0236     60.0860      2.8065   8.8580907250e+01   6.5290477366e+01    0.2041865    0.1660285  25.62 0.0002961528    1.165    0.141
        19  -8.5904     38.8843      1.8149   9.5981411687e+01   6.8446423552e+01     0.279272    0.1406355  39.14  0.001519808    2.003    0.501
        20  -7.6493    116.1816      1.4013   7.3086991771e+01   5.4696767175e+01    0.1692255    0.1094483  69.87 0.0009359203    1.601    0.375
        21  -7.4857     67.5765      1.5179   8.5573048477e+01   6.4181515662e+01    0.1157978   0.09285644  18.16 0.0001134258    1.032    0.031
        22  -9.0645    169.0169    241.6568   1.2126414271e+02  -1.3606316633e-01    0.2188734    0.1754798   5.64 0.0008791598    1.553    0.356
        23  -9.4370    249.3893    249.8049   1.0769643770e+02  -1.4272802662e+01    0.3488185    0.1906517  26.76  0.002038868    1.597    0.374
        24  -9.8087    248.6850    246.6460   1.0729088835e+02  -1.3789984054e+01    0.3652944    0.1855776  31.46  0.002050439    1.707    0.414
        25  -9.1234    230.6689    250.6777   1.1114903427e+02  -1.1630854689e+01    0.2354428   0.09619193  34.60  0.001137291    2.120    0.528
        26  -9.1822    226.7367    250.4007   1.1181123593e+02  -1.0995458407e+01    0.2810801    0.1176767  36.10  0.001253009    2.033    0.508
        27 -10.3110    216.8775    249.3062   1.1342645641e+02  -9.3125906227e+00    0.5276102    0.2395443  25.92  0.002368812    2.593    0.614
        28  -8.9968    202.5155    248.8695   1.1600779970e+02  -6.9321475575e+00    0.2907491    0.1902616  15.89  0.001131706    1.721    0.419
        29  -9.0865    206.2870    245.2034   1.1472703016e+02  -7.0360912351e+00    0.2676295    0.1706348 -23.38  0.001502873    1.889    0.471
        30  -8.4196    197.6631    250.1185   1.1710441962e+02  -6.3083604385e+00    0.1693759    0.1474982  13.90  0.001146426    1.131    0.116
        31  -9.6539    175.9785    250.0000   1.2115749544e+02  -2.6453670787e+00    0.4079722    0.1555805  40.27  0.001802385    2.190    0.543
        32 -10.2559    184.1574    249.1465   1.1948904976e+02  -3.9059623846e+00    0.6384886    0.3818069 -10.03  0.002823359    3.394    0.705
        33  -8.7410    180.6965    249.6403   1.2021466831e+02  -3.3931213757e+00    0.2382587    0.1830587   1.09  0.001440282    1.629    0.386
        34  -8.6304    187.9995    250.4994   1.1896883176e+02  -4.7528324453e+00    0.2809571    0.1305335  43.67   0.00109169    1.818    0.450
        35 -10.0724    156.8438    245.8948   1.2421259797e+02   1.2928823377e+00    0.3395003    0.2837503  -9.27  0.001418317    1.601    0.375
        36  -8.5126    153.0969    250.3635   1.2553567600e+02   1.2103242735e+00    0.2016769    0.1371003  33.75 0.0006926142    1.421    0.296
        37  -8.5505    148.8200    250.1684   1.2631831314e+02   1.9728882840e+00    0.1716923    0.1387326  27.07  0.001074795    1.364    0.267
        38  -8.6533    142.8680    250.3576   1.2746682507e+02   2.9556534972e+00    0.2496736    0.1360952  36.91 0.0009860751    1.725    0.420
        39  -8.6292    144.9840    247.0073   1.2662851878e+02   3.1533497088e+00    0.1698748    0.1411548  27.33  0.000519964    1.346    0.257
        40  -7.6362    133.4748    250.5763   1.2926169460e+02   4.5071973649e+00    0.1265951    0.1019084  52.07 7.772234e-05    1.021    0.021
        41  -7.6273     31.3315    250.6852   1.4727275684e+02   1.9454111868e+01    0.1192531   0.05807672  68.01 0.0007045785    1.682    0.405
        42  -9.0967    171.7373    238.0320   1.2019407709e+02  -2.4559153218e-02    0.2232162     0.182936  -8.81 0.0007205333    1.526    0.345
        43  -8.3575    146.9314    242.4789   1.2564668634e+02   3.5837625614e+00    0.1995645    0.1085362  43.59  0.000708016    1.539    0.350
        44  -7.5480    108.3343    241.3062   1.3289481308e+02   1.0322236835e+01    0.1130068   0.09940968  14.24 0.0004022706    1.668    0.400
        45  -8.4571    201.0462    240.1632   1.1490204393e+02  -5.4333726357e+00    0.2144932     0.127706  19.64  0.001066604    2.017    0.504
        46  -8.2733    154.0007    240.5226   1.2400656173e+02   2.6828507421e+00    0.2023104    0.1103326  41.49 0.0006502945    1.562    0.360
        47  -7.6038    126.6790    240.6912   1.2931671266e+02   7.3818695815e+00    0.1179776   0.09944377  14.67 0.0004643844    1.644    0.392
        48  -9.2548    249.1819    237.4715   1.0563750281e+02  -1.2714504721e+01    0.3206226    0.2011989   6.79  0.001859958    1.670    0.401
        49  -9.3586    244.1044    235.1331   1.0612849753e+02  -1.1655030683e+01    0.1881496     0.136794   7.78 0.0004624868    1.247    0.198
        50  -8.7230    234.4845    239.4790   1.0859995294e+02  -1.0761252958e+01    0.1234193   0.09943728  14.66  7.12357e-05    1.016    0.015
        51  -7.5078    214.5265    239.4604   1.1225684866e+02  -7.5776392708e+00    0.1277644    0.1030848  19.39 0.0001192016    1.074    0.068
        52  -8.4356     67.8306    239.3810   1.4019240890e+02   1.6859163401e+01    0.1545533    0.1049794  37.76 0.0006389762    1.716    0.417
        53  -7.7123    118.2467    238.6453   1.3068476222e+02   9.1770146446e+00    0.1792156    0.1073003  38.00 0.0007341495    1.655    0.396
        54  -7.8089     78.4811    238.0154   1.3812382783e+02   1.5586990982e+01    0.1410464   0.09926041 -44.54  0.000505749    2.231    0.552
        55  -8.0927     36.0137    239.0000   1.4571522492e+02   2.1093751719e+01    0.1616686   0.05521789  40.05 0.0003773253    2.798    0.643
        56 -10.1597     11.1015    237.6225   1.4971657269e+02   2.4161744000e+01    0.3085106    0.1238367  35.92  0.001701078    2.922    0.658
        57 -10.1163    188.8714    234.5291   1.1632110265e+02  -2.4769592748e+00    0.3678434    0.2748959  61.19   0.00132018    1.628    0.386
        58  -9.3196    189.0055    230.0315   1.1556211457e+02  -1.7830472133e+00    0.2393304    0.2202863 -11.44 0.0007844182    1.185    0.156
        59  -9.7611    184.4413    235.4530   1.1732672789e+02  -1.8460801901e+00    0.2856281     0.213234  -0.36  0.001459955    1.713    0.416
        60  -8.7971    178.6309    235.0722   1.1839557894e+02  -7.6018311769e-01    0.2672022    0.1842628  12.68  0.001191902    1.922    0.480
        61  -9.5285    160.0943    235.5658   1.2209853275e+02   2.4500656058e+00    0.3313181    0.2054205  27.21  0.001658054    1.884    0.469
        62  -7.8648    204.8353    234.3713   1.1323367363e+02  -5.2138755248e+00    0.1825172    0.1035867  31.19 0.0003984107    1.642    0.391
        63  -7.9034    130.8405    234.4262   1.2769243688e+02   7.8069104216e+00    0.1782839    0.1132144  35.43 0.0004824849    1.619    0.382
        64  -8.4794    194.9114    236.8205   1.1552910722e+02  -3.8833552865e+00    0.1973683    0.1543177  17.15 0.0005932183    1.281    0.220
        65  -8.2354    248.8648    233.1507   1.0493915958e+02  -1.2108140976e+01    0.1701053    0.1193251   7.29 0.0004172967    1.325    0.245
        66  -8.4543    170.8271    233.1558   1.1962376622e+02   9.4402336107e-01     0.177427    0.1438551  20.14 0.0004584994    1.328    0.247
        67  -7.8974    107.9687    233.5322   1.3204915954e+02   1.1844508668e+01    0.1608291    0.1114297  20.71 0.0005748629    2.354    0.575
        68  -7.4181     91.4458    233.5094   1.3522515746e+02   1.4495575131e+01    0.1268371    0.1027162  68.44 0.0001673825    1.016    0.016
        69  -8.2934      1.3845    232.8186   1.5099383572e+02   2.6059833140e+01    0.1466705   0.07445303 -73.53 0.0009572011    1.728    0.421
        70  -7.8338    232.5357    234.9552   1.0817779192e+02  -9.8477721497e+00    0.1646661   0.09588561  -7.89 0.0008052129    2.309    0.567
        71  -7.8996    153.7903    232.4554   1.2288168043e+02   4.1134673709e+00    0.1868716    0.1139321  33.27 0.0005770015    1.671    0.402
        72  -9.1885    241.3332    230.2906   1.0577414613e+02  -1.0583758418e+01     0.224264    0.1353428 -19.32  0.001238778    1.766    0.434
        73  -7.3596     85.4804    231.5566   1.3614915479e+02   1.5797440509e+01    0.1265289     0.101581  68.84 0.0004132561    1.016    0.016
        74  -7.6736    246.3180    230.3077   1.0488791003e+02  -1.1349042180e+01    0.1265758   0.08163683   6.57 0.0003750677    1.634    0.388
        75  -7.3836    208.4585    229.5080   1.1172341137e+02  -5.0983092088e+00    0.1305916    0.1102816  20.66   0.00024468    1.039    0.038
        76  -7.7222    158.5358    229.4780   1.2149209484e+02   3.7857177795e+00    0.1336782    0.1161863  40.20 2.507079e-06    1.066    0.062
        77  -8.1513    151.9818    227.8289   1.2255323474e+02   5.2635105475e+00    0.2153024    0.1478438  19.80 0.0008574158    1.987    0.497
        78  -7.7557    138.8507    227.4274   1.2513078266e+02   7.6944201810e+00    0.1786876    0.1167421  34.62 0.0005085845    1.575    0.365
        79  -7.7489    109.4915    227.0372   1.3094997962e+02   1.2850871226e+01     0.159076     0.110645 -34.84 0.0004757169    2.337    0.572
        80  -7.9153    244.6771    223.6537   1.0398950927e+02  -1.0189157682e+01    0.1320124   0.08460125   4.14 0.0007049841    1.739    0.425
        81  -7.9149    185.1136    225.8432   1.1563208588e+02  -4.0075508250e-01    0.1822673    0.1477808  11.84 0.0005728243    1.342    0.255
        82  -9.6042    239.7883    224.6368   1.0504473874e+02  -9.5604615896e+00    0.2160978    0.1513583  39.63  0.001286104    1.437    0.304
        83  -7.6041    168.0136    224.9871   1.1889486685e+02   2.8541743365e+00     0.161467    0.1398421  42.57  0.000370249    1.009    0.009
        84  -8.1000    127.7918    224.6279   1.2696303569e+02   1.0182846481e+01     0.201161    0.1545314  36.09 0.0006211962    1.363    0.266
        85  -7.5866    212.4551    224.4561   1.1008705492e+02  -5.0127591744e+00    0.1319577    0.1109602  17.48 0.0003521589    1.062    0.058
        86  -8.8900    249.0142    223.0448   1.0310829567e+02  -1.0774032166e+01    0.2010599    0.1287643   4.68 0.0005714254    1.704    0.413
        87  -8.0530    200.5574    222.7269   1.1207502764e+02  -2.6581869747e+00     0.239984     0.126929 -34.78  0.001135022    2.155    0.536
        88  -7.9137    207.1443    221.8940   1.1065412599e+02  -3.6893617372e+00     0.183156     0.142511  10.51 0.0005440247    1.322    0.244
        89  -7.6706    174.7962    221.4512   1.1695669028e+02   2.2297224855e+00    0.1837027    0.1174619  31.22 0.0005297546    1.576    0.365
        90  -7.4632     92.6536    221.2553   1.3358737502e+02   1.6750108765e+01    0.1354752   0.08285576  65.94 0.0003156908    1.591    0.371
        91  -9.0075      8.6096    221.2135   1.4914990176e+02   2.7606598300e+01    0.1547448   0.07773109 -70.65 0.0009565734    1.766    0.434
        92  -7.9208    242.7608    220.1380   1.0369407109e+02  -9.3943528765e+00    0.1774527    0.1267813   2.65 0.0004772288    1.391    0.281
        93  -7.8537    147.7284    221.4042   1.2243885954e+02   7.2191069130e+00     0.190989    0.1189621  35.83 0.0009419744    1.589    0.371
        94  -7.8272    116.5166    220.5718   1.2869198134e+02   1.2939961458e+01    0.1322138     0.116383  58.29 0.0005772423    1.090    0.082
        95  -7.5663    224.6796    219.6662   1.0692468522e+02  -6.3676430515e+00    0.1354573   0.09166983   6.00 0.0007049462    1.700    0.412
        96  -7.7820    216.4821    219.0465   1.0835901277e+02  -4.8715507277e+00    0.1877437    0.1072215 -13.95 0.0008096449    2.665    0.625
        97  -7.5510    194.5116    218.9731   1.1260519254e+02  -9.5695749228e-01     0.187705    0.1133729 -15.93  0.000810382    2.626    0.619
        98  -7.6521    141.0378    219.0160   1.2344536841e+02   8.8932014252e+00    0.1664508    0.1429123  53.45 0.0004036245    1.021    0.021
        99  -7.3299    185.3205    218.6904   1.1438092708e+02   7.7105277196e-01    0.1320135    0.1044381  71.39 0.0007035169    1.644    0.392
       100  -7.3655    240.6417    216.6889   1.0344297935e+02  -8.5601063648e+00    0.1350373   0.08767912   7.21 0.0007042698    1.739    0.425
       101  -8.1315    204.7971    215.6384   1.0999585560e+02  -2.2646065647e+00    0.2092404    0.1519132  23.03 0.0005764078    1.368    0.269
       102  -7.9669    151.0101    216.4670   1.2099447529e+02   7.5475716988e+00    0.2080836    0.1231179  42.41 0.0003486343    1.516    0.340
       103  -8.0656    248.8300    215.2013   1.0170152429e+02  -9.6468015035e+00    0.1749841    0.1258358   9.27 0.0004784116    1.336    0.251
       104  -7.8174    144.4669    215.4286   1.2218470707e+02   8.9571152767e+00    0.1380884    0.1216817  52.18 7.667283e-05    1.020    0.020
       105  -7.9378    137.0063    215.0620   1.2367747679e+02   1.0397496711e+01    0.2008651    0.1695945  -0.88 0.0006613483    1.657    0.397
       106  -7.7572    119.8253    215.1470   1.2725899185e+02   1.3456460307e+01     0.171978    0.1582239  31.37 0.0005036215    1.301    0.232
       107  -7.6753    112.4365    212.5055   1.2842241160e+02   1.5280624322e+01    0.1347443     0.118936  67.75 0.0001905674    1.043    0.042
       108  -8.3266    187.0701    210.7751   1.1264159574e+02   1.8252639976e+00    0.2680666    0.1807304 -10.01  0.001243016    2.210    0.547
       109  -7.2703    155.6240    211.7248   1.1926853261e+02   7.5906134037e+00    0.1390854    0.1066025  14.93 0.0007003422    1.695    0.410
       110  -8.1271    170.4900    210.4815   1.1597520981e+02   5.0118429045e+00    0.1956078    0.1255833  33.59 0.0007618916    1.553    0.356
       111  -8.6932    170.9845    206.9649   1.1525901175e+02   5.5737772483e+00    0.2477772    0.2237019  -8.56  0.000357793    1.250    0.200
       112  -7.3550    243.6465    209.6990   1.0159721605e+02  -8.0188350721e+00    0.1349045   0.08907159   6.69  0.000703814    1.701    0.412
       113  -7.5740    199.4745    209.4958   1.0992728303e+02  -2.6490299410e-01    0.1372786    0.1229219  22.60 6.237434e-05    1.018    0.017
       114  -7.7166    108.0170    209.4399   1.2891919947e+02   1.6675814917e+01    0.1749761    0.1210469  17.15 0.0004479654    2.469    0.595
       115  -7.7339     77.8264    209.3432   1.3516193345e+02   2.1526302013e+01    0.1645902    0.1166897  35.77 0.0003798057    1.648    0.393
       116  -7.4536    147.4087    208.4604   1.2045287174e+02   9.7730454540e+00    0.1385396    0.1262056  55.58 9.805104e-05    1.017    0.017
       117  -7.9909    163.2198    207.5323   1.1697521059e+02   6.9521436937e+00    0.1994545    0.1260665  31.63 0.0009329752    1.691    0.409
       118  -8.0813    247.9615    205.8241   1.0009120691e+02  -8.1416261402e+00    0.2040312    0.1516965   6.44  0.001017863    1.309    0.236
       119  -8.7144     11.6979    205.3526   1.4756179846e+02   3.0526970256e+01    0.2410427    0.1222308  70.78  0.001415032    1.736    0.424
       120  -7.3704    140.0353    205.0000   1.2145129492e+02   1.1851685314e+01    0.2301926   0.07427324  42.36 0.0004918156    2.840    0.648
       121  -7.8882     88.2119    204.2021   1.3237702583e+02   2.1043425588e+01    0.1934981    0.1415162 -22.47 0.0006146561    2.666    0.625
       122  -7.4837    100.4961    210.4896   1.3063375231e+02   1.7715919593e+01    0.1338195    0.1170295  71.15 1.045991e-05    1.052    0.050
       123  -7.8340     97.7959    202.3284   1.3009613686e+02   1.9907001454e+01    0.1856062    0.1209744  36.64 0.0005959153    1.675    0.403
       124  -8.8032    250.4122    198.3824   9.8224674959e+01  -7.4192747606e+00    0.3604491    0.1454188 -28.78  0.001463125    2.785    0.641
       125  -7.4057    134.7458    200.6133   1.2187024378e+02   1.3744976557e+01    0.1350615    0.1117122 -18.85 0.0006961634    1.674    0.403
       126  -7.7297    194.2893    199.3896   1.0908313531e+02   2.4905432724e+00    0.1456456    0.1067887  -0.94 0.0007008637    1.764    0.433
       127  -8.1279    150.8890    198.6635   1.1805270599e+02   1.1073880417e+01    0.2251468    0.1746964  25.86 0.0005866623    1.476    0.323
       128  -8.5907    230.2908    198.0768   1.0181372294e+02  -3.9494779860e+00    0.2854019    0.1719113  25.34  0.000903454    1.812    0.448
       129  -8.0547    162.3272    197.8057   1.1544747463e+02   9.0201645699e+00    0.2002291    0.1310564 -38.37 0.0005704351    1.759    0.432
       130  -8.2056    243.9040    196.8515   9.9083129450e+01  -6.1032068273e+00    0.2055622    0.1566531  -0.51 0.0006093701    1.308    0.235
       131  -8.2221    203.0588    194.9622   1.0646757022e+02   1.6046749657e+00     0.225173     0.164898   5.05 0.0007161631    1.687    0.407
       132  -8.3935    237.1654    192.2403   9.9395693100e+01  -4.2108997814e+00    0.2395329    0.1629246 -23.73 0.0008020012    1.470    0.320
       133  -7.7437    232.6042    190.2234   9.9833912129e+01  -3.0720645958e+00    0.1831168    0.1205673 -24.49 0.0004340704    1.563    0.360
       134  -7.6469    214.7184    190.5993   1.0330774429e+02   1.5809819109e-01    0.1466707    0.1038674  -2.83 0.0006990614    1.773    0.436
       135  -8.0669    224.9591    189.3189   1.0108520634e+02  -1.5313545816e+00    0.1939366    0.1646032  19.21 0.0005344779    1.125    0.111
       136  -7.6251    199.4690    188.5196   1.0592186511e+02   3.4719165743e+00    0.1438657    0.1317754  13.59 6.276343e-05    1.059    0.056
       137  -8.0966    173.3268    187.9267   1.1124923282e+02   8.8010242132e+00    0.1946235    0.1875801 -33.80 0.0004914736    1.098    0.089
       138  -8.2164    243.5884    186.7488   9.7137495000e+01  -4.4411501733e+00    0.2508766    0.1200896 -32.16  0.001112013    2.074    0.518
       139  -7.4083    210.3309    187.3309   1.0351373041e+02   1.5745139354e+00     0.147854    0.1070849   4.44 0.0007051932    1.719    0.418
       140  -7.8308    215.1765    185.8375   1.0226323059e+02   9.1073695422e-01    0.1921521    0.1565121  -1.18  0.000424961    1.307    0.235
       141  -8.0774    238.1146    184.8297   9.7738114619e+01  -3.1627609755e+00    0.2185321    0.1520292  -2.05  0.001105316    1.710    0.415
       142  -9.0840    230.3790    184.7816   9.9152433086e+01  -1.7553913298e+00    0.2667562    0.2004647  27.29 0.0002871791    1.329    0.248
       143  -8.6079    250.0354    182.4016   9.5121891402e+01  -4.8516398781e+00    0.2373945    0.1669949 -15.55 0.0005861198    1.453    0.312
       144  -7.6289    211.5319    181.9530   1.0218645691e+02   2.3124927553e+00    0.1983863    0.1209707 -15.42 0.0008079003    2.416    0.586
       145  -7.4121    199.6502    180.6693   1.0430089731e+02   4.9026829650e+00    0.1527994    0.1119823   5.48 0.0007048253    1.769    0.435
       146  -7.9428    183.0155    179.9882   1.0761476241e+02   8.4114415060e+00    0.2245138    0.1774372   4.20 0.0006305919    1.579    0.367
       147  -8.5885    242.2144    176.9873   9.5398786462e+01  -2.5889461743e+00    0.3751723    0.2023281 -16.90  0.001500664    2.775    0.640
       148  -7.6616    189.8779    176.3623   1.0542865679e+02   7.7185016238e+00    0.2103321    0.1321017  33.61 0.0005097322    1.692    0.409
       149  -7.9236    177.0250    176.5318   1.0819021558e+02   1.0339777447e+01      0.22559    0.1422778  42.11 0.0005688359    1.536    0.349
       150  -7.5339    164.3039    176.2882   1.1091554924e+02   1.3023476710e+01    0.1460307    0.1191611   4.70 0.0004636497    1.566    0.361
       151  -7.6374    182.5188    174.4833   1.0659224335e+02   9.6140640423e+00    0.1479751    0.1426164  28.21 0.0008100906    1.018    0.017
       152  -9.3188    246.2680    167.0991   9.2630232020e+01  -1.6530417254e+00    0.2697357    0.2091649   1.24 0.0003219553    1.416    0.294
       153  -7.0647     85.5273    147.4497   1.2415098915e+02   3.4568055543e+01    0.1419254    0.1303536 -63.25  8.99106e-05    1.090    0.083
       154  -7.8316    247.6594    142.6769   8.7171645694e+01   2.3169945203e+00    0.1429702    0.1065806   1.41   0.00070508    1.724    0.420
       155  -7.6750     64.8362    141.5845   1.2844492531e+02   3.8981030254e+01    0.1782288    0.1223226  52.23 0.0004433935    1.577    0.366
       156  -7.5453    230.6132    140.7394   8.9674919185e+01   6.0736864874e+00    0.1463805    0.1109143  13.45 0.0006974569    1.688    0.407
       157  -7.5510    235.3231    137.3303   8.8083845549e+01   5.7302388661e+00    0.1466664    0.1118842   1.46 0.0007049794    1.699    0.411
       158  -8.2080    228.9000    137.0642   8.9152350136e+01   7.1098503480e+00    0.2276994      0.17634   1.52  0.001044812    1.655    0.396
       159  -7.6672    115.3955    136.4486   1.1415424413e+02   3.1947700582e+01    0.1501449    0.1417264 -67.00 0.0001354815    1.022    0.022
       160  -7.6310    248.2074    134.9827   8.5400193387e+01   3.5652406678e+00    0.1952161    0.1029386 -38.86 0.0008630943    1.713    0.416
       161  -8.3814    231.7800    128.7886   8.6767909338e+01   8.0339514615e+00    0.2790961     0.221943  -2.87  0.001272177    1.576    0.366
       162  -7.7890    221.6704    126.6502   8.8058157219e+01   1.0608722430e+01    0.1531519    0.1177299   3.83 0.0007048452    1.766    0.434
       163  -8.0821    240.1876    123.6090   8.4179363909e+01   7.2140937990e+00    0.3209656    0.1707148 -18.74  0.001093709    3.519    0.716
       164  -7.3049    177.3425    122.3348   9.5807680628e+01   2.1604346070e+01    0.1629046    0.1270957   7.36 0.0007050529    1.760    0.432
       165  -8.5829    248.1868    117.0424   8.1435971638e+01   6.7332903077e+00    0.3443373    0.2163031 -16.78  0.001490946    2.318    0.569
       166  -8.3502    220.3681    113.1241   8.5109320920e+01   1.3437359626e+01    0.4492332    0.1702335  39.72  0.001342828    4.097    0.756
       167  -8.0426    210.4207    110.3969   8.6233139628e+01   1.6225317893e+01    0.2972188    0.1209803  40.46 0.0009426272    3.358    0.702
       168  -7.8724    194.4967    110.5133   8.9287983856e+01   1.9941123216e+01    0.1523556    0.1508014 -37.48 0.0001863268    1.062    0.058
       169  -7.9621    249.7299    106.8121   7.8925226306e+01   8.2018946504e+00    0.2191113    0.1689962 -21.39  0.001154429    1.492    0.330
       170  -8.4351    241.4296    106.4009   8.0083317083e+01   1.0021338601e+01    0.3036988    0.2067133  -3.81  0.001293623    2.554    0.608
       171 -10.0711      4.1437    105.5835   1.3909121636e+02   5.3055267639e+01    0.3164781    0.1941393  58.05  0.001415707    2.113    0.527
       172  -7.4826    133.6762    106.7025   1.0208651183e+02   3.4895754341e+01    0.1550387    0.1242191   3.40  0.000702361    1.625    0.385
       173  -7.9204      7.6739     99.2939   1.3711428970e+02   5.4209482634e+01    0.1099932    0.0806435  78.21 0.0003223927    1.623    0.384
       174  -9.8432      5.3603     95.3454   1.3715678234e+02   5.5198097568e+01    0.2886819     0.143899  13.70  0.001628315    2.678    0.627
       175  -8.5332     22.9089     91.6827   1.3112574959e+02   5.4804003280e+01     0.157731    0.1403147 -56.36 0.0004608694    1.115    0.103
       176  -7.4478    212.6453     84.3254   7.9442767628e+01   2.0457177273e+01    0.1600507      0.10949 -73.57 0.0007046394    1.768    0.434
       177  -9.1012      2.6584     81.1087   1.3552706808e+02   5.8347770282e+01    0.1567784      0.15214 -72.78 0.0003803713    1.285    0.222
       178  -7.8461    158.6651     80.6326   8.8835326017e+01   3.4305116870e+01    0.1613805    0.1209255  14.39 0.0007031297    1.833    0.454
       179  -8.6257    184.1901     77.3839   8.2695247052e+01   2.8618021751e+01    0.2558029    0.2097915 -27.17 0.0009028734    1.358    0.264
       180  -7.3608     24.7024     77.2897   1.2745893690e+02   5.7692563123e+01        0.107   0.08945252  87.14 0.0002458515    1.557    0.358
       181  -7.4189    148.4605     76.4979   8.9963762914e+01   3.7493288765e+01    0.1494673     0.146256  51.89 0.0008093437    1.007    0.007
       182  -8.3501    240.8729     62.8566   7.0275389325e+01   1.7413671163e+01    0.1848289    0.1838222 -65.29 0.0003939521    1.255    0.203
       183  -7.6046     25.2851     61.6065   1.2333832008e+02   6.0761668405e+01    0.1094326   0.08898587 -84.44 0.0007001585    1.763    0.433
       184  -8.7272      1.4152     59.4864   1.3152889794e+02   6.2735755526e+01    0.1605333   0.08863864 -66.75 0.0005185841    1.748    0.428
       185  -8.0189     66.7065     58.2174   1.0752084638e+02   5.6746259746e+01    0.1711648     0.131521 -11.32 0.0003698302    1.279    0.218
       186  -9.4234     33.1445     57.5022   1.1929196283e+02   6.0849891620e+01    0.2103399     0.158635 -37.40  0.000294277    1.075    0.070
       187  -8.6106     94.9047     52.6011   9.6573861173e+01   5.3022608555e+01    0.2245118    0.1783849 -48.33 0.0005274423    1.464    0.317
       188  -8.3211     44.1227     51.8399   1.1347425734e+02   6.0749960684e+01    0.1678107     0.151268 -25.99 0.0003632881    1.183    0.155
       189  -8.5938     95.5392     45.3417   9.3888590087e+01   5.4018249280e+01    0.2714953    0.2154542 -18.23 0.0009991555    1.240    0.193
       190  -7.5826     74.4199     45.5503   1.0059793227e+02   5.7679319842e+01    0.1286693    0.1107346  -4.86 1.896788e-05    1.009    0.009
       191  -8.9006      3.0887     44.7414   1.2721385072e+02   6.5394922438e+01    0.2290217   0.08732256 -38.36  0.001238024    2.069    0.517
       192  -7.3698    116.0096     43.9852   8.7757239595e+01   5.0078267890e+01    0.1570138    0.1454312  17.48 0.0009355483    1.029    0.028
       193  -7.7091     54.5845     44.1826   1.0703330780e+02   6.0776526576e+01    0.1711903    0.1004272 -29.65 0.0004949477    1.563    0.360
       194  -7.8259     77.3859     39.8442   9.7569968491e+01   5.8054771310e+01    0.1696653    0.1105861 -20.43 0.0002355661    1.536    0.349
       195  -8.9085     21.1034     40.1063   1.1857874299e+02   6.4988160501e+01    0.1662088    0.1318022 -27.67 0.0004070023    1.056    0.053
       196  -9.0991     51.9741     38.4698   1.0594656946e+02   6.2016469810e+01    0.2096146    0.1490227 -28.86  0.001316211    1.235    0.190
       197  -8.5160    137.7604     37.8885   8.0605643150e+01   4.6017893276e+01    0.2291781    0.1838257  54.47 0.0003766801    1.147    0.128
       198  -7.4836     73.4928     37.4772   9.7986247776e+01   5.9035094660e+01    0.1274422    0.1085699   1.46 0.0001967347    1.003    0.003
       199  -7.7534      8.3300     37.3101   1.2292707138e+02   6.6388848901e+01    0.1172858    0.0610772 -28.91 0.0003092376    1.667    0.400
       200  -8.6191     94.3783     34.2869   9.0300425787e+01   5.5782255975e+01    0.4139382    0.2325188   9.14  0.001511979    2.845    0.649
       201 -10.3942     15.8833     33.9141   1.1868210959e+02   6.6431265167e+01    0.3663968    0.2051939   4.28  0.001590628    1.969    0.492
       202  -9.4434     21.3985     31.1913   1.1542862759e+02   6.6426300476e+01    0.2914744    0.1869163 -61.87  0.001098087    2.564    0.610
       203  -8.5719      2.8707     23.2097   1.2066431037e+02   6.9043693262e+01    0.2268762    0.1708881 -62.82  0.001643256    1.920    0.479
       204  -9.1543      3.5724     31.1946   1.2301564506e+02   6.7710909645e+01     0.244709   0.07968018 -51.57  0.001252587    2.411    0.585
       205  -8.7807      6.2496     27.6118   1.2067824687e+02   6.8131010083e+01    0.1876858    0.1252209 -13.59 0.0007326108    1.338    0.252
       206  -9.8765      8.8678     31.7504   1.2092893676e+02   6.7286333500e+01    0.3269823    0.1757066 -61.71   0.00116249    2.591    0.614
       207  -8.1912      9.8348     27.2315   1.1898305792e+02   6.7951149500e+01    0.1728994    0.1136249 -38.54  0.000344419    1.207    0.172
       208  -7.3933    162.3094     27.6913   7.2783303349e+01   4.1369426705e+01    0.1388469    0.1007081 -73.90 0.0002483665    1.618    0.382
       209  -8.2061    173.1270     25.1590   7.0316607111e+01   3.9002328368e+01    0.1910092    0.1488581 -78.74 0.0003984921    1.348    0.258
       210  -8.8106     91.5350     25.0524   8.7725794804e+01   5.7472065610e+01    0.2266999    0.1673582  41.48 0.0004268555    1.248    0.199
       211  -8.7303     84.6908     21.5730   8.8414269802e+01   5.9151116750e+01    0.2096153    0.1952507   0.89 0.0005136729    1.201    0.167
       212  -7.2220     59.6867     22.6739   9.7051135934e+01   6.3166821790e+01    0.1256095   0.07947979   4.65 0.0003446792    1.665    0.400
       213 -10.1498    237.9909    246.2975   1.0911935827e+02  -1.2178683381e+01    0.3329213    0.1846086  -5.50  0.001656117    2.541    0.606
       214  -7.6956    233.3771     19.2619   6.1486888062e+01   2.5171630661e+01    0.1229627   0.08981268  51.39 0.0004790433    1.669    0.401
       215  -7.8704    161.5183     19.0279   7.0419917546e+01   4.2531691459e+01    0.1784364    0.1369218 -21.45 0.0005454451    1.534    0.348
       216  -7.9378     11.9747     20.9599   1.1576970415e+02   6.8763674728e+01     0.129494   0.09485044 -20.57  0.000972118    1.024    0.024
       217  -7.6683    151.6404     18.1561   7.1810284286e+01   4.5014528441e+01    0.1607616    0.1270884  -0.44 0.0002380437    1.545    0.353
       218  -8.0131     27.9621     17.9770   1.0759005752e+02   6.7764319658e+01    0.1361993    0.1006776 -15.91 0.0009818783    1.044    0.042
       219  -8.9136     74.9686     16.7520   8.9515664136e+01   6.1415218754e+01    0.1986287     0.162719  53.34 0.0006136429    1.523    0.343
       220  -9.5860    193.2104    248.5042   1.1768965596e+02  -5.3360325750e+00    0.2265213    0.1847418  10.09  0.000638519    1.275    0.216
       221  -8.2056    130.7714     14.8179   7.4637622637e+01   5.0254813374e+01    0.2015367   0.08917803 -37.81 0.0008891206    2.556    0.609
       222  -9.7510      4.1634    248.6119   1.5137751644e+02   2.2836065030e+01    0.2225406   0.09969995 -79.05  0.001427079    1.852    0.460
       223  -9.5415      9.6193    247.6402   1.5049884116e+02   2.2446738348e+01    0.2288964   0.06768087  56.48  0.001185549    2.602    0.616
       224  -7.9747    151.0972     12.6985   7.0274265358e+01   4.5692741098e+01     0.184506    0.1481487  61.23 0.0003575409    1.072    0.068
       225  -8.1703    105.4810     11.5445   7.9051888347e+01   5.6108379151e+01    0.1280269    0.1062972  35.08 0.0001434845    1.023    0.022
       226  -8.0383     43.5494     11.5388   9.8457643228e+01   6.6765431541e+01     0.182939    0.1009642  46.09  0.001025914    2.444    0.591
       227  -7.5368     63.3045    247.3237   1.4168662389e+02   1.5981554350e+01   0.09660394   0.09183415 -60.84 0.0002805062    1.640    0.390
       228  -8.8484    211.8981    246.7762   1.1393704420e+02  -8.1716688640e+00    0.1952802    0.1456193  15.88 0.0006734871    1.270    0.212
       229  -8.7824    209.0594    249.6494   1.1491768582e+02  -8.1070271773e+00     0.342074    0.1229364  47.10  0.001260599    2.922    0.658
       230  -9.5270    171.7589    245.5513   1.2131074069e+02  -1.2338545896e+00    0.2510647    0.1602057  24.22 0.0009353712    1.812    0.448
       231  -9.0325    150.6123    244.9006   1.2526937205e+02   2.5362300270e+00    0.2505696    0.1897219   6.05  0.001400604    1.980    0.495
       232  -7.7990    136.2145    246.0424   1.2817312210e+02   4.8172660918e+00    0.1778635    0.1440771  -6.96  0.000732584    1.935    0.483
       233  -7.9413    104.3389    246.2873   1.3420326344e+02   1.0052636103e+01    0.1102573   0.09615564  21.56 0.0003307343    1.637    0.389
       234  -9.7285    176.6126    243.8880   1.2013654620e+02  -1.8122790919e+00    0.2803064    0.2099497  -1.78  0.001606885    1.793    0.442
       235  -9.7611    164.7182    246.3379   1.2276939600e+02  -1.4140278063e-01    0.2336412    0.1895645  31.97   0.00051601    1.172    0.147
       236  -9.2356    219.2743    244.3888   1.1219097689e+02  -9.0309412722e+00    0.2398456   0.09908117  35.78 0.0008382204    2.118    0.528
       237  -8.1573    215.3157    244.3092   1.1290715609e+02  -8.3842219504e+00     0.126245   0.08453152  11.51 0.0003913088    1.633    0.388
       238  -8.2341     89.6923    249.6821   1.3723360165e+02   1.1717324901e+01    0.1017198   0.09664825  13.11 0.0007030965    1.634    0.388
       239  -7.6598     72.2952    248.3241   1.4020227405e+02   1.4533665783e+01   0.09701084   0.09420915 -55.55 0.0003977786    1.621    0.383
       240  -9.8816    245.0966    242.6554   1.0724654110e+02  -1.2772714849e+01    0.3585363   0.09089331  36.25  0.001356499    3.652    0.726
       241  -7.5897    210.3638    242.2858   1.1349662023e+02  -7.2941805809e+00    0.1301694   0.08521827  14.97 0.0007021078    1.690    0.408
       242  -8.7358    167.7283    237.3771   1.2087548132e+02   7.9121053905e-01    0.2664147    0.1427257  40.39 0.0009119767    1.602    0.376
