#   1 NUMBER                 Running object number                                     
#   2 MAG_AUTO               Kron-like elliptical aperture magnitude                    [mag]
#   3 X_IMAGE                Object position along x                                    [pixel]
#   4 Y_IMAGE                Object position along y                                    [pixel]
#   5 X_WORLD                Barycenter position along world x axis                     [deg]
#   6 Y_WORLD                Barycenter position along world y axis                     [deg]
#   7 A_WORLD                Profile RMS along major axis (world units)                 [deg]
#   8 B_WORLD                Profile RMS along minor axis (world units)                 [deg]
#   9 THETA_WORLD            Position angle (CCW/world-x)                               [deg]
#  10 FWHM_WORLD             FWHM assuming a gaussian core                              [deg]
#  11 ELONGATION             A_IMAGE/B_IMAGE                                           
#  12 ELLIPTICITY            1 - B_IMAGE/A_IMAGE                                       
         1 -16.6904    228.0543    124.8595   7.3156163568e+01   1.2099323025e+01     3.285928     2.011634 -16.55   0.01732615    1.585    0.369
         2 -19.1763    180.6122    137.0658   8.4135142294e+01   1.9443037443e+01     7.372762     6.156235  62.25   0.04198272    1.467    0.318
         3 -16.9753    184.2735     91.3874   7.2374750780e+01   2.5926906744e+01     4.866515     2.742518 -52.05    0.0199014    2.303    0.566
         4 -12.7810    188.2758     32.9528   5.4458172298e+01   3.3150347254e+01    0.4340692     0.321501 -43.09 0.0004843671    1.308    0.235
         5 -18.2663    191.5919    164.5454   8.7558970005e+01   1.3351704868e+01     5.799552     4.015939   3.23   0.03267686    1.614    0.380
         6 -12.2379    201.7672     22.8069   4.9765891121e+01   3.0847989733e+01    0.4988531    0.2464423 -24.67  0.001665154    1.894    0.472
         7 -12.7390    238.8850     17.2203   4.4974024989e+01   2.2616606830e+01    0.4672482    0.2333211 -31.50  0.002293592    1.662    0.398
         8 -10.6046     12.4912     15.4539   1.0453798985e+02   7.3627246736e+01    0.3227739    0.1484222 -62.01  0.001567417    2.024    0.506
         9 -12.5808    238.5644      4.8631   4.1802614198e+01   2.3825117717e+01    0.4577446    0.2041139 -25.52  0.002151884    1.924    0.480
        10 -12.4022    248.3996      5.6116   4.1414962660e+01   2.1612916754e+01    0.4817902    0.2500466 -14.73  0.002394491    1.965    0.491
        11 -10.2699    125.1234      8.4907   5.5148725178e+01   5.2697865859e+01    0.2585947    0.1895456 -42.58 0.0007109827    1.431    0.301
        12  -9.7516     62.7717      6.7842   7.1510265020e+01   6.7868326414e+01    0.1699301    0.1540859 -44.19 0.0003048917    1.279    0.218
        13 -10.1589     26.9404      7.2177   9.0479079778e+01   7.3762555437e+01      0.15083    0.1008163  30.62 0.0005089738    1.653    0.395
        14 -11.9480    227.9741      5.9609   4.2763555047e+01   2.6133831100e+01     0.207546    0.1780166 -45.02 0.0005179722    1.028    0.027
        15 -10.4772    178.3364      5.9214   4.6845536011e+01   3.8566467290e+01     0.243977    0.1576651 -43.76  0.001171119    1.501    0.334
        16  -9.7274    185.3027      5.2972   4.5957544125e+01   3.6782837025e+01    0.1431956    0.1020919  36.87 0.0002674368    1.581    0.368
        17 -10.7708    107.5086      4.8528   5.6998918091e+01   5.7674708215e+01    0.2462233    0.1828301  37.86 0.0008067031    1.319    0.242
        18  -9.9625      7.8910      4.8736   1.0273306717e+02   7.6165603198e+01    0.1432062    0.1386347  32.41  0.001047943    1.329    0.248
        19 -10.7883     39.8918      2.7396   7.9773470083e+01   7.2631972586e+01    0.2505297    0.1685562  48.09  0.001385576    1.770    0.435
        20 -10.7376    197.0207      9.4933   4.6190125468e+01   3.3367565495e+01    0.2020862    0.1352938  75.06 0.0004730474    1.517    0.341
        21  -9.4939     85.4945      2.5231   6.1256835750e+01   6.3363992207e+01    0.1398192     0.129452  17.39 3.925771e-05    1.012    0.012
        22 -10.8111    208.0493      1.5391   4.2917152586e+01   3.1300459858e+01    0.2026006    0.1301454  79.82 0.0007410069    1.590    0.371
        23  -9.7970     44.3138    209.2972   1.2305714588e+02   2.7919455693e+01   0.08824923   0.08322684  -5.10 0.0003196973    1.604    0.376
        24 -11.7071    214.3029    249.2623   9.6654876175e+01   5.0578876975e-01    0.2711324    0.1412338  29.04  0.001229309    1.366    0.268
        25 -12.9060    193.3438    249.6924   9.9978229773e+01   3.1312597865e+00    0.2644313    0.1604599  35.40 0.0005556917    1.236    0.191
        26 -10.4812     33.3798    236.1755   1.2639942178e+02   2.4685681592e+01    0.1305331   0.07242694  75.24 0.0007600756    1.666    0.400
        27 -10.5057    118.3387    235.1329   1.1114113000e+02   1.4801759684e+01    0.1835335    0.1170135  33.73 0.0005790674    1.295    0.228
        28 -10.8456    149.2797    234.0542   1.0554016923e+02   1.0740636839e+01    0.1775323    0.1171224  36.52 0.0003899958    1.121    0.108
        29 -10.9668    227.9227    232.1940   9.2326331731e+01   2.7833934602e-01    0.1710347    0.1197444  21.25  0.000320916    1.043    0.041
        30 -10.5702    201.3005    233.0384   9.6627802092e+01   3.7053601817e+00    0.1435896    0.1116716  17.91 0.0004430502    1.118    0.106
        31 -11.7752    174.6632    231.5783   1.0086317400e+02   7.5114429201e+00    0.3749086    0.2334756  19.46  0.002498156    1.569    0.362
        32 -11.2309    165.1672    231.2910   1.0245655709e+02   8.8668582449e+00    0.2280562    0.1440923  42.19 0.0008256557    1.325    0.245
        33 -11.9096    213.9645    229.6335   9.4144380183e+01   2.3407134691e+00    0.2148219    0.1502322  29.43 0.0004700292    1.155    0.134
        34 -10.9963    206.9323    229.6020   9.5261838472e+01   3.2870742407e+00    0.1869623    0.1231586  -1.44 0.0006976799    1.585    0.369
        35 -12.0640    141.8339    229.4721   1.0635134491e+02   1.2348179998e+01    0.4390277    0.1973062  47.34  0.002448702    1.986    0.497
        36 -10.9883    138.9915    222.7673   1.0611485572e+02   1.3629309605e+01    0.2329846    0.1571316 -73.39  0.001469481    2.454    0.592
        37 -10.7345     82.3900    230.1306   1.1724844755e+02   2.0131739522e+01    0.2349069    0.1120888  40.30 0.0008963504    1.550    0.355
        38 -10.6359     69.5964    230.2402   1.1960124868e+02   2.1654233578e+01    0.2225033    0.1074118  42.17  0.000961455    1.503    0.335
        39 -10.3065    183.1265    228.5928   9.9052538710e+01   6.6652646837e+00    0.1516211    0.1397741  19.75  0.001250748    1.344    0.256
        40 -12.9873    242.2728    223.8323   8.8971333737e+01  -8.2365521651e-01     0.564317    0.3438374  17.46  0.002550688    1.242    0.195
        41 -11.7713    238.1931    221.3714   8.9220968716e+01  -8.4869922050e-02    0.2717142    0.2041438  43.79  0.000429296    1.856    0.461
        42 -10.9982    199.1470    221.0053   9.5353282694e+01   5.2418665703e+00    0.3897293    0.1971761  30.91   0.00229375    1.560    0.359
        43 -11.4887    196.8957    226.9360   9.6536674946e+01   4.9296106516e+00    0.2548071    0.1609236  33.16 0.0005701268    1.205    0.170
        44 -10.6037    194.4480    223.4400   9.6470096220e+01   5.6413912233e+00    0.1863444    0.1382607  32.33 0.0005993136    1.153    0.133
        45 -11.9242    202.9613    225.4957   9.5345997031e+01   4.2417783553e+00    0.2909643    0.1564758  35.48 0.0007863721    1.430    0.301
        46 -12.1201    205.8273    222.8165   9.4507776536e+01   4.1208810753e+00    0.2769017    0.1957498  29.35 0.0007942094    1.116    0.104
        47 -11.5447    150.4485    228.0119   1.0465048235e+02   1.1328338881e+01    0.2253148    0.1222176  46.78   0.00138092    1.638    0.389
        48 -10.9605    219.8338    225.6913   9.2670699907e+01   1.9335478908e+00    0.3199801    0.1293397  27.50  0.001526452    2.225    0.551
        49 -12.4199    181.9704    221.7516   9.8353997978e+01   7.5968875071e+00    0.4877113    0.1881977  33.07  0.001535585    2.178    0.541
        50 -10.0947    176.2133    220.3789   9.9166522500e+01   8.5829678324e+00     0.165103    0.1104086  34.74 0.0003997973    1.153    0.132
        51 -11.4772    175.1728    224.3274   9.9861917119e+01   8.2694220603e+00    0.2045979    0.1608607  -4.33 0.0006745727    1.415    0.293
        52 -11.8499    170.6974    223.5685   1.0054156519e+02   8.9970946603e+00    0.3044407    0.2454104  55.46  0.002236874    1.574    0.365
        53 -13.0729    166.5226    223.5268   1.0126701397e+02   9.5993086998e+00    0.6490973    0.1707328  38.61   0.00281068    2.922    0.658
        54 -11.1090    153.0170    224.5121   1.0378189649e+02   1.1406729715e+01    0.1569236    0.1339306  30.20 0.0005303976    1.134    0.118
        55 -16.1039    231.1389    166.6891   8.1213632476e+01   6.4814155817e+00     2.170776     1.424955  -2.80    0.0132255    1.460    0.315
        56 -16.9321    127.1605    153.8650   9.8833235800e+01   2.6545729492e+01     3.263679     2.444493  44.45    0.0185017    1.208    0.172
        57 -10.5666    201.9941    248.9335   9.8522467868e+01   2.0918968529e+00    0.1540181    0.1099808  25.26  0.000594814    1.055    0.052
        58 -11.9246     12.0678    203.1888   1.2902470595e+02   3.2156379476e+01    0.3931108    0.1367843  64.17  0.002158272    2.391    0.582
        59 -10.7423    233.7791    203.7326   8.7196763400e+01   2.1547207316e+00    0.1976043    0.1844045  -4.00   0.00138931    1.598    0.374
        60 -12.2521    125.8895    204.7596   1.0648884539e+02   1.8106068689e+01    0.4562136    0.3321697 -50.50  0.002250627    1.708    0.414
        61 -10.6296     68.9879    202.9439   1.1770367752e+02   2.6172952645e+01    0.1988064     0.143525  68.37  0.001217467    1.265    0.209
        62 -10.8931     45.6720    201.1298   1.2228926539e+02   2.9201055562e+01    0.2387144    0.1837823 -57.62  0.001514285    1.717    0.418
        63 -10.7259    102.3198    200.6305   1.1071460945e+02   2.2163874859e+01    0.2000046    0.1422444 -57.84   0.00131146    1.700    0.412
        64  -9.8172     76.6035    200.7865   1.1597079319e+02   2.5592792736e+01    0.1453366    0.0988945  85.46  0.000586536    1.609    0.379
        65  -9.5510     27.9642    200.0314   1.2577821562e+02   3.1234632238e+01    0.1287581   0.09443565  59.59 0.0003460653    1.009    0.009
        66 -12.0135    128.7785    211.4013   1.0671607909e+02   1.6690592221e+01    0.2711236     0.243297  47.43 0.0006928348    1.155    0.134
        67 -10.2129     34.1088    197.8275   1.2442906958e+02   3.1016487105e+01    0.1657501    0.1076553  58.33 0.0003389357    1.179    0.152
        68 -11.4722    112.1151    196.1522   1.0821399818e+02   2.1497540831e+01    0.1907037    0.1578501  40.72 0.0002570528    1.069    0.065
        69 -10.4083    173.0733    247.1710   1.0296546933e+02   6.0322136306e+00    0.1580733    0.1075834  24.55 0.0005227533    1.196    0.164
        70 -11.6238    101.1467    194.5130   1.1028126010e+02   2.3357095995e+01    0.3969779   0.09818753  37.37  0.001426199    3.339    0.700
        71 -11.2002     95.9254    196.0187   1.1152749636e+02   2.3835045971e+01     0.182996    0.1408837  44.79  0.001232981    1.075    0.070
        72 -10.3778     46.7544    194.9702   1.2166393999e+02   3.0192736670e+01    0.1509532    0.1374939  64.38 0.0003723178    1.246    0.198
        73 -11.1081     49.8672    192.6211   1.2085187353e+02   3.0276302894e+01    0.3256443    0.1978178  17.54  0.001849488    2.438    0.590
        74  -9.9718     71.4466    193.6826   1.1640598916e+02   2.7502424109e+01    0.1430454    0.1049528 -59.33 0.0005065972    1.645    0.392
        75 -10.5323    245.0457    191.1126   8.3407091059e+01   1.8212162748e+00    0.1894051    0.1340414  -3.75 0.0007636383    1.203    0.169
        76 -11.1112    239.7918    189.9665   8.4010347139e+01   2.6776653536e+00    0.2720374    0.1788744  19.96 0.0008436818    1.219    0.180
        77 -11.6842     91.2497    188.5437   1.1169887872e+02   2.5793569057e+01    0.4847257     0.222739  53.94   0.00238862    2.161    0.537
        78  -9.5964     83.6464    192.3456   1.1371062072e+02   2.6154506422e+01      0.12955   0.07280891  61.41 0.0007037924    1.823    0.452
        79  -9.5631     76.7127    192.3166   1.1517087941e+02   2.7073870764e+01    0.1206832   0.07293494  62.20 0.0005271009    1.590    0.371
        80  -9.7560     87.6365    191.6914   1.1280195201e+02   2.5731649309e+01    0.1105621   0.09097204   2.03 0.0007039221    1.746    0.427
        81 -10.3165     92.3773    183.7899   1.1092294449e+02   2.6491474250e+01    0.1640843    0.1190465 -69.92 0.0005339672    1.554    0.356
        82 -11.0555     96.3202    185.3934   1.1025717664e+02   2.5640514905e+01    0.1846751    0.1701959  60.64 0.0002671761    1.124    0.110
        83 -10.0829    248.1873    185.4627   8.1972177811e+01   1.9349790330e+00    0.1970747   0.08952297  35.58  0.001109587    1.912    0.477
        84 -10.0404     17.3905    184.7312   1.2720518143e+02   3.5061051310e+01    0.1333972   0.08826792 -78.13 0.0003131975    1.526    0.345
        85 -13.0435    124.6375    215.5033   1.0797102970e+02   1.6686081776e+01    0.5632651    0.3696534  25.83  0.003587925    1.560    0.359
        86 -10.7612     85.7909    180.7306   1.1201539250e+02   2.7977375312e+01    0.2741657    0.1815037 -87.35  0.001110911    1.768    0.434
        87  -9.5929     25.0030    182.0006   1.2545340085e+02   3.4875414015e+01    0.1329932    0.1008568  62.37 0.0003186647    1.018    0.018
        88 -11.0563     50.7650    180.1331   1.1970978308e+02   3.2533118460e+01    0.3206762     0.159668  24.94  0.001642176    2.482    0.597
        89 -12.3809     84.7795    165.6478   1.1045332172e+02   3.1016416410e+01    0.5288092    0.3446703  10.25  0.002568442    2.661    0.624
        90 -12.5229     92.0453    163.5520   1.0847891248e+02   3.0372123082e+01    0.6248505    0.2822209 -66.25  0.002828463    2.623    0.619
        91 -11.4866     95.3370    176.8585   1.0944724072e+02   2.7340525133e+01    0.3293816    0.2238019 -67.44  0.001196987    1.658    0.397
        92 -12.5770     89.4055    173.5664   1.1037113980e+02   2.8817572064e+01    0.6596569    0.4148627  20.70  0.003441981    2.146    0.534
        93 -12.8538    101.3432    173.0061   1.0761469048e+02   2.7166759665e+01    0.4184965    0.3360966  82.29  0.001007464    1.353    0.261
        94 -11.4837     98.0772    166.6003   1.0749305310e+02   2.8873748044e+01    0.2363843    0.2120949  79.04  0.001555157    1.125    0.111
        95 -11.5363    121.5147    212.4595   1.0822813425e+02   1.7579221261e+01     0.238847    0.2192505 -15.76  0.001309778    1.394    0.283
        96 -11.2203     76.8939    168.1645   1.1259784684e+02   3.1616586767e+01    0.1886079    0.1599612  69.33 0.0007336268    1.066    0.062
        97  -9.8622     33.5031    169.5331   1.2279610021e+02   3.6498428750e+01    0.1181368   0.09015396  65.23 9.386216e-06    1.044    0.042
        98 -11.4739     65.5044    163.8626   1.1479564848e+02   3.3986600477e+01    0.3408212    0.2032011  73.83  0.001127605    1.832    0.454
        99 -10.0208     49.1887    165.4108   1.1881822498e+02   3.5646730444e+01    0.1679582   0.08939583  47.02 0.0003787145    1.593    0.372
       100 -11.7323     42.0096    159.4376   1.2000547253e+02   3.7683645558e+01    0.4857761    0.1889059 -85.61  0.002101037    3.050    0.672
       101 -10.6805    249.1494    159.8965   7.7180872250e+01   4.4262023151e+00    0.2715143    0.2248523 -41.66  0.001592524    1.781    0.439
       102 -11.4736     98.2039    160.7431   1.0664278671e+02   2.9992826390e+01    0.3533067    0.1809054  40.10   0.00158815    1.742    0.426
       103 -10.7630     16.1093    161.1715   1.2629361742e+02   3.9843679253e+01     0.155752    0.1448577  79.90  0.001210433    1.275    0.216
       104 -12.3429     82.7681    152.1701   1.0915197502e+02   3.4040592646e+01    0.5850314    0.3722705   9.57 0.0005455073    2.886    0.654
       105 -11.4844     75.9513    159.3080   1.1175953089e+02   3.3530979295e+01    0.2539523    0.2273686 -39.12 0.0004415485    1.423    0.297
       106 -11.7058     79.8714    158.8422   1.1075375067e+02   3.3080397896e+01    0.2875474    0.1882963  81.42  0.001551726    1.762    0.432
       107 -10.8161     65.2881    158.4276   1.1424359068e+02   3.5133527172e+01    0.3397864    0.1379795  57.13  0.001412913    2.835    0.647
       108 -11.0872    230.2714    219.8647   9.0206553602e+01   1.0907863555e+00    0.2277278    0.1483729  35.29 0.0007877142    1.401    0.286
       109 -11.1920     15.5701    156.2836   1.2614414541e+02   4.0905851287e+01    0.2077438   0.09396749 -88.91  0.001056815    2.010    0.502
       110 -12.0084     81.5018    144.6597   1.0839303335e+02   3.5806147875e+01     0.350956    0.3171521  20.49 0.0006805873    1.314    0.239
       111 -11.1854     55.1792    148.1542   1.1560367001e+02   3.8578582456e+01    0.3095725    0.1411203 -58.71  0.001493932    2.236    0.553
       112 -10.6760     75.0990    142.6650   1.0975341153e+02   3.7156014739e+01    0.1884617    0.1806593  22.21 0.0008224591    1.248    0.199
       113 -12.6442     70.9372    137.5116   1.1010541853e+02   3.8862938414e+01    0.6912432    0.3010548  56.59  0.002781692    2.790    0.642
       114 -10.3768     39.2422    143.8232   1.1926853346e+02   4.1332908079e+01    0.2676338   0.05546459  36.12 0.0006939346    3.576    0.720
       115 -10.8969     87.3621    139.8209   1.0613888277e+02   3.5959591671e+01    0.2442323    0.1762505 -45.33 0.0008348728    1.605    0.377
       116 -11.5704     88.7591    136.0130   1.0514965105e+02   3.6560294212e+01    0.2827804    0.2462339 -34.81 0.0009280955    1.388    0.279
       117 -10.2642    108.4419    219.8997   1.1149953080e+02   1.8290414315e+01    0.1368152    0.1105391 -64.96 0.0008555411    1.566    0.361
       118 -10.6288     80.4192    137.0977   1.0752252555e+02   3.7594904051e+01     0.192089    0.1672986  54.51 0.0004622563    1.079    0.073
       119 -10.3900     94.3177    135.0807   1.0353751926e+02   3.5875727457e+01    0.1891075    0.1666051 -79.81 0.0005998014    1.145    0.127
       120 -11.7250     75.2599    128.2380   1.0749345356e+02   4.0309940936e+01    0.3304514    0.2498375  41.18  0.001597406    1.308    0.235
       121 -10.7533     78.0301    131.7387   1.0730648754e+02   3.9124707010e+01    0.2133754    0.1842463 -72.89 0.0003917372    1.146    0.128
       122 -10.0773     79.3184    128.6757   1.0644729499e+02   3.9613082523e+01    0.1914113    0.1207208 -54.37 0.0004127524    1.625    0.385
       123 -11.5641     63.6888    126.7734   1.1050023259e+02   4.2253713826e+01    0.2332335    0.2044188  71.75 0.0002988779    1.041    0.039
       124 -10.3468     60.2612    123.2062   1.1093595895e+02   4.3520409371e+01    0.2076557    0.1490221  47.95 0.0005703312    1.346    0.257
       125  -9.3428     19.5031    123.4585   1.2277408123e+02   4.7791318564e+01    0.1216085    0.1005465  83.15 7.866567e-05    1.015    0.015
       126 -10.9329     70.0363    121.9173   1.0791348697e+02   4.2489187350e+01    0.2084982    0.1807479  69.75 0.0005650723    1.084    0.077
       127  -9.7968     30.1313    121.8252   1.1953772141e+02   4.7223045260e+01    0.1567934    0.1360005 -57.05  0.001031368    1.305    0.234
       128 -11.5500     68.3624    114.0709   1.0703643012e+02   4.4530159524e+01     0.347014     0.221583 -33.61  0.001618811    2.240    0.553
       129 -11.2560     71.0463    117.2318   1.0680885281e+02   4.3417824667e+01     0.246212    0.2133432 -52.06 0.0008482194    1.236    0.191
       130 -11.2097      9.7039    116.9239   1.2508041618e+02   5.0051017367e+01    0.2020986    0.1568776  49.98 0.0002179701    1.281    0.219
       131 -10.5449    132.6628    246.5155   1.0970459889e+02   1.1451159465e+01    0.1723099    0.1251531  44.18 0.0006062789    1.131    0.116
       132  -9.8313     63.4776    115.0141   1.0866363597e+02   4.4988152032e+01    0.2026113    0.1659933  45.52 0.0005902278    1.231    0.188
       133 -16.9758    190.1690    115.0537   7.7302038843e+01   2.0949653845e+01     2.852231      1.58965  64.78   0.01146553    2.796    0.642
       134 -11.5512     33.6922    109.4188   1.1698744064e+02   4.9790008318e+01    0.3537129    0.2007706  57.48   0.00182708    1.807    0.446
       135 -12.4219     85.1131    105.7023   1.0035321623e+02   4.3881717630e+01    0.8707686    0.2556303 -56.91  0.002717156    3.482    0.713
       136  -9.8116     24.4249    109.1948   1.1987298439e+02   5.0698794709e+01    0.1825524    0.1027985  88.90 0.0009450081    1.687    0.407
       137 -10.4545    241.3091    104.4345   6.6585091903e+01   1.2189367847e+01     0.244605    0.1500809 -22.04 0.0007936646    1.443    0.307
       138 -12.3249    104.5384     93.7559   9.1741702220e+01   4.3036432436e+01    0.4685887    0.2837324 -38.20   0.00203791    1.815    0.449
       139 -12.0399    102.4348     98.5100   9.3574542455e+01   4.2410337450e+01    0.3841804    0.1754305  41.18  0.001502645    2.222    0.550
       140 -12.6469     72.8301     97.6785   1.0237209660e+02   4.7684949315e+01     0.459351    0.3323145 -70.66  0.001018774    1.392    0.281
       141 -17.5991    171.8352    154.2517   8.9372443474e+01   1.8404415438e+01     5.152982     2.374318  22.81   0.01622497    4.808    0.792
       142 -11.1405     60.9123     97.4969   1.0619559452e+02   4.9452675256e+01    0.2541369    0.1875659 -67.81 0.0005621326    1.268    0.211
       143  -9.9302     37.6926    220.6616   1.2492655051e+02   2.6708810737e+01   0.08463834   0.07986572 -24.88 0.0007042419    1.680    0.405
       144  -9.6422     17.4681     95.5044   1.2056064881e+02   5.4524046996e+01    0.1253231    0.1045296 -79.00 0.0008091885    1.055    0.053
       145 -12.3760    227.5006     90.8202   6.5246748713e+01   1.6609091714e+01    0.3665608    0.3070125  69.84  0.002138005    1.497    0.332
       146 -11.9109     92.0586     92.9515   9.5228550955e+01   4.5554822815e+01    0.2723943    0.2529059  81.41            0    1.092    0.084
       147 -11.9587     88.1384     89.1111   9.5443092228e+01   4.7116111745e+01    0.4385307    0.3403014  17.88  0.001494086    1.620    0.383
       148 -10.1158     57.9881    109.9413   1.0946285472e+02   4.6901781359e+01    0.1581253     0.144317  81.45 0.0003467426    1.034    0.033
       149 -11.0835     65.6811     90.0392   1.0299145122e+02   5.0541003483e+01    0.3717847    0.2392871  49.26  0.001672726    1.649    0.394
       150 -11.7323     78.8605     89.1536   9.8413329262e+01   4.8697431752e+01    0.2842746    0.2201054 -52.91 0.0003058483    1.240    0.193
       151 -10.7732    248.5290     87.9657   6.1787352108e+01   1.2805219100e+01    0.2416741     0.167596  -1.66 0.0006602175    1.463    0.317
       152 -11.8141    239.7443     83.2932   6.1757986602e+01   1.5077592121e+01    0.4841515     0.194807 -28.19  0.001301476    2.134    0.531
       153 -10.8478    230.9695     85.5114   6.3451846742e+01   1.6577344174e+01    0.2735944    0.2268913  59.44 0.0008036883    1.407    0.289
       154 -11.9379     98.2921     91.6977   9.3024981490e+01   4.4680761138e+01    0.2946691      0.28286 -18.85 0.0008440364    1.123    0.109
       155 -10.6340      8.7319     81.3297   1.2198451934e+02   5.8526573346e+01     0.204281    0.1569587  67.14 0.0006991407    1.287    0.223
       156 -10.6074     27.0000     79.4424   1.1478702138e+02   5.7623991002e+01    0.2367003    0.1457143 -55.96  0.000642062    1.466    0.318
       157  -9.9548    248.0680     77.6671   5.9377953779e+01   1.4105274129e+01    0.1682742    0.1530457   2.27 0.0004823886    1.108    0.097
       158 -11.6634     98.8737     77.7546   8.8903750315e+01   4.7584765288e+01    0.2747987    0.2118349 -54.78 0.0003546789    1.303    0.233
       159 -10.0495    230.9111     74.6005   6.0713478752e+01   1.7959374359e+01    0.2238195    0.1692595 -10.40 0.0004457196    1.271    0.213
       160 -11.6706     87.5548     73.1923   9.1108393387e+01   5.0748837314e+01    0.3666273    0.3034353 -30.02  0.001028216    1.298    0.230
       161 -12.0472     86.9301     67.7328   8.9593411902e+01   5.2045412849e+01    0.4537569     0.275688 -41.80   0.00110028    1.618    0.382
       162 -11.1611    235.8651     70.9624   5.9172659121e+01   1.7367760611e+01    0.4398262    0.2300881 -25.71  0.001465826    1.684    0.406
       163 -10.7413     99.8538     71.6483   8.6706991892e+01   4.8673971753e+01    0.2449725    0.2004538 -33.99 0.0003482151    1.248    0.198
       164 -11.0099     91.3562     68.7284   8.8455982863e+01   5.0982995438e+01    0.2267412    0.1850183 -47.02 0.0004959903    1.180    0.153
       165 -10.5297     24.0110     71.1069   1.1445510737e+02   5.9897043138e+01    0.1910191    0.1628302 -71.06 0.0004036637    1.010    0.010
       166 -11.0839     53.0331     69.7768   1.0253221215e+02   5.7076819555e+01    0.2739397    0.1822346 -51.12 0.0007294791    1.375    0.273
       167 -12.4384      6.7092     68.0749   1.2106352108e+02   6.1832518433e+01    0.2622164    0.2106412 -68.16 0.0003335719    1.077    0.071
       168 -10.1719     43.9838     68.9430   1.0588751921e+02   5.8410048597e+01    0.1642722    0.1444369 -63.48 0.0004198691    1.010    0.010
       169 -10.8078    244.3753     66.7088   5.7114348915e+01   1.6120691674e+01    0.2352506    0.1816325 -72.11  0.001200446    1.679    0.404
       170 -10.8236    241.3320     64.6818   5.6949302846e+01   1.6980660867e+01    0.3007741    0.1795525 -37.20  0.001069259    1.508    0.337
       171 -11.0764     48.5665     64.9500   1.0298841358e+02   5.8789771423e+01    0.4238606    0.2127665 -76.77  0.001588327    3.083    0.676
       172 -11.6440     93.4896     71.5291   8.8664689928e+01   4.9971675383e+01    0.2552971     0.225283 -73.48 0.0006848984    1.223    0.182
       173  -9.6629    229.9907     62.9872   5.7834039857e+01   1.9582879318e+01     0.170522    0.1389012 -23.84 0.0004533559    1.092    0.085
       174 -11.6935    129.9286     62.0454   7.5113591881e+01   4.3811094157e+01    0.2636267    0.2364083  75.57 0.0003655147    1.218    0.179
       175 -10.9377     29.9383     62.6670   1.1019935584e+02   6.1399420586e+01    0.2228666    0.1531262 -55.81 0.0004648022    1.264    0.209
       176 -15.9056    203.9582    163.6484   8.5173045073e+01   1.1339533892e+01     1.427589    0.6917129 -35.04  0.007128806    2.184    0.542
       177 -12.3738    138.4453     58.0782   7.1713051629e+01   4.2420273532e+01    0.4878516    0.3122786  27.27  0.001301204    2.044    0.511
       178 -10.9867     34.8476     57.8661   1.0685711225e+02   6.2048745667e+01    0.3111516     0.194326 -39.90  0.001107888    1.656    0.396
       179 -11.7422     18.4472     58.0310   1.1423501824e+02   6.3482408624e+01    0.2330791     0.195543 -77.82 0.0003272237    1.090    0.082
       180 -10.3239     10.2874     59.1581   1.1812231849e+02   6.3765396222e+01    0.2158819    0.1207906 -55.05  0.001174728    1.530    0.346
       181 -11.5698     58.2663    216.3088   1.2079667702e+02   2.5184426951e+01    0.3978196    0.2291172  31.37  0.002566431    1.713    0.416
       182 -10.2313      1.4243     57.8447   1.2188150092e+02   6.4552818585e+01    0.1832356   0.09841859 -76.03 0.0006230304    1.507    0.336
       183  -9.7398    241.1785     56.4532   5.4886243651e+01   1.7964723025e+01    0.1616207    0.1258052 -79.13 0.0009120324    1.606    0.377
       184 -12.8077    200.8562     52.5281   5.8697679665e+01   2.7590082486e+01     0.404911    0.3919158  19.68  0.001293893    1.072    0.067
       185 -11.5138    210.2151     54.2472   5.7937470776e+01   2.5135754081e+01    0.3900287    0.2697275  65.23  0.001532376    1.580    0.367
       186 -11.5876    206.3743     50.2818   5.7309926572e+01   2.6544445738e+01    0.3689114    0.2223002 -38.06  0.001155498    1.543    0.352
       187 -11.5205    112.0176     55.3059   7.7489474184e+01   4.9244939134e+01    0.4559915    0.2711096  64.86  0.001077483    2.155    0.536
       188 -12.4916    249.4059     52.9058   5.3155663907e+01   1.6660293021e+01    0.2540849    0.2091141 -30.35 0.0003969698    1.053    0.050
       189 -11.0940    129.0034     49.0133   7.0724990771e+01   4.6267004577e+01    0.2317659    0.2243095 -14.19 0.0004845872    1.020    0.020
       190 -11.6648    124.7992     53.6384   7.3454609027e+01   4.6521173645e+01    0.5267248    0.2831453  41.50  0.001184382    2.018    0.504
       191 -12.4872    117.5506     49.7225   7.3899208111e+01   4.8941416080e+01    0.6686211    0.4447132 -79.38  0.001518029    2.548    0.607
       192 -10.0877     66.0510     50.7257   9.1319664120e+01   5.9411741913e+01    0.1917873    0.1860776 -12.28  0.000532116    1.071    0.067
       193 -12.8347    147.2851     45.8537   6.5523059706e+01   4.2118839185e+01    0.5567905    0.3741611 -36.57 0.0009013392    1.458    0.314
       194 -12.1162    242.3934     48.3516   5.2699368584e+01   1.8621182067e+01    0.2776148    0.2516602  29.67  0.000720897    1.224    0.183
       195 -10.8166    230.7910     47.7431   5.3731985618e+01   2.1204559381e+01    0.3599999    0.1955303 -53.58  0.001628805    2.120    0.528
       196 -12.5516    140.6262     46.9205   6.7301919813e+01   4.3668319023e+01    0.5654873      0.28473 -36.08  0.001933666    1.920    0.479
       197  -9.4583     36.2785     49.3092   1.0373761252e+02   6.3884674347e+01    0.1349647   0.09012551 -35.87 0.0002305497    1.558    0.358
       198 -10.0167     29.6906     49.5748   1.0691610647e+02   6.4512409666e+01    0.1650126    0.1213169  41.42   0.00094307    1.564    0.361
       199  -9.5560    195.2564     48.6342   5.8325956787e+01   2.9460750750e+01    0.1540941    0.1010876 -51.22 0.0004911662    1.633    0.388
       200 -10.8136     94.5074     48.0171   8.0017773394e+01   5.4493603722e+01    0.2220774    0.1426349 -36.82 0.0003821953    1.515    0.340
       201 -11.7082    168.9960     44.6272   6.1087704626e+01   3.6660710750e+01     0.523841     0.294409  33.30  0.002055816    2.277    0.561
       202 -10.6610    173.9562     44.5015   6.0231613479e+01   3.5394710741e+01    0.2957927    0.1718512  49.49 0.0009005219    1.750    0.428
       203 -12.5109    175.7598     39.9903   5.8480310173e+01   3.5519562917e+01    0.4474337    0.3910068 -74.29  0.001138802    1.227    0.185
       204 -12.4307    181.6954     36.9819   5.6631424577e+01   3.4360976249e+01    0.3378263    0.2901594 -34.40 0.0003535845    1.120    0.107
       205  -9.9288      3.5052     46.5022   1.1902114907e+02   6.7149161838e+01    0.1240536   0.09964611 -66.98 -6.168807e-06    1.009    0.009
       206 -11.5262    192.0239     43.9799   5.7370600376e+01   3.0857099364e+01    0.2723735    0.2375766 -25.42            0    1.099    0.090
       207 -11.1363    191.5821     40.4396   5.6347513423e+01   3.1408744189e+01    0.2580966    0.2280145  15.50 6.765033e-05    1.215    0.177
       208 -12.4158    156.4654     44.3873   6.3222545089e+01   3.9951091203e+01    0.5732561    0.3536116  69.12  0.002262682    1.782    0.439
       209 -10.6975    186.3489     43.9445   5.8162915704e+01   3.2293709866e+01    0.2443801    0.2012294 -84.13 0.0004850534    1.361    0.265
       210 -11.2468    130.4583     44.1636   6.8576324810e+01   4.6679258415e+01    0.2822219    0.2158918  58.32 0.0006610882    1.328    0.247
       211 -11.6684    116.3935     41.1586   7.0896207538e+01   5.0650844102e+01    0.3977708    0.2507844  28.65   0.00109136    2.006    0.502
       212 -10.5739    124.7385     43.0259   6.9512212507e+01   4.8293242204e+01    0.2335662    0.2022174 -54.60 0.0003677839    1.233    0.189
       213 -11.3830    123.8046     39.5907   6.8407003455e+01   4.9063529338e+01     0.298969    0.2356265 -68.07  0.001429946    1.533    0.348
       214 -10.5402     41.2784     41.1961   9.8612087799e+01   6.5114720523e+01    0.2893203    0.1687189 -39.61  0.001068072    1.661    0.398
       215  -9.9067     37.0941     42.5221   1.0111001191e+02   6.5328676067e+01    0.1711597    0.1324395  27.63 0.0003440399    1.462    0.316
       216 -10.9572    216.2125     41.0609   5.3502075934e+01   2.5309844478e+01    0.2764943    0.1783362  59.35  0.001165637    1.642    0.391
       217 -10.9881     13.4800    216.7333   1.2922431428e+02   2.9703461319e+01    0.1765593    0.1079315  42.68 0.0008249356    1.322    0.243
       218 -11.8687     92.8823     38.5737   7.6682598632e+01   5.6554666292e+01    0.4999165    0.2570378 -45.35   0.00132848    2.022    0.506
       219  -9.4639    231.3443     40.2840   5.1693300188e+01   2.1919700464e+01    0.1350836   0.09790239  26.61 0.0007016583    1.642    0.391
       220 -10.3499     61.6569     40.2932   8.9041103783e+01   6.2312388955e+01    0.1355223    0.1114685  88.98    0.0002262    1.659    0.397
       221  -9.9925     18.5184     39.9466   1.0971416265e+02   6.7731288761e+01    0.1961712   0.06912567 -46.39 0.0008088682    2.511    0.602
       222 -11.3294    165.1623     38.3298   5.9614726452e+01   3.8502695479e+01    0.2938043    0.2623256  82.63 0.0002314533    1.175    0.149
       223 -11.9188    133.0229     38.5537   6.5865484170e+01   4.6877199627e+01    0.3868568    0.3419929  89.89  0.002003685    1.252    0.201
       224 -12.5783    132.2738     33.1889   6.3952368041e+01   4.7839155629e+01    0.3414001    0.3121311  67.33 0.0004488553    1.122    0.108
       225 -11.6805     94.5837    214.1829   1.1360858927e+02   2.1028666544e+01    0.3383978    0.1834523  33.04  0.001301284    1.677    0.404
       226 -10.5070     55.4556     38.5355   9.0996911093e+01   6.3674971246e+01    0.1385014    0.1242212 -33.97 -3.376942e-06    1.013    0.013
       227 -11.3084    216.6456    221.8135   9.2623787608e+01   2.7370102176e+00    0.1911152    0.1387527  23.89 0.0003249687    1.067    0.063
       228 -10.0485     79.0226    213.6554   1.1658802779e+02   2.3124175912e+01     0.158773    0.1079059  45.47 0.0004501842    1.138    0.121
       229 -10.1020    165.5116    245.9717   1.0408406842e+02   7.1630015033e+00    0.1230433    0.1016707 -22.16 0.0009952723    1.558    0.358
       230 -10.3769    219.5280     34.9365   5.1433030844e+01   2.5220399809e+01     0.212883    0.1246916 -26.13 0.0005313564    1.546    0.353
       231 -11.4640    213.9557     19.7226   4.7677990411e+01   2.8158001422e+01    0.3117827    0.2016969 -12.54 0.0007654668    1.623    0.384
       232 -12.6940    214.4860     31.5095   5.0988869854e+01   2.6793537857e+01    0.4469302    0.2694235  65.87 -0.0001065136    1.752    0.429
       233 -12.2566    216.6860     25.9587   4.9195975589e+01   2.6860621753e+01    0.3401132    0.2415692 -41.86 0.0003858014    1.290    0.225
       234 -12.0065    199.5770     32.5828   5.2948179193e+01   3.0328168575e+01    0.2823987    0.2561486 -46.31 0.0006521291    1.057    0.054
       235 -11.0946    140.5733     32.3013   6.1893688080e+01   4.5789469204e+01    0.3136795    0.1321051 -33.24  0.001148054    2.245    0.555
       236 -11.0998    117.2390     29.9688   6.6104027760e+01   5.2142488868e+01    0.2771597    0.2090182  -0.90 0.0004570711    1.515    0.340
       237 -10.5535     55.2137     33.5833   8.8976544062e+01   6.4712090785e+01    0.1860834    0.1301025  21.93 0.0008263752    1.680    0.405
       238 -11.0896     85.7356     33.5853   7.6880978387e+01   5.8964943177e+01    0.3684667    0.2322888 -38.51 0.0003616636    1.528    0.346
       239 -11.4514    195.4963     28.4692   5.2176347208e+01   3.1819123623e+01    0.2511842    0.1819856  47.45 0.0009730899    1.469    0.319
       240 -10.5937     30.6221    213.9992   1.2593136335e+02   2.8536826744e+01     0.141986    0.1062616  66.16 0.0004404505    1.100    0.091
       241 -11.1553    155.8542    245.2769   1.0562851531e+02   8.5264935390e+00    0.2384414    0.1322106  29.54 0.0009066779    1.480    0.324
       242 -10.4201    169.4518     29.5009   5.5932695218e+01   3.8475246520e+01    0.2515515    0.1459538  66.64 0.0001514688    1.742    0.426
       243  -9.8446      6.7614     28.9868   1.1311216101e+02   7.1045249010e+01    0.1618985   0.08567061 -65.04 0.0003390281    1.540    0.351
       244 -11.1695    140.8346     27.8934   6.0153515662e+01   4.6296170309e+01    0.3304382    0.1503851  40.47  0.001167991    2.592    0.614
       245 -11.0092    209.6581     25.1984   4.9666388610e+01   2.8641116270e+01    0.3327129    0.1994377  82.68  0.001560456    1.893    0.472
       246 -11.8968    243.2541    243.3057   9.1556095634e+01  -2.5476848850e+00    0.2669751    0.1353529  41.17  0.001798011    2.031    0.508
       247 -10.4336     65.6554     23.7908   7.9766122427e+01   6.4694304471e+01    0.2015032    0.1198695 -43.89 0.0009427228    1.678    0.404
       248 -10.1846    228.6778     23.6847   4.7486515812e+01   2.4283205309e+01     0.134257   0.09798169  26.94 0.0004731424    1.661    0.398
       249 -11.4396    175.0946     22.2568   5.2695890669e+01   3.7805905155e+01    0.2596275    0.2422258 -81.15 0.0003441678    1.078    0.072
       250 -11.4791    126.7065     28.0805   6.3120962362e+01   4.9982574830e+01    0.3788692    0.1965662  59.07   0.00153851    1.886    0.470
       251 -10.7433    224.5075    216.4563   9.0599713531e+01   2.1889454510e+00    0.1838683    0.1389768  12.36 0.0001145233    1.084    0.078
       252 -11.0702    222.8442     21.7822   4.7467997027e+01   2.5829997881e+01    0.1995114    0.1782099  23.28 0.0006432133    1.259    0.206
       253 -10.3223     97.8843     21.1532   6.7287360106e+01   5.8137763130e+01    0.2161048    0.1975497 -74.11 0.0006010468    1.267    0.211
       254 -10.7954    121.6544    243.9221   1.1136754234e+02   1.3213249375e+01    0.2073469    0.1154356  43.52 0.0007622635    1.322    0.244
       255  -9.7112     15.3451    223.7121   1.2911698883e+02   2.8384365257e+01    0.1091283   0.04623798  55.40   0.00059029    1.652    0.395
       256 -11.9690     16.2423     18.8269   1.0353255535e+02   7.2603526452e+01    0.2354462    0.2011714 -47.44 0.0002961647    1.063    0.059
       257 -10.7600     47.4454    243.2377   1.2427766088e+02   2.2175510253e+01    0.2237839   0.09840126  60.67  0.001232283    1.945    0.486
       258  -9.9288    174.6795     17.3245   5.1086305967e+01   3.8440481560e+01    0.1582742    0.1015741 -56.88 0.0003834151    1.678    0.404
       259 -16.8652    212.6474    140.0179   7.8941103943e+01   1.2944398006e+01     2.203915     1.627591 -46.77   0.01243868    1.751    0.429
       260 -10.2396    182.7643     16.0170   4.9698777634e+01   3.6434672859e+01     0.269522     0.182858 -82.30  0.001279882    1.636    0.389
       261  -9.8848    137.9611     16.5149   5.6197961580e+01   4.8416523184e+01    0.2199395    0.1446826  66.89 -2.897883e-05    1.506    0.336
       262 -10.1780     90.0000     14.9344   6.6541802737e+01   6.0838308667e+01    0.2426028   0.07946707 -27.63 0.0008109779    3.002    0.667
       263 -10.8448    236.9370    213.6783   8.8259041201e+01   7.7793187204e-01     0.202899    0.1293194  30.30 0.0007951731    1.278    0.217
       264  -9.7257     94.7934     14.0262   6.4691995113e+01   5.9817914163e+01    0.1911368    0.1121456 -25.58 0.0003756085    1.679    0.405
       265 -10.6455    205.9929     12.9921   4.6437401019e+01   3.0774833472e+01    0.2189349    0.1578299  32.63 0.0006475013    1.635    0.388
       266  -9.2201     76.6898     11.6810   6.9115559731e+01   6.4283603717e+01     0.146974    0.1015592  17.45 0.0006244823    1.642    0.391
       267 -10.5065    224.6923    242.0451   9.4146852065e+01  -1.7174474121e-01    0.1729002     0.153064  73.08  0.001314536    2.696    0.629
       268  -9.7450    108.3194     10.3181   5.9439894576e+01   5.6897385179e+01    0.1568341     0.102804  29.57 0.0005352447    1.661    0.398
       269  -9.8827    201.5872    243.1960   9.7881577385e+01   2.6800524544e+00    0.1241387   0.08395039  -3.03  0.000347148    1.587    0.370
       270 -10.4038     81.7840    242.8268   1.1827076507e+02   1.8360591349e+01    0.1456723   0.08795556  53.76 0.0004627474    1.318    0.241
       271 -10.2050     33.0000    242.9520   1.2673634580e+02   2.3699805849e+01    0.1300738   0.04985976 -80.02 0.0007991733    2.920    0.658
       272 -10.8276    189.6582    241.7776   9.9621253013e+01   4.3876281546e+00    0.1831809    0.1024243  29.77 0.0007630106    1.327    0.246
       273 -10.2918    207.8973    240.9072   9.6595580151e+01   2.0744401475e+00    0.1672821    0.1041972  20.96  0.001221464    1.256    0.204
       274 -10.5495    111.4445    241.0177   1.1289958306e+02   1.4916022215e+01    0.2545092    0.0837615  47.11  0.001286921    2.478    0.596
       275 -11.7410    232.3930    236.2541   9.2207049204e+01  -6.4174493666e-01    0.2701356     0.171579   9.24  0.001190361    1.315    0.240
       276 -12.1551    194.0515    236.1390   9.8205053291e+01   4.3695888429e+00    0.3086176    0.2318971 -32.90  0.002415701    1.758    0.431
       277 -10.8190    192.1327    230.8289   9.7837524073e+01   5.1779705130e+00    0.1981099    0.1221009  33.30  0.000647979    1.212    0.175
       278 -11.2556    182.6481    237.1612   1.0020791324e+02   5.8051350953e+00    0.2377987    0.1659489  -5.56  0.001291438    1.681    0.405
       279 -12.0903    126.5049    236.9665   1.0986097216e+02   1.3470153455e+01    0.2550197    0.1988523  78.13 0.0009941092    1.705    0.413
       280 -11.1841    245.1971    235.2856   9.0175733822e+01  -2.1435126328e+00    0.2457329    0.1252926 -23.73  0.001719626    2.096    0.523
       281 -11.0345    102.9381    236.5008   1.1402646654e+02   1.6625748554e+01    0.2447681    0.1325725  59.52  0.001466151    1.977    0.494
