#   1 NUMBER                 Running object number                                     
#   2 MAG_AUTO               Kron-like elliptical aperture magnitude                    [mag]
#   3 X_IMAGE                Object position along x                                    [pixel]
#   4 Y_IMAGE                Object position along y                                    [pixel]
#   5 X_WORLD                Barycenter position along world x axis                     [deg]
#   6 Y_WORLD                Barycenter position along world y axis                     [deg]
#   7 A_WORLD                Profile RMS along major axis (world units)                 [deg]
#   8 B_WORLD                Profile RMS along minor axis (world units)                 [deg]
#   9 THETA_WORLD            Position angle (CCW/world-x)                               [deg]
#  10 FWHM_WORLD             FWHM assuming a gaussian core                              [deg]
#  11 ELONGATION             A_IMAGE/B_IMAGE                                           
#  12 ELLIPTICITY            1 - B_IMAGE/A_IMAGE                                       
         1 -14.4858     48.6030    122.1945   1.1821682453e+02   4.5070970015e+01     1.980802     1.474654  44.92   0.01268506    1.456    0.313
         2 -15.3227      2.8514     34.4869   1.1727362990e+02   6.8272918678e+01     5.723219     1.605263 -60.38   0.02712321    2.309    0.567
         3 -13.4809      4.3288     98.7335   1.2707015552e+02   5.4172825337e+01     2.212349    0.4851937 -63.56   0.00958468    3.025    0.669
         4 -13.4318    138.2172     91.8520   8.8700241275e+01   3.6805994679e+01     1.645526    0.9886019 -25.54  0.006680748    2.230    0.551
         5 -12.9780    184.2095     47.3800   6.5592313275e+01   3.3209457571e+01     2.805262     1.015653 -37.16  0.009651979    2.551    0.608
         6 -14.1333    205.9647     15.3263   5.2502266170e+01   3.1430784833e+01     2.437885     1.530237  34.35   0.01106204    1.916    0.478
         7 -13.3886    193.0733     30.5865   5.8876093508e+01   3.3095691824e+01     1.120919    0.7663321  25.80  0.005087558    1.780    0.438
         8 -13.5810      4.3578    118.1357   1.2884205870e+02   4.9953310750e+01     4.937008    0.4463558 -65.71   0.01760035    4.733    0.789
         9 -11.1368     91.9427    144.0590   1.1103117014e+02   3.4517415951e+01     0.220829    0.2095862 -59.36 0.0003282751    1.267    0.211
        10 -12.1011    140.0505    249.8534   1.1482128156e+02   9.5864386154e+00    0.6358522    0.1705741  38.80  0.002728147    3.607    0.723
        11 -11.4083     70.8727    248.9316   1.2545958699e+02   1.8957135705e+01      0.41056     0.182946  39.43  0.001237434    2.072    0.517
        12 -12.4995     49.2263    213.7035   1.2671238171e+02   2.6975100682e+01    0.4827086    0.2873238 -59.89 0.0009456113    2.178    0.541
        13 -13.2668     58.6801    203.9791   1.2440636169e+02   2.7520204868e+01     2.444576     1.120478 -74.05   0.01469443    2.176    0.541
        14 -14.8378     34.3760    225.3964   1.2980037938e+02   2.6699119363e+01      1.83009     0.773833  60.79  0.009871212    1.773    0.436
        15 -15.8320      4.2389    244.3180   1.3503903425e+02   2.6760969365e+01     1.644941    0.7006834 -71.15  0.007502375    2.599    0.615
        16 -10.3052    119.7311    228.8548   1.1606819333e+02   1.5300220111e+01    0.2216251    0.1056692  59.02  0.001237098    2.089    0.521
        17 -11.2382    152.4801    228.2057   1.1054552399e+02   1.0470181544e+01    0.2808257     0.130184  32.13  0.001410968    2.596    0.615
        18  -9.6607     77.1604    223.2244   1.2269357211e+02   2.2014517473e+01    0.2097574    0.1881592  32.78  0.001208692    1.637    0.389
        19  -9.4884     73.2047    212.8375   1.2255347328e+02   2.4203542914e+01    0.1690193    0.1086593  66.38  0.000648523    1.256    0.204
        20 -12.2148     95.8038    207.6779   1.1812106694e+02   2.2006664879e+01    0.5391905    0.3834007  41.09   0.00250049    1.416    0.294
        21 -13.1181     85.3150    203.4651   1.1960040422e+02   2.4173789067e+01    0.9514952    0.5509575  55.47  0.004358068    1.394    0.283
        22 -14.8817     36.1615    243.6153   1.3039296572e+02   2.3696482050e+01     1.381494     0.431069  48.06  0.006266266    2.094    0.522
        23 -14.4874     12.4152    206.3550   1.3245165546e+02   3.2058743991e+01     1.002231    0.8508049  51.78  0.008649734    1.514    0.340
        24 -14.1365    104.2772    188.3306   1.1446824095e+02   2.4070597094e+01     1.379229     1.176111  44.88   0.00710109    1.266    0.210
        25 -11.1469    198.6405    198.9470   9.8757237485e+01   6.7181938715e+00    0.4063464    0.1926463  35.71  0.002075393    1.909    0.476
        26 -12.3795    115.7695    192.5341   1.1279143985e+02   2.1571925038e+01    0.8871866    0.5362348 -31.98  0.004265017    3.494    0.714
        27 -10.9594     44.7453    147.2769   1.2215242762e+02   4.0079593917e+01    0.5350915    0.4032385  86.97  0.002470366    1.071    0.066
        28 -12.1142     25.3692    135.3635   1.2536625387e+02   4.4566959640e+01    0.8158947    0.4616093 -70.56  0.004856345    1.492    0.330
        29 -10.1271    120.4963    249.0478   1.1780355281e+02   1.2448731390e+01    0.1923883    0.1163865  37.36  0.001036666    1.576    0.366
        30 -14.0266     73.4838    160.6138   1.1738381821e+02   3.3782946591e+01      1.95874    0.9611031 -70.61    0.0102007    2.001    0.500
        31 -11.3031     72.7489    183.6743   1.2004481566e+02   2.9400330099e+01    0.4266899    0.3242984  38.38  0.001737918    1.519    0.341
        32 -12.1806     77.0062    177.7233   1.1859659498e+02   2.9950639593e+01    0.5683959    0.3962532  86.65  0.000741218    1.335    0.251
        33  -9.2846    208.6602    186.6695   9.5038690781e+01   6.5398400696e+00    0.1296736   0.08398173  17.46 0.0007051709    1.742    0.426
        34 -14.3315      3.3233    188.9003   1.3323999289e+02   3.5945448550e+01     2.052233    0.4114779 -79.90  0.009159189    4.132    0.758
        35 -12.2504     54.7560    165.3521   1.2183711009e+02   3.5216648899e+01    0.8101838    0.5715799  53.87  0.004753542    1.289    0.224
        36 -11.2758     53.8051    180.0059   1.2337824530e+02   3.2470326053e+01     0.545144    0.3750723 -56.07  0.003255985    1.846    0.458
        37 -11.4100     48.1033    173.4728   1.2393267187e+02   3.4393764391e+01    0.4750833    0.3361734  56.90  0.001957046    1.233    0.189
        38 -10.7023    101.8012    175.1372   1.1332452821e+02   2.6845076170e+01    0.4458535    0.2915292  29.82  0.002407928    1.987    0.497
        39 -10.0070     34.1343    174.8887   1.2678473902e+02   3.5647974821e+01    0.1939115    0.1386711  52.09 0.0005611892    1.321    0.243
        40 -12.9057     35.0983    165.6099   1.2588356025e+02   3.7364900628e+01    0.9119471    0.6925206  88.00  0.006545959    1.096    0.087
        41 -12.9054    126.6357    139.9317   1.0248703176e+02   2.9477324430e+01     1.712216     1.126001  30.11   0.00836686    1.911    0.477
        42 -13.5512    117.4376    126.8785   1.0202995808e+02   3.3812363948e+01      1.23865     1.103744  -5.61  0.007118366    1.467    0.318
        43 -13.3538    132.0243    121.3309   9.7455808093e+01   3.2177353466e+01     1.547563     1.044039 -15.26  0.006512649    2.681    0.627
        44 -12.4623    108.3539    153.3020   1.0883149988e+02   3.0011392121e+01     1.178837    0.8015502  45.60  0.006371409    1.406    0.289
        45 -11.0590    105.4359    143.1676   1.0782214153e+02   3.2540490934e+01    0.5387955    0.4480653 -20.47  0.002794724    1.759    0.431
        46 -10.6787    132.8143    246.8452   1.1567171250e+02   1.0994171490e+01    0.1553618    0.1168684  41.74 0.0007104384    1.210    0.174
        47 -12.1637    162.9330    244.7347   1.1070612088e+02   6.8571055915e+00    0.3265823    0.1733257  32.67  0.002017858    1.857    0.461
        48 -11.3617     84.3530    143.3146   1.1265266547e+02   3.5817082493e+01    0.5311438    0.4043472 -57.18  0.002696901    1.385    0.278
        49 -10.0293    100.3339    129.1234   1.0652613257e+02   3.6322784537e+01    0.2562974    0.2083839 -30.41  0.000900865    1.637    0.389
        50 -11.2682     71.4749    122.9863   1.1255138138e+02   4.2039782534e+01    0.5322769    0.2247815 -57.38  0.002409123    2.151    0.535
        51 -12.5204     79.4721    119.7614   1.0996971079e+02   4.1617352318e+01    0.9828895    0.8062291  12.07  0.005562431    1.758    0.431
        52 -11.0728     94.5071    119.3595   1.0609515977e+02   3.9380089547e+01    0.6249913    0.3597071 -42.58  0.002919144    2.057    0.514
        53 -10.2448    109.0398    120.6567   1.0276527172e+02   3.6628507867e+01    0.2477409    0.1978283 -50.10 0.0004773529    1.280    0.219
        54 -11.0412    107.7220    114.6232   1.0181604909e+02   3.8147544303e+01     0.402137    0.2353541  55.55  0.001859741    1.849    0.459
        55  -9.6984    167.5631    112.3935   8.7520153196e+01   2.6409021197e+01    0.3042072     0.221576 -73.55  0.000768882    1.909    0.476
        56 -12.0167    116.7054    110.0499   9.8564285769e+01   3.7467595419e+01    0.6145617    0.3554689  51.41  0.002804253    1.788    0.441
        57 -10.0175     34.8230    106.1826   1.1959834399e+02   5.0087223912e+01    0.3500829     0.179892 -48.92  0.001826992    2.129    0.530
        58 -11.7959    178.6824    241.2986   1.0783460308e+02   4.8948035056e+00    0.1943033    0.1742705  58.47   0.00161811    1.329    0.247
        59 -13.7253     63.4552    147.7791   1.1801754138e+02   3.7747436658e+01     1.958149     1.419453  35.29   0.01220682    1.630    0.386
        60 -13.2037     85.1260    167.8346   1.1581192824e+02   3.0723537201e+01    0.9509698    0.8762742 -51.80  0.005024242    1.433    0.302
        61 -10.9422     73.7028     89.9253   1.0545344939e+02   4.9105951684e+01     0.443235    0.3013541 -60.44  0.002385017    1.315    0.240
        62 -10.9863     80.0905     86.9021   1.0286147317e+02   4.8821158329e+01    0.5975348    0.4791737 -36.82  0.003380832    1.366    0.268
        63  -9.2338     51.9947     89.5334   1.1181738333e+02   5.2029970851e+01    0.1772386    0.1269003  38.08  0.001037648    1.614    0.380
        64 -11.2874    115.2464     99.2572   9.6333071707e+01   4.0019065724e+01    0.5982814    0.1541162 -51.23  0.001719958    4.138    0.758
        65 -11.1967    102.8529     63.2694   8.9367144888e+01   4.9838962934e+01     0.293198     0.191673 -18.33  0.001265456    2.163    0.538
        66  -9.4814     87.3952    240.6406   1.2233879813e+02   1.8063390407e+01    0.1543049   0.09870382  82.68 0.0005721736    1.600    0.375
        67 -11.6018    193.5165    237.2613   1.0500809423e+02   3.0950104207e+00    0.2782566    0.1895878 -51.44  0.001703733    2.210    0.547
        68 -14.5075     15.3059    249.9100   1.3365482518e+02   2.4894183512e+01    0.8863388    0.4143458  36.19  0.006326932    2.392    0.582
        69 -10.6709    126.4055    229.8412   1.1505544678e+02   1.4183985803e+01    0.2728319   0.08908034  52.20  0.001255439    2.816    0.645
        70 -11.7711    186.1426     36.1965   6.1692869177e+01   3.4220759672e+01    0.4917315    0.4011228 -44.81  0.001118055    1.222    0.181
