#   1 NUMBER                 Running object number                                     
#   2 MAG_AUTO               Kron-like elliptical aperture magnitude                    [mag]
#   3 X_IMAGE                Object position along x                                    [pixel]
#   4 Y_IMAGE                Object position along y                                    [pixel]
#   5 X_WORLD                Barycenter position along world x axis                     [deg]
#   6 Y_WORLD                Barycenter position along world y axis                     [deg]
#   7 A_WORLD                Profile RMS along major axis (world units)                 [deg]
#   8 B_WORLD                Profile RMS along minor axis (world units)                 [deg]
#   9 THETA_WORLD            Position angle (CCW/world-x)                               [deg]
#  10 FWHM_WORLD             FWHM assuming a gaussian core                              [deg]
#  11 ELONGATION             A_IMAGE/B_IMAGE                                           
#  12 ELLIPTICITY            1 - B_IMAGE/A_IMAGE                                       
         1 -14.4289    157.9699     52.7204   8.2007624592e+01   3.9364598577e+01     1.552184     1.243108   8.08  0.004870633    1.527    0.345
         2 -14.4684    170.0004     36.8196   7.4704121898e+01   3.8512974002e+01     1.109194     1.003109  -1.18  0.003912747    1.252    0.201
         3 -11.6825    189.8143     15.0800   6.5310434339e+01   3.5920288537e+01    0.2811787    0.2183033 -51.68 0.0009300485    1.279    0.218
         4 -14.0106    185.7591      5.3900   6.2997178423e+01   3.7952774211e+01    0.9673408    0.7304263  74.79   0.00418846    1.186    0.157
         5 -12.2746    168.4081    233.9066   1.2097589801e+02   3.5996915887e+00     0.294452    0.2133352  61.49  0.001090963    1.598    0.374
         6 -19.2334     74.2219    242.7996   1.3931277451e+02   1.6813523516e+01     6.448879     4.702112  59.25   0.04463781    1.040    0.039
         7 -10.4293      5.3065    199.0322   1.4886984127e+02   3.3029750641e+01    0.1450839   0.09659562  79.16 0.0004873664    1.084    0.078
         8 -11.6186    208.5417    197.0145   1.0747253428e+02   2.1319470128e+00    0.2380482    0.1747499  51.31 0.0005766586    1.512    0.339
         9 -11.6473    163.7587    204.7041   1.1751614217e+02   9.0400795198e+00    0.3280117    0.2653988 -52.05 0.0005521718    1.444    0.307
        10 -10.7273    175.1109    194.0617   1.1344422310e+02   8.7655317542e+00    0.2049183    0.1637618  79.46 0.0006069049    1.689    0.408
        11  -9.5920    153.2984    194.2890   1.1795635534e+02   1.2807867122e+01    0.1303859    0.1046009  11.83 0.0001803195    1.557    0.358
        12 -11.1045    180.1343    192.3391   1.1213009530e+02   8.1152960557e+00    0.2347671    0.2155874  88.83  0.000549723    1.331    0.249
        13 -11.6543    167.1204    191.5546   1.1463153382e+02   1.0709707297e+01    0.3492414     0.227329  25.02  0.001594645    1.805    0.446
        14 -11.0862    158.7860    205.7707   1.1868459530e+02   9.7580678059e+00    0.3057219    0.2011627  44.15  0.001088968    1.311    0.237
        15 -10.5730    176.5053    188.0220   1.1208494355e+02   9.5485270496e+00     0.197451    0.1382493 -42.86 0.0007373699    1.581    0.368
        16 -10.9275    184.2334    186.8331   1.1030742375e+02   8.2768492419e+00    0.2075966    0.1865583  57.89 0.0006443287    1.216    0.178
        17 -12.9865    206.5521    180.0492   1.0464136163e+02   5.1488650962e+00    0.8300887    0.4025412  34.18  0.002974582    2.130    0.531
        18 -12.7489    196.7345    172.6466   1.0507673207e+02   8.2822489931e+00    0.7737137    0.4086835 -49.69   0.00253185    2.310    0.567
        19 -11.8048      9.8635    216.0019   1.4890513988e+02   2.9302144090e+01    0.3099337    0.1508521 -54.63  0.001736655    3.176    0.685
        20 -19.2604     55.4690     89.0250   1.2266822967e+02   5.2787695463e+01     19.36621     1.290842 -57.92   0.03155925   14.384    0.930
        21 -12.3461    125.6750    172.4197   1.2028239232e+02   2.2284610661e+01    0.3584067    0.2898265  44.99  0.001305605    1.180    0.153
        22 -12.7780    137.1406    170.9635   1.1742320781e+02   2.0427972216e+01    0.5912269    0.3394606  46.79  0.001997695    1.619    0.382
        23 -11.8805    144.0899    168.1540   1.1533884231e+02   1.9656930026e+01    0.3892293    0.2116785  58.14  0.001590655    2.163    0.538
        24 -11.4754     25.2869    165.7141   1.4256838805e+02   3.8177283511e+01     0.227082    0.2007222   6.73 0.0008133249    1.698    0.411
        25 -10.8445    223.9688    164.4091   9.8222561514e+01   4.3424175069e+00    0.2434305    0.1854953 -48.39 0.0005966133    1.550    0.355
        26 -14.1099    194.5560    194.0422   1.0959472037e+02   5.1398739926e+00     1.077358    0.7855615 -66.22   0.00299346    2.129    0.530
        27 -10.9849    237.5090    159.4977   9.4802203116e+01   2.5582014377e+00    0.1350722    0.1207049  -3.05 -1.558362e-05    1.019    0.018
        28 -10.2351    179.1348    206.1287   1.1470265337e+02   6.0155919489e+00    0.1692781    0.1459848  59.59            0    1.288    0.224
        29 -11.7058    163.4555    155.3083   1.0844595591e+02   1.8324954136e+01    0.2871291    0.2801235  51.20  0.001622715    1.024    0.023
        30  -9.7301    144.3020    156.6496   1.1304696682e+02   2.2004130713e+01    0.1526043    0.1150372  84.64 0.0007039194    1.696    0.410
        31 -13.9494    132.9194    145.3204   1.1339854656e+02   2.6741484982e+01     1.084001    0.6003926 -60.68  0.003939602    2.103    0.525
        32 -11.0677     16.4870    150.1289   1.4320103214e+02   4.2463440276e+01     0.183911    0.1709945  30.92  0.001370309    1.447    0.309
        33 -10.5982    174.8380    149.1051   1.0462614521e+02   1.7135254992e+01    0.2296231    0.2062347  86.06  0.000637302    1.273    0.214
        34 -11.2002    140.5500    199.5141   1.2144514424e+02   1.4173254018e+01    0.2243886    0.2087467 -74.76 0.0006521086    1.192    0.161
        35 -12.5804    144.7448    145.5746   1.1062967247e+02   2.4261638006e+01     0.438425    0.3439296  75.69  0.002128418    1.492    0.330
        36 -11.4511      4.6304    140.7150   1.4519911300e+02   4.5506794485e+01    0.2135793    0.1657921 -81.66 0.0003637318    1.085    0.078
        37  -9.6878    172.2983    138.6513   1.0281201835e+02   1.9752233668e+01    0.1547444    0.1214781 -82.96 0.0004626797    1.684    0.406
        38 -12.6452    105.9894    130.7216   1.1711837638e+02   3.5245531637e+01    0.4366301    0.3591957 -75.61  0.001233501    1.235    0.190
        39 -11.7976    108.5556    125.3150   1.1524785264e+02   3.6020634112e+01    0.3094485    0.2804502  -8.26 0.0007969351    1.339    0.253
        40 -11.0259    176.4831    233.9833   1.1948880833e+02   2.2438068265e+00    0.1574467    0.1236393 -40.02 0.0005883987    1.566    0.362
        41 -12.8579    119.2990    129.5085   1.1336226659e+02   3.2995744752e+01    0.4481464    0.4133851 -40.59  0.001260587    1.161    0.139
        42 -13.0485    125.5266    127.1893   1.1122666054e+02   3.2272401681e+01     0.699141    0.4519149  89.53  0.002655152    2.648    0.622
        43 -11.9646    136.0000    128.5283   1.0889830583e+02   2.9800269015e+01    0.4525317     0.200651 -53.09  0.001615032    2.439    0.590
        44 -12.3843      2.5814    126.1581   1.4443232960e+02   4.8922819510e+01    0.6195756    0.1756012 -80.38  0.002497327    3.161    0.684
        45 -11.4485    160.5414    127.3594   1.0275737050e+02   2.4672038721e+01    0.4420293    0.2528787 -53.02  0.001775984    1.934    0.483
        46 -12.8264    135.6934    122.0291   1.0741415283e+02   3.1292294548e+01     0.671509    0.3423896 -58.86  0.002440703    2.449    0.592
        47 -11.5498    113.6821    118.6028   1.1231177215e+02   3.6579366804e+01    0.2752759    0.2513875  81.34 0.0004781868    1.113    0.102
        48 -10.9692    136.7102    197.5810   1.2195169807e+02   1.5225820859e+01    0.4056421     0.245897  73.48  0.001782986    2.516    0.603
        49 -11.4275    117.0439    115.6468   1.1068919904e+02   3.6585563383e+01    0.4082729    0.2146315  61.07  0.001454096    2.745    0.636
        50 -11.1713    167.9297    113.2938   9.7547059599e+01   2.5837354568e+01     0.419362    0.2954424 -80.47  0.001315318    2.121    0.528
        51 -11.3332    134.6409    106.0497   1.0358227457e+02   3.4991992967e+01    0.4031673    0.1498151 -47.21  0.001317212    2.715    0.632
        52 -11.6391      2.6486    112.4677   1.4305489966e+02   5.2020620438e+01    0.2263844    0.1883165 -54.32  0.001511033    1.297    0.229
        53 -10.8608    205.4791    110.1817   8.9124738187e+01   1.7581182734e+01    0.3303543      0.21599  43.25 0.0009803461    1.605    0.377
        54 -12.6324     85.0024    109.6720   1.1828694302e+02   4.3789289339e+01    0.4019071    0.2663007 -52.65  0.001962133    1.405    0.288
        55 -11.3649    117.6352    108.9008   1.0882793711e+02   3.7980571895e+01    0.3186197    0.1356439 -41.17  0.001106363    2.544    0.607
        56 -11.2741      9.7141    111.1210   1.4091595486e+02   5.1882945579e+01    0.3524885    0.1594884  -0.77  0.001510289    4.568    0.781
        57 -10.9942     95.5848     79.9755   1.0712842427e+02   4.8593001997e+01    0.2717269     0.212537  44.85 0.0005631113    1.350    0.259
        58 -11.1511    201.1376    221.6604   1.1307124004e+02  -1.5025755266e-01    0.1916075    0.1746062 -39.91  0.001276244    1.389    0.280
        59 -11.8408     13.3609    245.2519   1.4964549208e+02   2.3659572864e+01    0.4058976   0.08276527 -70.28  0.001900833    4.318    0.768
        60 -12.6207    158.9423    235.6232   1.2297269106e+02   4.9201109844e+00    0.3650361    0.2553036  32.44  0.001353174    1.318    0.241
        61 -12.9905    173.5891     29.7510   7.1916894205e+01   3.8474346099e+01    0.4619065    0.3923349  17.26  0.001181328    1.391    0.281
        62 -10.7625     13.5312     59.7935   1.3101934651e+02   6.3128719807e+01    0.1758653    0.1592324 -23.02 0.0003972485    1.235    0.190
        63 -10.6875    134.5774     30.0436   7.9188166876e+01   4.8485401089e+01    0.2607348    0.1960865  80.45 0.0006247653    1.530    0.346
        64 -11.8960    163.0782    210.4046   1.1855201267e+02   8.2011790391e+00    0.3682587    0.2452525 -70.90  0.001862938    2.310    0.567
