#   1 NUMBER                 Running object number                                     
#   2 MAG_AUTO               Kron-like elliptical aperture magnitude                    [mag]
#   3 X_IMAGE                Object position along x                                    [pixel]
#   4 Y_IMAGE                Object position along y                                    [pixel]
#   5 X_WORLD                Barycenter position along world x axis                     [deg]
#   6 Y_WORLD                Barycenter position along world y axis                     [deg]
#   7 A_WORLD                Profile RMS along major axis (world units)                 [deg]
#   8 B_WORLD                Profile RMS along minor axis (world units)                 [deg]
#   9 THETA_WORLD            Position angle (CCW/world-x)                               [deg]
#  10 FWHM_WORLD             FWHM assuming a gaussian core                              [deg]
#  11 ELONGATION             A_IMAGE/B_IMAGE                                           
#  12 ELLIPTICITY            1 - B_IMAGE/A_IMAGE                                       
         1 -11.5844    249.1871     18.9786   4.5341273071e+01   1.9956105248e+01     1.320999    0.3279467 -36.98  0.004861715    2.960    0.662
         2 -10.6072    249.2384      4.2934   4.1742096828e+01   2.1467745934e+01    0.7182828    0.3498765 -38.63  0.003546543    1.743    0.426
         3  -8.5616     61.4842    248.8829   1.2420590305e+02   1.9159083584e+01    0.1536002    0.1197035  49.42  0.001276204    1.314    0.239
         4 -11.0621    191.7755    226.2496   9.9720627833e+01   3.3500838881e+00     1.431766    0.4386732 -34.34  0.005933058    4.785    0.791
         5 -10.7063    185.4585    213.6970   9.9020688106e+01   5.9414157915e+00      1.86286    0.3746701 -39.51   0.00625456    6.438    0.845
         6 -12.2900    179.2614    197.6429   9.7693119929e+01   9.1919942876e+00     4.063462     2.110505 -15.59   0.01402455    5.615    0.822
         7 -12.1956    206.7962    204.2180   9.3806173911e+01   3.5892186050e+00     4.028888     1.471227 -23.39   0.01227166    7.341    0.864
         8 -14.5783    244.6549    111.1426   6.8652996987e+01   9.1136078815e+00     7.436667     2.040791 -28.82   0.02433505    3.616    0.723
         9 -12.9333    247.3943    242.0804   9.2988450157e+01  -6.5469740055e+00    0.9402719    0.7457557  -5.62  0.007698981    1.371    0.271
        10 -12.0579    238.2421    218.9795   9.0930322746e+01  -3.0686416318e+00    0.5683971    0.3886983 -20.02  0.002496693    1.569    0.363
        11 -13.0429    236.8076    194.2507   8.7045067218e+01  -1.8072027497e-01     2.354213    0.5176436 -28.39  0.007277546    6.601    0.848
        12 -11.4894    250.0810    199.8141   8.5882026365e+01  -2.8849679096e+00    0.4419477    0.1793236 -29.31  0.001848539    2.565    0.610
        13 -12.0058    241.2831    178.3183   8.3419397423e+01   9.4263021511e-01    0.7025641    0.3152349 -29.64   0.00255179    2.272    0.560
        14 -12.9169    247.2691    159.0607   7.8702246807e+01   2.2675146815e+00     1.907398    0.6007375 -24.97  0.006856502    3.856    0.741
        15 -13.4616    244.2765    194.0468   8.5798150977e+01  -1.3566766623e+00     1.735541    0.6007949 -24.67  0.007420053    3.463    0.711
        16 -12.3201    248.6309    180.2068   8.2590038205e+01  -4.9702566025e-01     1.078589    0.2943109 -35.46  0.004060689    3.857    0.741
        17 -12.6558    247.0092    226.0234   9.0650336123e+01  -5.0419337848e+00    0.6787399    0.4313525 -31.48  0.004645748    1.939    0.484
        18 -12.8716    247.7464    215.3302   8.8844350090e+01  -4.1170601649e+00    0.7130039     0.381155 -25.64  0.004015283    1.995    0.499
        19 -10.8121    209.7025    247.7345   9.9661455469e+01  -1.7263486025e+00    0.4062786    0.2831469 -21.37  0.003015658    1.759    0.432
        20  -9.9887    191.2843    246.8720   1.0252934087e+02   1.0833606227e+00    0.3640027    0.2728209 -31.23  0.002504924    1.743    0.426
        21  -8.4328    139.5768    249.4327   1.1139206443e+02   8.5021370143e+00    0.2074478    0.1036543 -45.79  0.001259097    2.833    0.647
        22  -8.8270     48.3523    250.2620   1.2635939050e+02   2.0492172620e+01    0.3044952    0.1063895  34.32  0.001545688    3.438    0.709
        23  -9.1249    176.0388    245.9232   1.0492466640e+02   3.4792881085e+00    0.2543327    0.2073442 -33.48  0.001793815    1.632    0.387
        24  -8.4479    156.5298    247.1860   1.0832179947e+02   6.2668024097e+00    0.1959594    0.1102577 -44.26   0.00125998    2.431    0.589
        25 -10.0122     10.4850    248.2512   1.3204608892e+02   2.4778851279e+01    0.2557962     0.104637  38.40  0.001732246    2.205    0.547
        26  -8.6535    163.4809    246.0623   1.0703320624e+02   5.3582826664e+00    0.1817521    0.1110083 -55.98 0.0009833378    2.415    0.586
        27  -8.8450     32.9894    247.0024   1.2859139832e+02   2.2684724533e+01    0.1825318    0.1329499  18.99  0.001325282    2.647    0.622
        28  -8.2295    132.5101    245.9768   1.1223090224e+02   9.9912853864e+00    0.1277287   0.09265112 -17.55 0.0008024013    2.594    0.614
        29  -8.1190    112.8194    245.6574   1.1551793133e+02   1.2877036137e+01      0.16406   0.08053199 -57.71  0.001006055    2.633    0.620
        30  99.0000    202.6115    233.8952   9.8957346346e+01   7.8137341615e-01     1.131268     0.621075 -33.55  0.007044984    2.282    0.562
        31  -8.7179     41.9314    244.5988   1.2707943209e+02   2.2077315498e+01    0.1731777      0.12083  28.99  0.001287965    2.072    0.517
        32  -8.4038    103.5483    243.7044   1.1690849719e+02   1.4455907391e+01    0.1631412    0.1022344 -59.74  0.001050625    2.051    0.513
        33  -8.5156     81.5012    244.0151   1.2062265798e+02   1.7379978290e+01    0.2133395    0.1219226  28.78  0.001268738    2.482    0.597
        34  -8.9949    169.1500    241.4533   1.0554195294e+02   5.0535422085e+00    0.2027031    0.1611756 -18.91  0.001018434    1.681    0.405
        35 -11.0775    224.9987    244.1591   9.6752603127e+01  -3.5933361109e+00     1.010182    0.4121286 -29.32  0.005729249    3.044    0.671
        36  -8.5307    134.5390    240.2602   1.1130442131e+02   1.0460649445e+01    0.1677381    0.1109173 -64.31  0.001134453    2.029    0.507
        37  -8.3317    117.7018    240.4999   1.1421451189e+02   1.2905774862e+01     0.160135   0.09949395 -61.58  0.001076782    2.058    0.514
        38  -9.8506     25.9982    240.1400   1.2937859745e+02   2.4485444233e+01    0.2604165    0.1951288 -17.65  0.001625678    4.284    0.767
        39  -8.5787      2.4886    241.5079   1.3302332956e+02   2.6567975091e+01    0.0958226   0.06034602  65.14 0.0008104783    1.016    0.016
        40  -9.4116    183.3642    238.7586   1.0281657033e+02   3.1916003430e+00    0.2628804    0.2142918 -33.60  0.001625807    1.599    0.375
        41  -9.2681    159.2369    237.7881   1.0679183129e+02   7.0316665827e+00    0.2648578    0.1985078 -56.38  0.001845903    1.824    0.452
        42  -8.5571    148.3585    239.5781   1.0886130198e+02   8.4669195052e+00    0.1733914    0.1400665 -46.93 0.0008307152    1.655    0.396
        43  -8.4412     69.5143    239.7441   1.2231443808e+02   1.9561325751e+01    0.2081644    0.1151845  32.55  0.001291811    2.168    0.539
        44  -9.6074    176.6962    235.2183   1.0349277102e+02   4.6435746327e+00    0.3421399    0.1892684 -36.26  0.001744355    2.402    0.584
        45  -8.6669     90.4861    236.9616   1.1856473881e+02   1.7251029891e+01    0.2243858    0.1391866 -48.42  0.001455023    2.488    0.598
        46  -8.7613    139.0477    235.8827   1.1005972402e+02   1.0379893621e+01    0.1959701    0.1669034 -48.38  0.001174787    1.564    0.361
        47  -8.6216    129.1581    236.1331   1.1180436684e+02   1.1837325800e+01    0.1892471    0.1523665 -38.16  0.001295266    1.781    0.438
        48 -10.1228     13.5099    239.1951   1.3127818068e+02   2.5888010932e+01    0.3614027   0.07964954  40.17  0.001952497    3.055    0.673
        49  -8.8744    170.5795    233.9165   1.0437425539e+02   5.7585543164e+00    0.2012504    0.1639687 -32.94 0.0009307895    1.592    0.372
        50 -10.8644    131.6568    200.8176   1.0721075775e+02   1.6849473036e+01    0.3798528    0.3251654 -45.19    0.0020267    1.455    0.313
        51 -10.1390    154.1617    225.9971   1.0625337181e+02   9.3888106570e+00    0.8055843    0.2970252 -38.99  0.003525089    4.375    0.771
        52 -11.2105    154.6588    182.2236   9.9947694742e+01   1.5968620661e+01     1.111349    0.5712702  25.60   0.00443226    3.140    0.681
        53  -9.5947    192.0021    163.9734   8.9357879371e+01   1.1886135610e+01    0.4479973    0.2994825   4.18  0.002084761    2.061    0.515
        54  -9.6464    161.0822    209.8177   1.0287073475e+02   1.0547095739e+01    0.3037561    0.2452087 -12.05  0.001536308    1.619    0.382
        55 -12.6395    136.8473    187.6196   1.0434947416e+02   1.8201350938e+01     1.311938     0.862784  -8.01  0.005637125    3.643    0.726
        56 -11.6809    153.8706    173.3720   9.8633368103e+01   1.7615276345e+01     1.152294    0.6736165  12.70   0.00404249    4.427    0.774
        57 -13.0456    144.0138    194.6895   1.0395968070e+02   1.5781235654e+01     1.358143    0.9626607 -21.97  0.007516346    2.175    0.540
        58  -9.7511    149.4292    197.2994   1.0328586747e+02   1.4430218722e+01    0.3585054    0.2362494  29.94  0.001378456    1.597    0.374
        59 -10.5339    159.5261    184.7616   9.9395033660e+01   1.4672165736e+01     1.118698    0.6018659  16.22  0.003418549    6.044    0.835
        60  -9.8917    161.2140    198.9755   1.0127936565e+02   1.2136856832e+01    0.7412415    0.4426417  -6.64  0.002793187    4.867    0.795
        61  -9.4605    169.3617    176.6486   9.6094164552e+01   1.4185076776e+01    0.3359968    0.2418261   6.92  0.001452688    1.889    0.471
        62  -9.9543    177.5503    168.8700   9.3083980868e+01   1.3896237864e+01    0.7856506    0.4845134  -0.75  0.003222227    3.149    0.682
        63 -10.7187    154.5704    213.0720   1.0451506761e+02   1.1155710723e+01    0.5906431    0.4088862 -21.23  0.003455769    2.220    0.549
        64 -10.1691    156.1069    206.0207   1.0326214043e+02   1.1943890421e+01    0.5178229    0.2773358 -58.61   0.00264375    2.674    0.626
        65  -9.5367    166.5985    184.6951   9.8001073758e+01   1.3403392042e+01     0.414532    0.2812029  -0.88  0.001280033    2.388    0.581
        66 -10.5515    174.9101    180.2303   9.5634232136e+01   1.2585687534e+01    0.8637081     0.585995 -11.92  0.004425952    2.125    0.529
        67 -10.5815    165.2137    200.3116   1.0072482744e+02   1.1243834299e+01    0.7432704    0.3768043 -27.19  0.003209426    3.600    0.722
        68  -9.4454    170.3457    196.4273   9.9166096316e+01   1.0930326843e+01    0.3261674    0.2532632  -0.93  0.001070183    1.628    0.386
        69 -11.8888    197.6601    197.7887   9.4367756200e+01   5.9711073796e+00     2.474539     1.134161 -28.09   0.01146693    2.925    0.658
        70  -8.8536    123.1409    231.5078   1.1237782344e+02   1.3402781832e+01    0.2289179    0.1897658  -1.42  0.001603252    1.898    0.473
        71  -8.8390    100.1131    231.4730   1.1642582534e+02   1.6759928309e+01    0.2282203    0.1748884 -43.79   0.00161788    1.983    0.496
        72  -8.8450    144.9676    231.8413   1.0857356910e+02   1.0027095097e+01    0.1741259    0.1612754  51.14 0.0009852058    1.215    0.177
        73  -8.5623    133.2194    231.9269   1.1064727967e+02   1.1820368803e+01    0.1738708    0.1567443  -5.32  0.001070297    1.545    0.353
        74  -8.8955    113.2475    230.2157   1.1399391110e+02   1.5060962482e+01    0.2566416    0.1600381 -67.83   0.00167428    1.990    0.497
        75 -11.1098    217.1565    234.3541   9.6635319177e+01  -1.4748074768e+00     1.381477    0.7821847 -49.36  0.007821384    3.266    0.694
        76  -8.9572    173.9929    228.1351   1.0304224380e+02   5.9479241907e+00    0.2069891    0.1664093  -9.77  0.001285579    1.570    0.363
        77  -8.0537     92.3000    229.3481   1.1760971117e+02   1.8181969811e+01   0.09446055   0.08520167  13.49 0.0007037413    1.686    0.407
        78  -8.2613    138.5817    228.2339   1.0928757458e+02   1.1522891759e+01     0.132305    0.1107925 -33.80 0.0007836643    1.642    0.391
        79  -8.3335    143.5591    226.7175   1.0822612559e+02   1.0962427878e+01    0.1725351    0.1148416 -46.30 0.0009554251    1.956    0.489
        80  -8.5653      3.3256    227.3255   1.3244674827e+02   2.8756680040e+01    0.0789619   0.06842285 -74.86 0.0006445099    1.693    0.409
        81  -8.9955    129.0330    224.5534   1.1058024543e+02   1.3536648349e+01    0.2337096    0.1853036 -19.04  0.001552099    2.011    0.503
        82  -8.4065    120.3759    225.7444   1.1226653748e+02   1.4676951829e+01    0.1714618    0.1468715 -49.65 0.0009457445    1.558    0.358
        83  -8.3354    170.1700    224.5407   1.0323685502e+02   7.0230348110e+00    0.1762967    0.1430352  14.56 0.0008011544    1.364    0.267
        84  -9.2826    180.3240    222.1972   1.0113780968e+02   5.6872616424e+00    0.2621021    0.1866164 -40.46  0.001104334    1.780    0.438
        85  -9.5349    147.9136    222.0886   1.0688736194e+02   1.0932547704e+01    0.2882153    0.2547503 -67.99  0.001535489    1.428    0.300
        86  -8.8098    135.5058    223.4870   1.0929218775e+02   1.2690470964e+01    0.1923606    0.1169898 -53.82  0.001074971    2.077    0.518
        87  -8.9687    174.7361    221.8710   1.0207431288e+02   6.6346650464e+00    0.2141986    0.1903864  22.06 0.0009097703    1.180    0.152
        88  -8.5322    114.4903    222.5384   1.1299140499e+02   1.6054190562e+01    0.1655048    0.1057011 -45.88 0.0008719894    2.192    0.544
        89  -8.2462     97.4990    223.0236   1.1611312747e+02   1.8458978241e+01    0.1339149   0.09380667 -36.04  0.000810021    2.542    0.607
        90  -9.3226    140.5362    221.1284   1.0810368201e+02   1.2245751977e+01     0.205925    0.1899078  -9.10 0.0008537884    1.424    0.298
        91  -9.6301    161.9324    190.9120   9.9907021217e+01   1.3258754065e+01    0.4423518    0.2562635 -35.25  0.001991695    2.201    0.546
        92  -8.6380     40.0101    221.2329   1.2613760285e+02   2.6073150047e+01     0.129532    0.1061781 -69.39   0.00104132    1.613    0.380
        93  -8.7533    128.7818    219.1871   1.1001726341e+02   1.4386763251e+01    0.1750935    0.1577239 -28.36  0.001274489    1.525    0.344
        94  -9.4856    132.1465    214.3904   1.0883044278e+02   1.4596269053e+01    0.2456661    0.2129004  -0.86  0.001667155    1.604    0.376
        95  -8.8508    158.7237    218.4937   1.0447851399e+02   9.6978341667e+00    0.2002895    0.1833427  22.16  0.001029554    1.217    0.178
        96  -9.4648    119.8343    218.3069   1.1156004369e+02   1.5907235703e+01    0.1919457    0.1726087 -63.18  0.001211079    1.392    0.282
        97  -7.9741    109.4445    219.4866   1.1359336216e+02   1.7288636606e+01    0.1156742     0.091433  53.78 0.0002380189    1.034    0.033
        98  -8.5278    104.3845    218.7699   1.1444723644e+02   1.8150832797e+01     0.138415    0.1057275 -53.86  0.000948925    1.698    0.411
        99  -8.9485    135.7578    218.1843   1.0862100874e+02   1.3441932274e+01    0.2141538    0.1360298  25.36  0.001086522    1.997    0.499
       100  -8.5377     82.3629    216.8400   1.1829837850e+02   2.1584747897e+01     0.141385   0.09750128 -59.96 0.0009501726    1.786    0.440
       101  -9.1933    149.6041    202.2273   1.0395566370e+02   1.3623445280e+01    0.2680645    0.1831648 -25.19  0.000653125    2.198    0.545
       102  -9.6475    143.4600    214.7757   1.0678383847e+02   1.2720590348e+01    0.3456764    0.2505591 -12.28  0.002013365    2.336    0.572
       103  -9.5891    145.8223    208.1926   1.0548762866e+02   1.3333307395e+01    0.3212191    0.2299025 -26.50  0.001824183    2.047    0.512
       104  -9.1641    149.6052    206.1958   1.0450648778e+02   1.3009874056e+01    0.2190848    0.2021504  40.24 0.0008406455    1.140    0.123
       105  -9.0750    124.4946    215.9568   1.1043452227e+02   1.5556384873e+01    0.1789881    0.1545889 -54.46  0.001071288    1.463    0.317
       106  -9.1881    124.5498    211.7023   1.0992717487e+02   1.6222679212e+01    0.2383575    0.1912109 -32.60  0.000965753    1.787    0.440
       107  -9.3538     63.0039    214.2272   1.2160983128e+02   2.4561023618e+01    0.1800445    0.1327115 -63.93  0.001295684    1.667    0.400
       108  -9.0299    111.1063    213.7278   1.1267514525e+02   1.7970374958e+01     0.192277    0.1521029 -23.61 0.0009260456    2.114    0.527
       109 -12.2406    217.8248    155.5028   8.2914372775e+01   8.1557153103e+00     3.381412     1.814694  -3.62   0.01261517    3.581    0.721
       110  -8.6603    117.0444    212.9808   1.1148218479e+02   1.7185730658e+01    0.1713362    0.1416812  13.62  0.001133693    1.709    0.415
       111  -8.4526    149.1284    211.0915   1.0525636679e+02   1.2346814047e+01    0.1835466    0.1480537  26.42 0.0008259694    1.314    0.239
       112  -9.1292    140.1717    210.5898   1.0686053364e+02   1.3892425777e+01    0.1869076    0.1604934 -87.90 0.0009118957    1.378    0.274
       113  -9.1805    131.2757    208.9523   1.0832605846e+02   1.5591211171e+01    0.2414069     0.142307 -45.43   0.00103253    2.188    0.543
       114  -9.2482    135.1668    208.3573   1.0751594521e+02   1.5056297276e+01    0.1840708    0.1660343 -42.21  0.001038552    1.407    0.289
       115 -10.7490    114.2287    207.3399   1.1137009925e+02   1.8548752326e+01    0.3058997    0.2181564  29.54  0.001885655    1.632    0.387
       116 -10.3621    124.2841    206.0169   1.0929157296e+02   1.7187423365e+01    0.2496084    0.1487733  46.23            0    1.366    0.268
       117  -8.4403     85.4936    206.0162   1.1671443823e+02   2.3018455855e+01    0.1575196    0.1077383 -72.87 0.0007899121    1.573    0.364
       118  -9.8155    109.6703    203.0889   1.1175439135e+02   1.9972854146e+01    0.2173443    0.1838393  -1.34  0.001407442    1.836    0.455
       119  -9.4770    172.4547    189.6535   9.7687725374e+01   1.1577156580e+01    0.4015098    0.2862817  15.23  0.002241385    1.708    0.414
       120  -9.0490     98.3913    201.7977   1.1379723647e+02   2.1903015222e+01    0.1511583    0.1081324 -54.54 0.0009547416    1.717    0.418
       121  -8.4804     69.3221    201.3180   1.1936956619e+02   2.6047623050e+01   0.09681572   0.09125955 -20.57 0.0007043395    1.667    0.400
       122  -8.9959    104.3675    198.7988   1.1229197959e+02   2.1532929967e+01    0.1540689    0.1091013 -51.91 0.0009473382    1.747    0.428
       123 -11.1909    123.3790    197.4899   1.0839155219e+02   1.8762848952e+01     0.547815    0.2429452  31.65  0.002302003    2.984    0.665
       124 -10.2399    124.9915    192.4899   1.0741094602e+02   1.9360563563e+01    0.3268518    0.2288177   5.48  0.001619793    2.765    0.638
       125  -9.0653     88.7064    196.6507   1.1514008940e+02   2.4240381400e+01    0.1660343    0.1471096  -2.13  0.001117552    1.762    0.433
       126 -10.1737    113.1034    194.7607   1.1007723892e+02   2.0887696455e+01    0.2251603    0.1632662  30.38   0.00134462    1.579    0.367
       127  -8.6181     64.3112    191.3231   1.1944846726e+02   2.8552790665e+01   0.09973218   0.09112095 -37.83 0.0007038569    1.654    0.395
       128 -10.6016    120.6935    187.1831   1.0755525631e+02   2.1008206899e+01    0.3094421    0.2313832  20.98  0.001773134    1.779    0.438
       129 -10.8023    128.5257    186.3120   1.0584043475e+02   1.9852195253e+01    0.3765537    0.2428617  28.33  0.001802786    1.859    0.462
       130 -10.1276    134.3517    183.2973   1.0421341801e+02   1.9385534077e+01    0.2584251    0.2076679   9.51  0.001455069    1.698    0.411
       131  -9.2918     96.7315    182.2002   1.1184579622e+02   2.5747560185e+01     0.359288    0.2529665  -6.04  0.001677288    3.415    0.707
       132 -10.3258    121.1486    180.0833   1.0646214547e+02   2.2222430033e+01    0.2766862    0.2354529  13.36  0.001289092    1.544    0.352
       133 -10.1125    113.5984    180.3712   1.0807881976e+02   2.3423429825e+01    0.2516354    0.2165245   0.09  0.001545264    1.666    0.400
       134 -10.7294    140.0243    175.0338   1.0176011225e+02   1.9851923710e+01    0.4391502    0.2090832  33.53   0.00186169    2.419    0.587
       135 -10.3449    134.8414    177.4466   1.0321852989e+02   2.0341628983e+01    0.2821544    0.2189375  34.71  0.001394986    1.295    0.228
       136  -9.9067    129.4745    173.0073   1.0364650407e+02   2.2097077958e+01    0.2539959    0.1751429  30.84  0.001026602    1.609    0.378
       137  -8.5923     86.0577    172.6674   1.1292441471e+02   2.9207095425e+01    0.1743534    0.1447248  61.26 0.0006455035    1.058    0.055
       138  -9.9799    156.9578    195.0540   1.0150340833e+02   1.3482791704e+01    0.6533041    0.2572747 -37.55  0.002654589    3.742    0.733
       139 -10.8856    134.9734    169.0804   1.0184760078e+02   2.1845188121e+01    0.4939921     0.285596 -35.45  0.002294071    2.423    0.587
       140  -8.8501    107.9586    171.5217   1.0802717373e+02   2.6034238006e+01    0.1986076    0.1154956  43.22  0.001022428    1.562    0.360
       141  -8.0461    102.6269    171.6869   1.0920471110e+02   2.6862580376e+01    0.1218363    0.1028014  -1.40 0.0007032756    1.785    0.440
       142  -9.7651    143.2799    169.8315   1.0022077074e+02   2.0195585476e+01    0.2474515    0.1676744  21.06 0.0009933163    1.998    0.499
       143  -9.0688    119.8019    170.1964   1.0527289982e+02   2.4306580309e+01    0.1735424    0.1567543  18.67   0.00107201    1.349    0.259
       144  -8.1211    184.3026    169.3380   9.1857546463e+01   1.2530114994e+01    0.1368966   0.09893546  11.39 0.0005474716    1.668    0.401
       145  -9.6408    164.6134    167.3191   9.5378488077e+01   1.6630243042e+01    0.4488126    0.2627756 -18.40  0.001818851    3.190    0.687
       146  -9.1600    170.4961    167.0025   9.4135791625e+01   1.5555970780e+01    0.2647707    0.1755708  29.23  0.001169225    1.591    0.371
       147  -9.3872    128.4390    166.0373   1.0274624159e+02   2.3588424801e+01    0.2644209    0.1788145  31.54  0.001368117    1.639    0.390
       148  -8.9351    185.1899    163.9902   9.0669984762e+01   1.3205091971e+01    0.3131667    0.2205802  -1.87  0.001219873    1.885    0.470
       149  -8.8070    159.6922    163.8188   9.5742878770e+01   1.8177472678e+01     0.247853    0.1728551  33.16 0.0009474493    1.431    0.301
       150  -9.0667    120.7746    163.4402   1.0399293320e+02   2.5442524755e+01    0.1884249    0.1220623  33.86 0.0009499181    1.664    0.399
       151  -8.1741    172.7990    162.4437   9.2817808430e+01   1.5872544712e+01    0.1966247    0.1186255  34.38 0.0009362663    1.649    0.393
       152 -10.1418    150.3560    167.3474   9.8313799392e+01   1.9327695115e+01    0.2738841    0.2146281   8.76  0.000875193    1.674    0.403
       153  -9.8898    139.5224    161.8036   9.9632213073e+01   2.2366527585e+01    0.2678338    0.2159858  15.73  0.001476099    1.550    0.355
       154  -8.8223    147.0167    161.4816   9.7971033477e+01   2.1017986839e+01    0.2140729    0.1243718  42.91 0.0006719327    1.568    0.362
       155  -7.8539    133.5905    161.7020   1.0089791930e+02   2.3481410018e+01    0.1376805    0.1055449  11.16 0.0006982583    1.845    0.458
       156  -9.0949    163.9979    160.0866   9.4157260120e+01   1.7994841161e+01    0.2167289    0.1623981  10.77 0.0009104887    1.720    0.419
       157  -8.7032    153.6969    160.1380   9.6311340337e+01   1.9985365629e+01    0.2583439    0.1709917  20.99 0.0009319902    2.051    0.512
       158  -9.0334    176.8812    157.7187   9.1083201722e+01   1.5861664464e+01    0.2924578    0.2246198   3.31  0.001242291    1.595    0.373
       159  -9.3760    197.2679    155.6934   8.6709888044e+01   1.2141045882e+01    0.4036743    0.2626233   4.58  0.001847395    2.175    0.540
       160  -9.8808    161.8928    173.7921   9.7081471521e+01   1.6050342862e+01     0.535515    0.2277633  37.86  0.002222992    2.302    0.566
       161  -7.7713    191.6672    157.7019   8.8182417100e+01   1.2933931992e+01    0.1416785     0.100208  15.86 0.0007030647    1.646    0.393
       162  -7.9830    150.2832    157.3413   9.6513157993e+01   2.1153045559e+01    0.1349252    0.1081995   3.03 0.0004686493    1.634    0.388
       163  -8.9059    187.9452    154.0938   8.8171706370e+01   1.4252564644e+01    0.3021774    0.1969284 -23.85  0.001313511    1.799    0.444
       164  -7.9728    155.3000    155.3413   9.5066807933e+01   2.0542685073e+01    0.1385577     0.108481   5.88 0.0004162286    1.670    0.401
       165  -9.3267    129.6541    154.4252   1.0048412430e+02   2.5610664973e+01    0.3617212    0.2067546 -24.61  0.001285493    4.069    0.754
       166  -9.1626    206.2966    152.6253   8.4395937376e+01   1.0824660196e+01    0.3074273    0.1971822   2.76 0.0008456807    2.152    0.535
       167  -8.4420    158.9917    158.0777   9.4813159534e+01   1.9327340756e+01    0.2137407    0.1655942   9.07 0.0006170223    1.652    0.395
       168  -7.9837    171.5052    152.5400   9.1138358430e+01   1.7818368034e+01    0.1417969    0.1266368  27.16 0.0001187161    1.082    0.075
       169 -10.0077    147.3272    149.9895   9.5746156605e+01   2.3098706312e+01    0.5932494    0.3733957   2.37  0.002079442    4.069    0.754
       170  -8.5065    157.7203    151.0285   9.3711202831e+01   2.0850152728e+01    0.1928057    0.1888546  22.17 0.0007665166    1.072    0.067
       171  -8.5523    203.2695    149.4111   8.4283125542e+01   1.1918109750e+01    0.4330188    0.2303777  20.39  0.001619011    3.141    0.682
       172  -7.5606    176.4841    150.4891   8.9708674874e+01   1.7165503624e+01    0.1428688    0.1268122  23.59 0.0002745094    1.097    0.089
       173  -8.7074    197.0350    148.4670   8.5255476280e+01   1.3322885701e+01     0.255542    0.1862676  -8.06 0.0007992205    1.609    0.378
       174  -7.9200    192.6898    152.8434   8.6998025469e+01   1.3502541103e+01    0.2093353    0.1630798  -3.09 0.0008016645    1.448    0.309
       175 -10.0047    184.4873    173.3729   9.2568964174e+01   1.1865954353e+01    0.8071811    0.4020707  21.84  0.002806156    4.021    0.751
       176  -8.1876    191.3015    146.5832   8.5956804502e+01   1.4794095142e+01     0.241077    0.1598025  36.02 0.0008171022    1.450    0.311
       177  -7.8221    162.5088    147.5452   9.1994917443e+01   2.0520939703e+01    0.1419408    0.1305174  35.96 0.0008086774    1.031    0.030
       178  -9.0640    208.5857    143.2842   8.1994463274e+01   1.1787099320e+01     0.340622    0.2122263  23.16  0.001184476    1.889    0.471
       179  -8.5366    200.6447    143.6021   8.3534269006e+01   1.3357428257e+01    0.2138785    0.1526987  16.08 0.0008326265    1.599    0.375
       180  -8.1804    176.7783    144.4257   8.8383851593e+01   1.8149154916e+01     0.199664    0.1256201  35.44  0.000562816    1.597    0.374
       181  -7.8184    171.7173    142.7026   8.9056671658e+01   1.9499352999e+01    0.1400848     0.109196  10.61 0.0004721944    1.543    0.352
       182  -8.7773    214.4085    140.9575   8.0436738694e+01   1.0960295342e+01     0.253672    0.1743638  25.37  0.000868303    1.513    0.339
       183  -8.0941    194.7026    141.7121   8.4253074314e+01   1.4885868796e+01    0.1417639    0.1046228  14.32 0.0005221387    1.553    0.356
       184  -8.9091    139.9877    141.0227   9.5594769529e+01   2.6273302293e+01    0.2260668    0.1793529   5.31  0.001139099    1.715    0.417
       185  -7.8633    203.5445    139.9764   8.2201701126e+01   1.3332423713e+01    0.1852504     0.118116  -3.25 0.0005484503    2.217    0.549
       186  -8.3341    131.8100    139.1313   9.7087262206e+01   2.8248361887e+01    0.1916667    0.1718042   8.75 0.0007867092    1.330    0.248
       187  -9.4585    218.9993    136.4970   7.8642172760e+01   1.0696185801e+01    0.3379534    0.2080321  21.72  0.001090506    1.962    0.490
       188  -8.7097    209.2206    135.9447   8.0263644311e+01   1.2786962710e+01    0.2730249    0.1869987  32.37  0.001372823    1.453    0.312
       189  -7.8697    192.8791    135.2077   8.3166863367e+01   1.6335583506e+01    0.2004134     0.159986  13.14  0.001012963    1.356    0.262
       190  -7.8601    172.6732    135.6590   8.7327561890e+01   2.0552279291e+01    0.1508759    0.1118945  10.27 0.0007051362    1.735    0.424
       191  -8.3506    217.0666    132.8159   7.8157296803e+01   1.1642356259e+01    0.4451042    0.2380929  16.38  0.001412842    3.531    0.717
       192  -9.3694    225.6244    131.8568   7.6463074463e+01   1.0034840609e+01    0.3978773    0.2288712  35.50  0.001875409    1.775    0.437
       193  -7.4654    188.2996    133.3966   8.3653546667e+01   1.7613741325e+01    0.1530238    0.1093122   7.14 0.0006606976    1.812    0.448
       194  -8.4230    199.4833    134.7385   8.1798112603e+01   1.5015172345e+01    0.2479612    0.1621056  25.23 0.0009371052    1.752    0.429
       195 -12.6461    225.0494    176.4256   8.5774875469e+01   3.9783605932e+00     2.904779    0.7707505 -28.01  0.008833881    5.822    0.828
       196  -8.0433    205.9122    129.3450   7.9372527672e+01   1.4515877712e+01    0.2068724    0.1201089  38.12 0.0005070863    1.727    0.421
       197  -8.1121    212.2725    127.2581   7.7738478561e+01   1.3493181565e+01    0.1786591    0.1682315 -68.19 0.0004724002    1.293    0.227
       198  -8.1054    192.9673    127.0236   8.1277434546e+01   1.7679565130e+01    0.2408626    0.1696649  16.39  0.001121575    1.747    0.428
       199  -7.7959    217.8647    124.1199   7.6024535818e+01   1.2792106620e+01    0.1945436    0.1532829  14.79 0.0005244525    1.317    0.240
       200  -7.8408    200.5000    124.5192   7.9255168886e+01   1.6455167503e+01    0.1477832    0.1318212  13.83 -9.048274e-05    1.092    0.085
       201  -7.8115    180.6775    121.6469   8.2446999128e+01   2.1304038581e+01    0.1558348    0.1140126  10.65 9.493148e-05    1.756    0.430
       202  -8.6799    213.2211    119.9862   7.5866665394e+01   1.4418745386e+01     0.278233    0.1951814  -8.18  0.001343469    1.642    0.391
       203 -12.7261    243.2932    149.1796   7.7307547499e+01   4.2381822609e+00      2.34532     1.124344  -1.22  0.007129877    5.604    0.822
       204  -7.3905    194.3461    119.3104   7.9182575431e+01   1.8668035546e+01    0.1546741    0.1106957  16.20 0.0002874545    1.706    0.414
       205  -8.8612    224.6355    116.0720   7.2978077273e+01   1.2567757028e+01    0.5060508     0.234218 -18.23  0.001818927    3.053    0.672
       206  -7.5460    212.3415    114.2937   7.4656399910e+01   1.5497722552e+01    0.1507145    0.1068603  17.68 0.0004545471    1.656    0.396
       207 -12.1598    217.1835    209.1839   9.2827161001e+01   1.2808884424e+00     1.694196    0.4670705 -34.44   0.00691717    4.240    0.764
       208  -7.7894    162.8930    104.1723   8.1837163868e+01   2.8510543752e+01     0.204783    0.1751143  14.91  0.000242853    1.308    0.235
       209 -12.9300    227.9374    221.9312   9.3048190049e+01  -1.8151647255e+00     2.339335    0.6430717 -41.02  0.009038139    5.780    0.827
       210  -8.3123    107.0025     83.3520   9.0097211352e+01   4.4827233659e+01    0.1929711    0.1841221  53.73 0.0004455364    1.083    0.077
       211 -12.5157    229.6467    196.0565   8.8543027460e+01   7.7937548404e-01     1.437996    0.7126389 -15.86   0.00696212    2.688    0.628
       212 -12.5164    235.1779    170.6956   8.2971340360e+01   2.9272560854e+00     2.265632    0.9998478 -10.29   0.00693082    5.941    0.832
       213  -9.8215    121.1706     61.8716   7.9461333817e+01   4.6092209381e+01    0.2467979    0.2313675  12.21 0.0002755211    1.090    0.083
       214 -11.5531    235.7347    228.2329   9.2756893467e+01  -3.6183126543e+00    0.5508264    0.3381549 -28.68  0.001721733    1.901    0.474
       215  -9.1635    217.1529     50.1858   5.7007789497e+01   2.3888211661e+01    0.2202064    0.1934256  27.45 0.0006286387    1.252    0.201
       216  -7.8667     87.6378    249.6960   1.2002743876e+02   1.5743275638e+01   0.09274671   0.07551484  26.90  0.000703776    1.731    0.422
