#   1 NUMBER                 Running object number                                     
#   2 MAG_AUTO               Kron-like elliptical aperture magnitude                    [mag]
#   3 X_IMAGE                Object position along x                                    [pixel]
#   4 Y_IMAGE                Object position along y                                    [pixel]
#   5 X_WORLD                Barycenter position along world x axis                     [deg]
#   6 Y_WORLD                Barycenter position along world y axis                     [deg]
#   7 A_WORLD                Profile RMS along major axis (world units)                 [deg]
#   8 B_WORLD                Profile RMS along minor axis (world units)                 [deg]
#   9 THETA_WORLD            Position angle (CCW/world-x)                               [deg]
#  10 FWHM_WORLD             FWHM assuming a gaussian core                              [deg]
#  11 ELONGATION             A_IMAGE/B_IMAGE                                           
#  12 ELLIPTICITY            1 - B_IMAGE/A_IMAGE                                       
         1 -14.5749    209.1539     71.9704   5.6685211362e+01   2.2920157281e+01     10.24495     2.007543 -46.26   0.02052253    8.180    0.878
         2 -15.5109    234.6610     78.6026   5.4546276767e+01   1.5899657732e+01     8.159536     1.446592 -40.88   0.01210661    4.508    0.778
         3 -15.3591    242.5304     44.9153   4.5415887152e+01   1.9108507177e+01      5.03507    0.9080626  54.82   0.01478232    5.442    0.816
         4 -13.5015    247.7709     10.9871   3.7194868687e+01   2.2166887951e+01    0.8716936    0.4214852 -21.48 0.0009512191    2.721    0.632
         5 -12.5189    204.0198     37.7183   4.8212312465e+01   2.9262863436e+01     1.192931    0.2815836 -40.22  0.001678963    3.625    0.724
         6 -13.5900    249.7421     28.3859   4.0895288589e+01   1.9668174388e+01     1.110916     0.448186 -33.00  0.001489118    2.282    0.562
         7 -13.9100    230.4347     29.2812   4.2952028328e+01   2.3933165842e+01     2.576288     1.868606 -15.67  0.009472061    1.735    0.424
         8 -11.7014    212.4021     24.3318   4.3646750871e+01   2.8869830546e+01     1.506783    0.4351344 -26.92  0.001994227    3.850    0.740
         9 -10.2965      1.5494     29.1587   1.0731944373e+02   6.9374430962e+01    0.3981025   0.08313615 -58.84  0.001560483    3.609    0.723
        10 -12.1815    237.6193     20.9748   4.0290025336e+01   2.3285951557e+01    0.6739253    0.4271305  -5.63  0.001166509    2.595    0.615
        11 -10.6624    134.1080     19.3161   5.3985784401e+01   4.9353568535e+01    0.3408973    0.2042437 -18.76 0.0009798767    1.862    0.463
        12  -9.3062    204.1120     13.2115   4.1661651283e+01   3.2186678486e+01    0.3146155    0.2107221   2.65 0.0004940378    2.247    0.555
        13  -9.5721    239.1973      2.0314   3.5858081949e+01   2.5047102081e+01    0.2680505    0.1451676  68.64  0.001435391    1.781    0.439
        14  -8.6950    229.7943      2.0332   3.6565561899e+01   2.7192001225e+01    0.1516848   0.09393943 -34.59 0.0002281071    1.610    0.379
        15  -8.5282    159.4822      1.4294   4.3656277837e+01   4.4653751533e+01    0.1361945     0.118554  69.34 4.491178e-05    1.010    0.010
        16  -9.6755    213.0366    200.6388   8.5854671900e+01  -1.4694881511e-01    0.1950265    0.1829336 -21.18  0.000641675    1.280    0.218
        17 -13.2143    249.2215     58.2885   4.7814199031e+01   1.5758080677e+01     1.047053    0.5678814 -43.15  0.001551226    1.596    0.374
        18 -10.3607    244.1851    198.3798   7.9704999854e+01  -4.9585334247e+00     0.219894    0.1808711  -2.91 0.0002842832    1.068    0.064
        19 -11.7707     40.6235    157.0717   1.1774463839e+02   3.7515145570e+01     0.467804    0.3484187  11.41  0.001777368    1.944    0.486
        20 -12.1926     47.7317    153.2632   1.1553671854e+02   3.7627408861e+01    0.7415847    0.5556508 -88.08  0.002622722    1.186    0.157
        21 -11.9570     68.3729    144.2978   1.0892286015e+02   3.7204954006e+01    0.7205712    0.4674195  66.86  0.003259678    1.762    0.432
        22 -10.7448    222.7235    145.2838   7.2539459326e+01   7.1455369561e+00    0.2666687    0.2209085 -19.08 0.0007454411    1.131    0.116
        23 -11.3233    181.4321    144.6496   8.0701096574e+01   1.5888021802e+01    0.4229455    0.3368905 -85.30 0.0008186538    1.785    0.440
        24  -9.4751    191.9760    144.0144   7.8304012593e+01   1.3751166210e+01    0.1845611    0.1734417 -12.50 0.0004554547    1.029    0.028
        25  -9.5452    159.0316    143.0000   8.5386149905e+01   2.1046516732e+01    0.2645597   0.08694927  44.29 0.0008099895    2.995    0.666
        26  -9.4776    161.3253    128.6621   8.1427569098e+01   2.3587018365e+01    0.1617291    0.1272213 -86.04 0.0007051411    1.723    0.420
        27 -11.8968    185.4844    120.2868   7.3911739473e+01   1.9814265366e+01    0.5287558    0.3123542 -28.84  0.002132399    1.879    0.468
        28 -10.3888    162.5870    120.5060   7.9077969529e+01   2.5020555021e+01    0.3022648    0.2711543 -79.14 0.0005236562    1.269    0.212
        29 -12.0308    205.2223    116.5636   6.8990188811e+01   1.6027691564e+01    0.5903019    0.3629995  57.72  0.001628108    1.855    0.461
        30 -12.6055    212.6328    116.5205   6.7586501828e+01   1.4379343500e+01    0.7624738    0.5166184 -73.23  0.003126469    2.443    0.591
        31 -12.7276    206.2424    110.1400   6.7177096214e+01   1.6975963434e+01    0.6529885    0.4795354  51.63  0.003137244    1.431    0.301
        32 -13.4130    204.5550    104.6374   6.6085886599e+01   1.8367278918e+01    0.8562786    0.6325185 -28.15  0.004084667    1.359    0.264
        33 -10.3969    168.1423    113.8831   7.6071196453e+01   2.5112572535e+01    0.2521104    0.2233101 -78.91  0.001235565    1.301    0.231
        34 -10.8097    134.9539    106.3348   8.2194348475e+01   3.4284088354e+01    0.4260711    0.2577317 -58.25  0.001673973    1.992    0.498
        35 -11.4311    187.6042    103.9775   6.9227362347e+01   2.2477158597e+01    0.3851177    0.2897692  68.63  0.001759768    1.567    0.362
        36  -9.8290    147.8891    102.8360   7.7911830902e+01   3.2114113068e+01    0.2474342    0.2180424   7.60 0.0007442575    1.261    0.207
        37  -9.7843    134.1367     98.6526   8.0270974100e+01   3.6123592598e+01    0.2464305    0.2012621  71.57  0.000675445    1.459    0.314
        38 -10.9146    187.8435     97.6217   6.7473870209e+01   2.3618730805e+01    0.3079119    0.2190439  -7.88  0.001303482    1.886    0.470
        39 -11.0439    158.2626     97.8073   7.3984076147e+01   3.0712792686e+01    0.4992994    0.2835645  36.79  0.001917022    2.011    0.503
        40  -8.7754    149.0145    119.2475   8.2025130688e+01   2.8352440991e+01    0.2123536    0.2039684  43.66 0.0002539562    1.046    0.044
        41 -10.9881    209.1394     94.5729   6.2646152468e+01   1.9097585644e+01    0.2949812    0.2268445 -61.16 0.0006847768    1.460    0.315
        42  -9.8746    141.6837     92.9456   7.6661194168e+01   3.5604467713e+01    0.3329048    0.2762191 -65.43  0.001456469    1.380    0.275
        43  -8.8934     94.2945     94.7074   9.0633226704e+01   4.5049459286e+01    0.1441534      0.11858  87.83 0.0002251049    1.556    0.357
        44 -12.2141    173.1451     90.4544   6.8546040290e+01   2.8544848859e+01    0.7901609    0.4522055  34.26  0.002755941    2.200    0.545
        45  -9.4660    213.9991    195.6892   8.4740531276e+01   4.4452955421e-01    0.1897356     0.154899  21.19 0.0004565928    1.075    0.069
        46 -11.0336    156.2608     88.7062   7.1841305365e+01   3.2999610718e+01    0.3526032    0.2731997 -31.52 0.0008850135    1.318    0.241
        47 -12.8059    182.1266     82.9033   6.4547299256e+01   2.7719833808e+01     1.111446    0.5068426 -30.92  0.001641662    2.385    0.581
        48 -11.3243    190.5013     81.4891   6.2528107279e+01   2.5895495076e+01    0.3937669        0.318  42.56  0.001847933    1.300    0.231
        49 -12.0186    195.8908     79.1994   6.0901713892e+01   2.4962187841e+01    0.5524592    0.4451002  -5.73  0.001873311    1.489    0.329
        50 -11.9909    172.4405     76.9129   6.4791700279e+01   3.1208133571e+01    0.4894949    0.3777207   5.78 0.0009945615    1.670    0.401
        51 -10.5801    110.0498     74.3014   7.9670363966e+01   4.6384747530e+01    0.2658101     0.224395 -33.64  0.000244964    1.149    0.129
        52  -9.8955    214.4643    190.9580   8.3744010704e+01   1.0999832705e+00    0.1896718    0.1276399 -32.80 0.0004248473    1.518    0.341
        53 -10.0195    182.0558    186.6459   8.9415900128e+01   7.7800468843e+00     0.232508    0.2039722 -33.06 0.0003943224    1.220    0.181
        54  -9.9564    124.9832     57.3059   6.9723350881e+01   4.6251881533e+01    0.2699984    0.2127977 -41.17 0.0004390459    1.314    0.239
        55 -11.4260    141.7129     53.2528   6.4152323042e+01   4.2911537131e+01    0.3741269    0.2985585 -43.98  0.001865567    1.319    0.242
        56 -10.6758    159.0129     50.5053   5.9473528001e+01   3.8986295485e+01    0.3525275    0.1538999  65.16  0.001219343    2.647    0.622
        57 -10.9430    154.4926     47.2119   5.9339946888e+01   4.0631071472e+01    0.2939426    0.2103063  58.64 0.0009730671    1.351    0.260
        58 -11.1219    179.8604     51.6277   5.5879077276e+01   3.3463117342e+01      0.39622    0.2176853  61.82   0.00166145    1.791    0.442
        59 -10.8289    191.2653     39.9446   5.0629734854e+01   3.2195354217e+01    0.3090745    0.2673947  56.37 0.0007423928    1.166    0.142
        60  -8.6822     67.1961    182.1835   1.1445422730e+02   2.8512939089e+01    0.1729399    0.1275295  70.23 0.0003261803    1.242    0.195
        61 -12.8559      9.3203    172.2697   1.2622172419e+02   3.7024826244e+01    0.7765691    0.5727091  83.70  0.003991167    1.035    0.034
        62 -11.1828    223.7456    173.3377   7.8442923711e+01   2.2441326003e+00    0.2924381     0.243706  40.05 0.0007598641    1.297    0.229
        63  -9.2058    202.8672    170.8784   8.1984260703e+01   6.5855979629e+00    0.2174379    0.1772994   6.67 0.0003496003    1.229    0.186
        64  -9.3385    159.3350     24.0127   5.0886379249e+01   4.2434838965e+01    0.1937975    0.1862682 -35.28 0.0006674009    1.120    0.107
        65 -14.0961    224.8473     65.3822   5.2620441646e+01   2.0209519602e+01     2.385213    0.7542176  55.89  0.003928715    3.136    0.681
        66  -8.3111     67.7368    166.6570   1.1237410508e+02   3.1981065955e+01    0.1281648   0.09769467 -44.16 0.0003087598    1.598    0.374
        67 -12.0948     54.5580    149.7234   1.1334135312e+02   3.7670235755e+01    0.6939844    0.4697553 -80.24  0.001849338    1.365    0.268
        68 -10.4062    206.6033     26.4413   4.4866520211e+01   3.0049060884e+01    0.2709315    0.2258304 -66.77 0.0005316146    1.129    0.114
        69 -11.5071    232.6397    160.0697   7.3997690196e+01   2.7626437518e+00    0.3783957    0.2356334  55.98  0.001228813    2.177    0.541
        70 -13.0204    249.5655     74.0475   5.1465441246e+01   1.3356164580e+01     1.232148    0.6525444 -51.80  0.005609193    1.916    0.478
        71 -13.4761    154.7769     65.1803   6.5033418788e+01   3.7691268215e+01     1.252257    0.7827933 -45.93  0.005378435    1.685    0.407
        72  -9.8058    113.9729    246.8119   1.1205887039e+02   9.0061868582e+00    0.1718335     0.152856  68.32 0.0004420098    1.175    0.149
