#   1 NUMBER                 Running object number                                     
#   2 MAG_AUTO               Kron-like elliptical aperture magnitude                    [mag]
#   3 X_IMAGE                Object position along x                                    [pixel]
#   4 Y_IMAGE                Object position along y                                    [pixel]
#   5 X_WORLD                Barycenter position along world x axis                     [deg]
#   6 Y_WORLD                Barycenter position along world y axis                     [deg]
#   7 A_WORLD                Profile RMS along major axis (world units)                 [deg]
#   8 B_WORLD                Profile RMS along minor axis (world units)                 [deg]
#   9 THETA_WORLD            Position angle (CCW/world-x)                               [deg]
#  10 FWHM_WORLD             FWHM assuming a gaussian core                              [deg]
#  11 ELONGATION             A_IMAGE/B_IMAGE                                           
#  12 ELLIPTICITY            1 - B_IMAGE/A_IMAGE                                       
         1 -10.8358     37.7525     11.1660   8.6841986048e+01   7.0178258379e+01     1.201335    0.3620374 -48.32   0.00414086    4.450    0.775
         2 -10.7255     32.9209     63.3440   1.0830416001e+02   6.0217947610e+01       1.6173    0.4676519 -42.95  0.005656051    3.848    0.740
         3 -11.0711     21.8608      7.8390   9.3584553740e+01   7.2508911939e+01     1.239934    0.8288922  53.29  0.006893157    2.894    0.654
         4 -10.5066     16.3949     66.1062   1.1521307700e+02   6.0868824404e+01      1.40641    0.1580707 -64.06  0.004436733    4.477    0.777
         5 -11.0293     23.7836     32.2910   1.0307785170e+02   6.7724172872e+01     1.437253    0.3772614 -44.74  0.004043929    2.979    0.664
         6 -10.0257      9.9758     19.0773   1.0531374036e+02   7.1393150676e+01    0.8434064    0.3219242 -21.00  0.003134461    4.998    0.800
         7 -10.2205      4.9455     42.4884   1.1486488416e+02   6.6801918139e+01    0.7114792    0.3034523 -70.74  0.002186216    2.043    0.510
         8 -10.8066      6.2386     29.3138   1.1075007618e+02   6.9542072908e+01    0.6354397    0.4319223 -69.97  0.003836969    1.425    0.298
         9  -9.5181      2.2510     14.2380   1.0783544394e+02   7.2795270080e+01    0.4621023    0.2264906 -71.22  0.001931985    2.562    0.610
        10 -10.6057      4.6699      4.5626   1.0227615593e+02   7.4478663991e+01    0.4445693    0.3608175 -30.15   0.00173148    1.123    0.110
        11  -9.3804     77.9065      4.3858   6.6464790883e+01   6.4465912048e+01    0.5421996    0.3052189 -16.29  0.001654566    1.758    0.431
        12 -10.1506     73.5159     17.7243   7.4803887675e+01   6.3598841211e+01     1.254979    0.4573822 -33.96  0.004776101    2.533    0.605
        13  -8.5593     72.1798      8.7437   7.0732531372e+01   6.5062115720e+01    0.2112971    0.1580182  13.94 0.0004302415    1.285    0.222
        14 -10.1400     69.6907     41.1264   8.6667226382e+01   6.0338274459e+01     1.108656    0.3554991 -40.80  0.002376151    2.848    0.649
        15 -10.0759     76.2404     32.0292   8.0429218976e+01   6.0857141194e+01     0.616008    0.4294234  68.46  0.001724899    2.425    0.588
        16 -10.1416     78.8311     24.3712   7.6055025240e+01   6.1620551492e+01     1.052592    0.3959539  32.95   0.00275237    4.093    0.756
        17 -10.0445     50.4910     15.4170   8.3005759173e+01   6.7762328533e+01     2.636189     1.138611 -18.35  0.007616078    6.178    0.838
        18 -10.9513    134.0982     30.8749   6.3151840966e+01   4.8377635946e+01    0.6521617    0.3912314   3.28 -0.0006383859    2.411    0.585
        19  -9.2773     62.0553      9.2505   7.4848639943e+01   6.6824727262e+01    0.3915019    0.3263113  41.43   0.00205862    1.375    0.273
        20  -9.6893     63.1029     22.5661   8.1159534983e+01   6.4667354797e+01    0.7786961    0.3217056 -38.89  0.002303283    2.206    0.547
        21  -9.6754     64.6447     13.3672   7.5983570916e+01   6.5806959593e+01     0.315719    0.2282239  22.67   0.00026852    1.383    0.277
        22  -8.8435    128.5963     24.6723   6.1956807897e+01   5.0570474558e+01    0.6406003    0.2947249 -15.80  0.001971256    2.739    0.635
        23  -9.6864    131.8147     17.1605   5.8248046126e+01   5.0674726581e+01    0.4897297    0.2796009  72.99   0.00208004    2.053    0.513
        24  -9.6936    119.1743     20.0776   6.2266435367e+01   5.3455879550e+01    0.6594598    0.3472893 -13.00  0.001419556    2.257    0.557
        25  -8.6551    125.9991      4.9275   5.4405588698e+01   5.3414092843e+01    0.2748356     0.204903  -1.85  0.001016584    1.412    0.292
        26  -8.4866    125.0595     13.0287   5.7982939154e+01   5.2829294108e+01    0.2839418    0.2280955   7.54 0.0006660583    1.285    0.222
        27  -8.8948    126.7568      9.0260   5.5964359300e+01   5.2824652090e+01    0.2926998    0.1966491  55.02  0.000639395    1.388    0.280
        28  -8.8381    112.3153     15.6150   6.2024764619e+01   5.5633381096e+01    0.3981111    0.2024425 -38.84 0.0009222297    2.092    0.522
        29  -9.0421    114.0062     10.1380   5.9214217071e+01   5.5843757937e+01    0.3625126    0.2212736  32.20 0.0006608796    1.705    0.414
        30  -9.0745     96.2747     14.7334   6.5923679363e+01   5.9396137088e+01    0.7193149    0.2803954 -17.45   0.00248722    3.354    0.702
        31  -8.6605    101.9191      8.1647   6.1298137244e+01   5.8889217591e+01    0.2899092    0.1967886 -46.51 0.0009739076    1.785    0.440
        32  -8.5590     97.8312      6.1268   6.1413038538e+01   6.0032063721e+01    0.2870426    0.2142736  18.26 0.0007596985    1.311    0.237
        33  -8.3708     95.9901      2.9842   6.0384962986e+01   6.0765690594e+01    0.2652073    0.2094167  37.30 0.0007992568    1.160    0.138
        34  -9.6138     85.2874     13.1182   6.8497573507e+01   6.1927316918e+01    0.4294893    0.2736147 -53.77  0.001546141    2.345    0.573
        35  -8.0464     80.5996     12.8845   6.9920618254e+01   6.2903312136e+01     0.276937    0.1483971 -34.62  0.001312723    1.833    0.454
        36  -7.8941    141.4747     12.2895   5.4452720045e+01   4.8731291954e+01    0.1981943    0.1309004 -36.11 0.0004867352    1.564    0.361
        37  -9.6943    133.3654     10.7313   5.5354370122e+01   5.0978558464e+01    0.4643108    0.2182587 -37.46  0.001903349    2.209    0.547
        38  -8.6219    143.2245      5.9494   5.1702623820e+01   4.8903512987e+01    0.4439709     0.157133 -29.30  0.001455062    2.687    0.628
        39  -9.7077    137.1204      3.1816   5.1653869434e+01   5.0740177067e+01    0.5987574    0.3145247  62.84  0.001977064    1.751    0.429
        40  -9.2930    110.0066      5.3075   5.7989321788e+01   5.7294766642e+01    0.4955654    0.2831412 -17.25  0.002330928    1.788    0.441
        41  -9.0349    115.1516      4.3132   5.6384288545e+01   5.6153519725e+01    0.2854314    0.2423461 -49.92 0.0005271652    1.365    0.267
        42  -7.9182     84.9926      6.5422   6.5314789316e+01   6.2773697993e+01    0.2868788    0.1392367  16.28 0.0008562657    3.414    0.707
        43  -8.4624     89.2189      3.3724   6.2451884515e+01   6.2217424163e+01    0.3763714    0.1773834 -34.58  0.001677749    2.197    0.545
        44  -7.8569    179.8088      4.2193   4.5983908493e+01   3.9388633894e+01    0.1966598     0.157618  38.71 0.0005166797    1.335    0.251
        45  -7.9733    171.8883      3.9281   4.6841552211e+01   4.1515688614e+01    0.2138283    0.1777579  40.56 0.0003799963    1.247    0.198
        46  -7.9886    104.3143      2.1871   5.7898043099e+01   5.8936786910e+01    0.2194679    0.1568308  14.69 0.0007391413    1.419    0.295
        47  -9.6489     63.8795      2.8886   7.0644581394e+01   6.7313528097e+01    0.3554276    0.2611966 -52.12  0.001689462    2.000    0.500
        48 -10.0520     46.2727     29.6384   9.1548921495e+01   6.5875886621e+01    0.4994035    0.2744246 -48.43  0.001016658    1.681    0.405
        49 -10.2171    117.2790    123.8358   9.6223841983e+01   3.4116660452e+01    0.9342029    0.5449717 -50.01   0.00252299    1.696    0.410
        50  -8.8104    237.8805    250.6193   9.4457384579e+01  -6.4414106862e+00    0.1762383   0.07462249  35.73  0.001050834    1.764    0.433
        51 -10.9996    198.5419    246.6358   1.0021782081e+02  -5.4726483053e-01    0.5152676    0.1931566  40.70  0.002743684    2.029    0.507
        52 -11.1557    121.3527    109.2801   9.1769668414e+01   3.6527118727e+01     1.265828      0.68512 -52.27  0.002878278    1.860    0.462
        53 -10.0991    128.3944    100.9609   8.7792656485e+01   3.6886147968e+01    0.8748387    0.4702047 -30.52  0.002527892    2.489    0.598
        54 -10.5245    131.6633    119.5347   9.1625937281e+01   3.2243828557e+01    0.9161599    0.5498152  75.34  0.002967642    3.293    0.696
        55 -10.8247    133.6036    109.6780   8.8732021312e+01   3.3942595572e+01     0.973553    0.4296889 -48.89  0.002888482    2.299    0.565
        56 -10.1467     58.1295    124.5099   1.1210124532e+02   4.3197723919e+01    0.5748416    0.3161894  83.78   0.00255773    2.405    0.584
        57  -9.7808     41.5454    122.1725   1.1626954059e+02   4.5615341177e+01    0.5466296    0.2343938 -84.45  0.002062306    2.850    0.649
        58  -9.9660     27.3567    123.0066   1.2019517506e+02   4.6778056211e+01    0.5401486    0.2510037  72.75  0.002122879    2.639    0.621
        59  -8.2018    158.4518    122.4898   8.5992855127e+01   2.6017459912e+01    0.2646914    0.1424442  57.79 0.0006766969    2.250    0.556
        60  -8.3677    152.4755    121.4872   8.7113662481e+01   2.7500005137e+01     0.262784      0.14032 -53.86  0.000913188    2.186    0.543
        61  -8.5068      1.4805    116.3003   1.2639086431e+02   5.0235314736e+01    0.3280484   0.09197453 -79.86  0.001057567    2.880    0.653
        62  -8.8965    153.1546    115.1552   8.5401400854e+01   2.8625546773e+01    0.2353076    0.2112385  -6.43 0.0007373111    1.217    0.179
        63 -10.1310     91.9277    112.9118   1.0058697170e+02   4.1068794353e+01    0.5685514    0.3893988  80.63  0.001550495    1.948    0.487
        64  -8.8523     92.6416    103.5510   9.8261621795e+01   4.3106162767e+01    0.6474882    0.3777538  19.69  0.002188146    2.880    0.653
        65 -10.1739     78.2512    113.0432   1.0445960579e+02   4.3175690093e+01    0.5241606    0.3138639 -86.07  0.001686166    2.332    0.571
        66  -7.5879    167.4558    113.9686   8.1882798774e+01   2.5696107395e+01    0.2107297    0.1291018 -61.91 0.0005257248    2.382    0.580
        67 -11.1046     45.6434    103.2733   1.1219510282e+02   4.9641365152e+01     1.264212     0.560235  66.02  0.004232838    4.718    0.788
        68 -10.2885     65.4801    111.0624   1.0773377765e+02   4.5428233754e+01    0.7378402    0.4709309 -79.19  0.001047919    1.653    0.395
        69  -9.1033     59.1665    109.2182   1.0922909177e+02   4.6672146638e+01    0.3886476    0.2302933 -78.12 0.0009604851    1.768    0.434
        70 -10.6039     62.9290     95.6258   1.0538176269e+02   4.9406868342e+01     1.029478    0.5514118 -85.82  0.002947056    3.265    0.694
        71  -9.1743     63.8821     86.9753   1.0310864059e+02   5.1308331802e+01    0.8301938    0.4588611 -41.24  0.003828447    1.925    0.481
        72  -8.6201    158.8323    112.2027   8.3352996032e+01   2.7962535460e+01    0.2632277     0.201304 -53.21  0.000609407    1.397    0.284
        73  -9.9511     14.3329    111.6132   1.2247668313e+02   5.0453776420e+01    0.4433573    0.2096666  78.77  0.001711318    2.320    0.569
        74  -8.5324     14.4767    105.0182   1.2170201149e+02   5.1969964383e+01    0.1970376    0.1565552 -34.73 0.0006730153    1.587    0.370
        75  -9.3368     35.3841    110.3820   1.1635051251e+02   4.8992976642e+01    0.4848261    0.2443889  71.23  0.002111067    2.637    0.621
        76 -10.9319     20.8519    101.1265   1.1934333889e+02   5.2410083146e+01     1.151268    0.4789626  80.06  0.004125834    3.917    0.745
        77  -9.8783     19.9107     84.5667   1.1722737097e+02   5.6354927739e+01     1.061427    0.2889867 -72.88  0.003860736    3.439    0.709
        78 -10.5999     25.7926     78.2622   1.1413284327e+02   5.7381727958e+01    0.7213708     0.391457  75.97  0.002054345    2.711    0.631
        79  -9.9067     36.7168     81.2115   1.1093055793e+02   5.5745807808e+01    0.6489526    0.3236273 -25.94   0.00259682    3.696    0.729
        80  -7.9015    160.1960    106.8750   8.1661685111e+01   2.8702072918e+01    0.2157255    0.1820843  14.10 0.0006388864    1.341    0.254
        81  -8.8614     39.9697    106.6433   1.1444820025e+02   4.9429223910e+01    0.2665134    0.1461881 -86.53 0.0008357954    1.978    0.494
        82  -9.3424    138.6925     92.5026   8.2833321779e+01   3.6422020456e+01    0.4028997    0.3196867 -47.35 0.0006969409    1.250    0.200
        83  -9.7426    140.2991     83.1849   7.9704260839e+01   3.7927809404e+01     1.286333    0.4046401 -36.27  0.003763196    3.470    0.712
        84  -8.6781    139.9344     75.5251   7.7439053564e+01   3.9501662207e+01    0.4167627    0.1999835 -42.15  0.001566861    2.037    0.509
        85  -9.4193      6.5695    103.7599   1.2384057869e+02   5.2781916382e+01    0.3842904     0.180386  75.22  0.001204801    2.332    0.571
        86  -9.6434    216.8401    102.3039   6.9279620083e+01   1.6566584438e+01      0.30101    0.2436545 -32.44 0.0003430985    1.171    0.146
        87  -9.6153    149.5185    103.3076   8.3183545241e+01   3.1812463987e+01    0.4217594     0.296907 -53.56  0.000926918    1.525    0.344
        88  -8.1571     78.6585    104.7231   1.0259632619e+02   4.5062411420e+01    0.2581535    0.2094545  -6.46  0.001374686    1.679    0.404
        89  -9.6824     81.5427     99.6583   1.0059898744e+02   4.5803350726e+01    0.6945158     0.277726 -58.93  0.002023767    2.463    0.594
        90 -10.0395    247.0148    102.3277   6.4549255043e+01   1.0130019247e+01    0.5661982     0.267405 -53.19  0.002006094    3.643    0.726
        91  -8.4218    166.0025    103.8785   7.9571970288e+01   2.7956987828e+01    0.2611353    0.2157928 -45.11  0.000528963    1.221    0.181
        92 -10.1490    139.4594    103.4283   8.5650387791e+01   3.4005487400e+01    0.9339762    0.3957471 -47.49  0.001312254    2.402    0.584
        93  -8.1436     73.8525    102.9001   1.0362248934e+02   4.6196405048e+01    0.2583516     0.175421 -65.63 0.0009171815    1.383    0.277
        94  -8.7333    158.9837    101.1850   8.0414414010e+01   3.0088448137e+01     0.307687     0.216578 -52.35  0.000486624    1.533    0.348
        95  -7.9777    221.6827     98.4347   6.7483646849e+01   1.6099349491e+01    0.2404742    0.1705005  -4.65 0.0005273259    1.635    0.388
        96 -10.6246    123.2277     91.9669   8.6685031005e+01   3.9881409184e+01    0.7358882    0.5796965 -36.27  0.001400845    1.278    0.218
        97  -8.9885    125.7687     84.2597   8.3768079037e+01   4.0953454538e+01    0.5221148    0.3219823  15.23  0.001827772    3.129    0.680
        98  -9.4068     94.3482     97.2604   9.6229311697e+01   4.4254047240e+01    0.3389651    0.2552891 -71.37  0.000711688    1.444    0.308
        99  -8.8294     96.0220     90.9873   9.4105122334e+01   4.5379876507e+01    0.4811565    0.3149051 -15.07  0.001932408    2.671    0.626
       100  -8.6398    150.2685     96.6674   8.1191732465e+01   3.2971362265e+01    0.3106287     0.177356  29.63 0.0009836244    2.437    0.590
       101  -7.5787    171.4081     96.4535   7.6381367296e+01   2.8097041670e+01    0.1525841    0.1477172 -32.91  9.42824e-05    1.030    0.030
       102  -8.6869    164.5080     94.1788   7.7242512369e+01   3.0148865181e+01    0.2819383     0.235164 -73.22 0.0006927323    1.439    0.305
       103  -9.3679    157.1004     91.1333   7.8039925827e+01   3.2471361408e+01     0.574428    0.3913859  -4.87  0.002307964    2.206    0.547
       104  -9.3877    150.5948     89.8448   7.9178563733e+01   3.4240618013e+01    0.6181585    0.2779562 -29.90  0.001828088    2.811    0.644
       105 -10.4962      5.0018     86.1428   1.2231985918e+02   5.6932655526e+01     1.367028    0.3024495 -66.68  0.004130448    2.858    0.650
       106 -10.5774    172.5743    248.1598   1.0472948926e+02   3.0839520258e+00    0.4115473    0.2585963  17.45  0.002584314    1.957    0.489
       107 -10.0572    108.7469    114.5514   9.6364654250e+01   3.7765979759e+01     0.746937    0.4099604 -74.03  0.001384625    3.199    0.687
       108 -10.0151    158.9817    246.4898   1.0683129567e+02   5.2921711219e+00    0.2356049    0.1914877 -79.67   0.00175422    1.794    0.443
       109 -10.6868    108.6994    100.7900   9.3036557049e+01   4.0857440703e+01     1.043741    0.7461011 -73.88  0.004841359    1.726    0.421
       110  -8.1192     95.8130    242.5951   1.1726018885e+02   1.4859356255e+01    0.1574809   0.07389408  48.88 0.0007833339    1.593    0.372
       111 -10.1090    131.1781    236.5759   1.1055306273e+02   1.0744324936e+01    0.1919478    0.1726205  56.97 0.0003338137    1.182    0.154
       112 -10.8531     22.0389     53.6809   1.1023701176e+02   6.3282940295e+01    0.8329242    0.4378308  87.10  0.002881032    3.757    0.734
       113 -10.0617     13.1975     45.4729   1.1193349278e+02   6.5693880486e+01    0.6191739    0.3211248 -24.26  0.003256026    2.395    0.582
       114 -10.0500    183.4186    245.8015   1.0262447317e+02   1.7611331574e+00     0.214966    0.1477099  51.03  0.001009361    1.520    0.342
       115 -10.1926    187.5451    234.3036   1.0043829421e+02   2.4956940524e+00    0.2854137    0.2259666  21.34  0.001695591    1.154    0.133
       116  -7.7965    246.5837    226.1682   8.9479305381e+01  -5.3387098831e+00    0.1437131    0.0885644  -6.74 0.0009370475    1.608    0.378
       117  -8.0270    133.2350    221.9502   1.0855393527e+02   1.2607238226e+01    0.1797517    0.1327655  58.59  0.001188154    1.272    0.214
       118  -9.5841    110.3472     90.1133   8.9710199996e+01   4.2894249747e+01    0.7789463    0.4150648  25.89  0.002743076    3.121    0.680
       119 -10.2077     85.2966     86.5157   9.6163720726e+01   4.8224885143e+01    0.4736664    0.3364373 -82.65 0.0008592487    1.885    0.470
       120  -7.3564    174.6997     88.6534   7.3499940949e+01   2.8739650495e+01    0.1611397    0.1213894   9.48 0.0007037645    1.683    0.406
       121  -7.7293    163.4795     87.4650   7.5552940955e+01   3.1652975466e+01    0.1544062    0.1513277 -41.76 5.181533e-05    1.032    0.031
       122 -10.5186    104.1202     83.1889   8.9524083675e+01   4.5606825269e+01    0.6011269     0.314376 -54.93  0.002092727    2.042    0.510
       123  -9.5455    105.3225     71.1575   8.5472156596e+01   4.7919581727e+01     0.789347    0.4006638 -34.58  0.002794773    2.141    0.533
       124 -10.1718     47.9393     84.4815   1.0781122217e+02   5.3831860674e+01    0.5012085    0.3210721  85.52  0.001509466    2.067    0.516
       125  -9.1253     48.7545     77.2452   1.0588038536e+02   5.5427810191e+01    0.5431432    0.3637496 -13.23  0.002757421    2.176    0.540
       126  -9.4997    242.9119     85.5303   6.1000112236e+01   1.3386459513e+01    0.2706992    0.1943848 -28.33  0.001048499    1.243    0.196
       127  -7.2824    218.9895     91.5078   6.6132079897e+01   1.7784689944e+01    0.2170591    0.1124428  33.06 0.0008106328    2.603    0.616
       128  -9.4907     87.2077     78.8179   9.3413905991e+01   4.9629847085e+01     0.574574    0.3690981  16.55  0.002402583    2.349    0.574
       129  -8.4343    157.6407     83.6014   7.5720377827e+01   3.3773030885e+01    0.3381537     0.183852 -37.89 0.0009522543    1.799    0.444
       130  -9.0328    157.5182     77.3789   7.3872863513e+01   3.4955900119e+01    0.5879917    0.2984504 -50.21  0.001705533    2.296    0.565
       131  -9.9802     34.5687     90.7260   1.1345920155e+02   5.3709021388e+01     0.544741    0.2559839 -83.06   0.00182186    2.631    0.620
       132  -7.9683    170.4019     83.2265   7.2828707973e+01   3.0757582468e+01    0.2328238    0.1383523 -46.08 0.0009473492    1.742    0.426
       133  -8.6786    150.0359     79.9910   7.6385913488e+01   3.6268621556e+01    0.4710729    0.2162017 -37.31  0.001665438    2.143    0.533
       134  -8.9064    118.9974     80.4440   8.4456348101e+01   4.3189059578e+01    0.3523151    0.2516706 -56.93 0.0006411268    1.519    0.342
       135  -8.3243    119.8198     76.3688   8.2969222679e+01   4.3850563872e+01    0.3887388    0.2464489  29.04  0.001346552    1.995    0.499
       136  -9.0678     74.1855     80.2269   9.8013421669e+01   5.1402132938e+01    0.3856624     0.227236 -67.39     0.001103    1.987    0.497
       137  -8.0844     74.3540     75.3026   9.6584892373e+01   5.2486817272e+01    0.2892322    0.1849888  -4.76  0.001182034    2.871    0.652
       138  -8.2546     68.3659     78.3830   9.9445653412e+01   5.2672367591e+01      0.44187    0.2623981 -64.85   0.00206221    1.771    0.436
       139  -8.1547    166.1864     78.6695   7.2369423550e+01   3.2605725580e+01    0.2669176    0.2014919 -43.99 0.0006065606    1.324    0.245
       140  -8.1724    184.1830     78.0937   6.8562948119e+01   2.8270537600e+01    0.2374524    0.2049602   8.95 0.0005856248    1.268    0.211
       141  -7.3705    173.7628     78.6220   7.0775422988e+01   3.0751249746e+01    0.1572508    0.1197682   0.97 0.0003845321    1.624    0.384
       142  -8.7276    130.4988     64.0061   7.6076151013e+01   4.3871420171e+01    0.6225575    0.2475994 -39.57  0.002174791    2.419    0.587
       143  -9.0074    130.0523     58.0306   7.4142685100e+01   4.5061742043e+01    0.2969696    0.2100261 -46.74 0.0004644216    1.462    0.316
       144  -9.3897    127.3706     75.2267   8.0565359356e+01   4.2429548409e+01    0.4033526    0.2708959 -58.98 0.0007663744    1.790    0.441
       145  -8.9707    128.5510     69.6164   7.8448253381e+01   4.3259510032e+01    0.6468917    0.3439574  29.00  0.002234939    2.940    0.660
       146  -9.9587     81.5081     72.1951   9.3291847184e+01   5.2041198059e+01    0.4834962    0.3021532 -64.11  0.001266674    1.891    0.471
       147  -8.9978     83.9505     64.2780   8.9978436047e+01   5.3329017082e+01    0.5089649    0.3410513  -1.80  0.002203422    2.389    0.581
       148  -9.2508    115.3983     71.9614   8.2803166597e+01   4.5684571571e+01     0.599418    0.2683375 -39.57  0.001637064    2.178    0.541
       149 -10.4070    119.9984     64.7045   7.9116727190e+01   4.6118017352e+01    0.5018209    0.4211403 -17.87 0.0003839059    1.249    0.200
       150  -7.5480    175.3932     72.7359   6.8685410146e+01   3.1362282364e+01    0.2120917    0.1487233 -23.11 0.0007228804    1.506    0.336
       151  -8.3658    162.5103     72.8467   7.1382655772e+01   3.4547747412e+01    0.2895246    0.2362664 -73.94  0.000688654    1.480    0.324
       152 -10.0622     62.8695     60.7338   9.6225961231e+01   5.7371869844e+01    0.7195988    0.3081586  31.79  0.002981188    2.771    0.639
       153 -10.5512     54.9511     70.8712   1.0206966833e+02   5.6160827935e+01    0.5783594    0.3675805  59.38  0.001198734    2.205    0.546
       154  -9.3826     55.3553     63.0972   9.9726621801e+01   5.7852753360e+01    0.3705682    0.2685962 -20.61   0.00172238    1.638    0.389
       155  -7.8496    169.3858     71.1763   6.9422686754e+01   3.3129587949e+01    0.2237798    0.1382912 -43.94 0.0004237218    1.632    0.387
       156  -9.3318    147.0791     69.4460   7.3781184194e+01   3.8937772923e+01    0.4295447    0.2722742 -55.06  0.001039147    1.883    0.469
       157  -8.1515    156.6094     70.2407   7.1857705770e+01   3.6466600270e+01    0.2496865    0.2232718  48.34 0.0007101328    1.134    0.118
       158 -10.3763     89.7381     38.3589   7.8423824661e+01   5.7252779429e+01     1.029942    0.4526136  30.23  0.003452366    3.686    0.729
       159  -9.1429     88.2167     56.6991   8.5963971695e+01   5.4126209620e+01    0.9309045    0.5772605 -21.91   0.00334593    2.072    0.517
       160 -10.0355     73.5567     57.1744   9.1179865556e+01   5.6532809862e+01     1.175477    0.3633033 -41.24  0.003918056    3.226    0.690
       161  -9.7158     94.8296     68.3534   8.7781663935e+01   5.0525659124e+01    0.4459521     0.264671 -52.22 0.0008524893    1.704    0.413
       162  -9.3780     97.2124     58.6124   8.3731132984e+01   5.2049796993e+01    0.8323837    0.5024205 -22.52  0.003478403    2.142    0.533
       163 -10.2696     85.2027     48.0584   8.3799852269e+01   5.6357251904e+01    0.4356572    0.3365978 -69.65 0.0009350987    1.787    0.440
       164  -9.1815     80.0900     46.4158   8.4943409163e+01   5.7584531294e+01    0.4136718    0.2302216 -37.08 0.0004753572    1.672    0.402
       165  -7.8176     23.1369     69.1352   1.1330247634e+02   5.9699976704e+01    0.1841759    0.1368747 -53.69 0.0003558809    1.144    0.126
       166  -9.0594    138.0300     66.4795   7.4997124917e+01   4.1648527496e+01    0.3783623    0.2148108 -41.36 0.0006501986    1.726    0.421
       167  -8.1338    138.5204     61.5522   7.3230628550e+01   4.2423448580e+01     0.260619    0.2006845 -40.33 0.0008628235    1.280    0.218
       168  -8.1952     75.6816     66.4526   9.3480632614e+01   5.4229194240e+01    0.2529506    0.1190993 -49.47   0.00105746    1.916    0.478
       169  -8.1807    171.1462     64.8802   6.7115389651e+01   3.3749055390e+01    0.2374152    0.2044615 -56.74 0.0004573239    1.231    0.188
       170  -9.4714    109.8502     63.9481   8.1743252359e+01   4.8446911967e+01     0.409768     0.283859 -56.12 0.0006613014    1.639    0.390
       171  -8.9212    110.7917     57.9573   7.9384777082e+01   4.9400956745e+01    0.3726946    0.2848941   0.71 0.0009513779    1.615    0.381
       172  -7.8994    146.9353     63.8277   7.1985067225e+01   3.9979619040e+01    0.2498371    0.2072231  22.17  0.001211922    1.334    0.250
       173  -8.3565    157.5378     63.2346   6.9412995436e+01   3.7455806961e+01    0.2351129    0.2202207 -36.10 0.0005364704    1.054    0.051
       174  -9.2855     49.4308     62.1710   1.0167791926e+02   5.8777543516e+01    0.2819348    0.1816495 -77.34  0.001101684    2.041    0.510
       175  -9.4766     56.2550     43.2570   9.2751339073e+01   6.1926742530e+01    0.6863326    0.3742115 -13.26  0.002534878    3.806    0.737
       176 -10.2427     49.9091     53.6742   9.8911363258e+01   6.0578599551e+01    0.6983397    0.3837648 -60.87  0.002016925    1.863    0.463
       177  -8.9408     43.8793     54.1361   1.0145398641e+02   6.1173755725e+01    0.2380284    0.1647014 -53.58 0.0008369704    1.228    0.186
       178  -8.2214     10.2558     60.6168   1.1649806145e+02   6.2493377498e+01    0.2334075    0.1273853 -80.07  0.001266103    1.762    0.432
       179  -8.1873    164.5803     60.2986   6.6983774443e+01   3.6170006159e+01    0.2115572    0.1505629 -19.26 0.0006677748    1.530    0.347
       180  -7.9248    152.7524     60.5982   6.9597804855e+01   3.9100837469e+01    0.2089048    0.1521584  68.90 0.0005576379    1.568    0.362
       181  -8.7732    146.6495     59.0970   7.0474350238e+01   4.0872086775e+01    0.2719931    0.2264383  55.86  0.000613411    1.231    0.188
       182  -8.7079    147.8458     54.2911   6.8570577109e+01   4.1382682613e+01    0.4585635    0.1856526 -26.96  0.001498747    2.853    0.650
       183  -9.4076    141.9483     47.9426   6.7692424156e+01   4.3883707343e+01    0.6088608    0.2654266 -27.94  0.001728223    2.441    0.590
       184  -9.3785    138.9987     56.9097   7.1529028711e+01   4.3121621668e+01    0.3904707    0.2437367 -45.67 0.0005270198    1.666    0.400
       185  -8.4725    122.8936     41.0164   6.9763460173e+01   4.9614295830e+01    0.4892495    0.2775111  13.97   0.00165416    3.352    0.702
       186  -9.2667    118.1633     55.3184   7.6351023767e+01   4.8276329394e+01    0.4982988    0.3088098 -48.00  0.001134939    1.716    0.417
       187  -9.2632    121.0350     46.9700   7.2508082014e+01   4.9079617547e+01    0.4847664    0.2255211 -32.97   0.00136219    2.117    0.528
       188  -9.5945    162.9520     53.9725   6.5251697417e+01   3.7604749189e+01    0.5799786    0.2933902 -36.29  0.001618345    1.906    0.475
       189  -8.2566    157.7919     54.7550   6.6570465345e+01   3.8797848093e+01    0.4455797    0.2533775  -2.65  0.001470349    3.257    0.693
       190  -9.0083    215.0008     53.9764   5.6500930153e+01   2.4338566766e+01    0.3690332    0.2102973 -27.79 0.0009913499    1.683    0.406
       191  -8.9492    105.3298     51.9584   7.8822708073e+01   5.1673113727e+01    0.5659859    0.2479591 -36.02  0.001826452    2.226    0.551
       192  -8.2132    152.6600     52.7102   6.6972007494e+01   4.0429256990e+01    0.3568948    0.1802131 -38.59  0.001388669    1.933    0.483
       193  -7.4067    172.4822     50.9695   6.2430989135e+01   3.5610804394e+01    0.2320103    0.1121675 -50.55 0.0008099385    2.525    0.604
       194  -9.7696    130.4526     46.1966   6.9798759143e+01   4.6982410388e+01    0.9174495    0.3559994 -23.69  0.001594154    3.633    0.725
       195  -8.6230    157.1321     48.4298   6.4575038643e+01   3.9962191226e+01    0.3634551    0.1954223 -41.01  0.001458157    1.862    0.463
       196  -8.4546    149.8840     48.1023   6.5985270321e+01   4.1863110612e+01    0.2344323    0.2057312 -62.84 0.0004536726    1.252    0.201
       197  -8.5339    112.0319     47.1966   7.5075175133e+01   5.1077868812e+01    0.2665098    0.2053999 -44.59 0.0004645342    1.331    0.249
       198  -7.8665    162.6857     46.5574   6.2833126685e+01   3.8813221192e+01    0.2068034    0.1510279  76.40 0.0009367777    1.569    0.363
       199  -7.6536    189.1868     45.5668   5.7854344585e+01   3.2058198768e+01    0.2024922    0.1349899  48.09 0.0002811938    1.551    0.355
       200  -7.8866      3.0305    222.4650   1.3163470107e+02   2.8712544676e+01    0.1290199   0.07980177  43.40 0.0005168052    1.536    0.349
       201  -7.5977      2.5074    217.4547   1.3154944020e+02   2.9623487282e+01    0.1002153   0.06829472  69.41 1.129867e-05    1.020    0.020
       202  -8.6687    241.3924    209.3255   8.7575602491e+01  -2.8462915598e+00    0.1954335    0.1587681  18.27 0.0002220324    1.142    0.125
       203  -9.9181     11.2746    207.3963   1.2968175028e+02   3.0622006492e+01    0.5193146    0.2458788  29.22  0.003166223    2.658    0.624
       204  -8.9273    191.2235    192.8589   9.3505327759e+01   7.3876891175e+00    0.4928355    0.2846034 -64.69  0.001848661    4.928    0.797
       205  -9.3808    239.3949    191.3530   8.4767907316e+01  -4.9013509141e-01    0.2466388    0.2359477 -42.92 0.0008262192    1.603    0.376
       206  -8.8690     84.7005     21.9544   7.2912072530e+01   6.0846941555e+01    0.2800478    0.2029204 -31.91 0.0006047815    1.328    0.247
       207  -9.1609    227.4589    186.2517   8.5846355655e+01   2.0864179249e+00    0.2509502    0.1794475  39.14 0.0001828296    1.351    0.260
       208  -8.7346     42.0499     28.0430   9.2781052100e+01   6.6696604555e+01    0.2903111    0.1520728 -36.83  0.000672336    1.668    0.401
       209 -10.0145     37.8295     42.0187   1.0004779841e+02   6.4400326863e+01      0.37278    0.3090971  81.93  0.001516055    1.697    0.411
       210 -10.3273     35.9133     37.9740   9.9472424365e+01   6.5432414458e+01    0.3551619    0.2309872 -33.13 0.0003509776    1.422    0.297
       211  -9.5344    153.5060     40.6289   6.2612728474e+01   4.2060553193e+01    0.4239365    0.2319554 -41.03  0.001117798    1.851    0.460
       212  -8.9639    110.1539     33.0419   7.0008129190e+01   5.3792028056e+01    0.3742813    0.2398421 -36.97 0.0009349948    1.545    0.353
       213  -8.2130    110.4869     26.9890   6.7393916195e+01   5.4595513105e+01     0.362889    0.2121297   5.81  0.001416104    2.600    0.615
       214  -9.0116    105.0088     41.2806   7.4820399001e+01   5.3616918041e+01    0.3611224    0.2564137 -56.77 0.0008579958    1.777    0.437
       215  -8.6867    106.0632     36.7305   7.2681259692e+01   5.4131318485e+01    0.3657896     0.237195  26.37  0.001211422    1.821    0.451
       216  -8.7330    139.5986     39.8282   6.5288935304e+01   4.5721033890e+01    0.4447165    0.2034868 -33.71  0.001409095    2.114    0.527
       217  -7.7744    160.2815     38.2248   6.0451099898e+01   4.0642367122e+01    0.3056091    0.1415651 -18.40  0.001060365    2.698    0.629
       218  -8.2187    163.0484     34.4671   5.8644247642e+01   4.0430444991e+01    0.2815437    0.1783703  11.10  0.001039067    2.223    0.550
       219  -8.6463     53.5524     39.4580   9.2407371006e+01   6.3044745251e+01    0.2714156    0.1836652 -46.27  0.000993951    1.314    0.239
       220  -8.7974     54.4643     35.3331   9.0384350365e+01   6.3716999926e+01    0.2331274    0.1862478 -31.85 0.0005290829    1.068    0.064
       221  -7.2166    190.5071     38.4865   5.5455936585e+01   3.2679707975e+01    0.1505609    0.1403532 -59.56 0.0008097102    1.063    0.059
       222  -8.7499    144.0976     36.4032   6.3046036892e+01   4.5080711841e+01    0.2753975    0.2070592 -39.39 0.0004143452    1.349    0.259
       223  -8.7601    132.8846     36.0707   6.5418930368e+01   4.7946367319e+01    0.2745174    0.2130938 -37.81 0.0004470368    1.303    0.232
       224  -9.0298    228.5910    181.3990   8.4750309697e+01   2.5217278421e+00    0.2443101     0.179369  16.66  0.001484111    1.215    0.177
       225  -8.9152    118.9381     34.9060   6.8400145111e+01   5.1485656669e+01    0.3147223    0.1981039 -37.19 0.0005301418    1.579    0.367
       226  -9.2267    101.0031     31.8207   7.2136751570e+01   5.5998948993e+01    0.4283562    0.2205634 -36.43   0.00109351    1.875    0.467
       227  -8.1414    113.5338     42.1356   7.2706428996e+01   5.1595708766e+01    0.3437386    0.2127932  15.90  0.001361584    2.430    0.588
       228  -9.4600     60.2525     33.7686   8.7346335056e+01   6.3175612432e+01    0.4410605    0.2674771 -52.63  0.001618696    1.850    0.459
       229  -7.4728      9.5212    180.5497   1.2874022729e+02   3.5884288500e+01    0.1081553   0.07985382  77.47 0.0008079542    1.034    0.033
       230  -9.1323    228.7223    176.6725   8.3830412324e+01   3.1186851629e+00     0.220409    0.1960075  18.94 0.0004716708    1.165    0.142
       231  -8.1216    149.1565    175.4110   9.8817462876e+01   1.7738301449e+01    0.1891416    0.1791593  -8.89 0.0003808996    1.182    0.154
       232  -7.7514     50.4535     35.0472   9.1965234991e+01   6.4311868596e+01    0.2009642    0.1116913 -44.36 0.0004230409    1.548    0.354
       233 -10.1301    155.0452     25.7971   5.7034880358e+01   4.3647863787e+01    0.4366546    0.3546984 -20.28   0.00224764    1.263    0.208
       234  -8.7417     92.0810     20.9851   7.0082682845e+01   5.9477361002e+01    0.3179481    0.2118841  15.06 0.0008498345    1.743    0.426
       235  -8.8047    144.1759     25.6981   5.9054359787e+01   4.6491848477e+01    0.2529995    0.1911442 -36.15 0.0005046116    1.346    0.257
       236  -7.8514    101.0176    175.9871   1.0919599427e+02   2.5791757292e+01    0.1618764    0.1494033   8.83  0.001032399    1.423    0.297
       237 -10.3746    196.6320    173.6024   8.9030666448e+01   9.2871099852e+00    0.2489391    0.2273401  24.82 0.0006697663    1.087    0.080
       238  -9.0782    103.0307     21.2411   6.6959880070e+01   5.7068563187e+01    0.3269264    0.2147746 -29.17 0.0006884201    1.483    0.326
       239  -8.8539     91.2470     26.1371   7.2680421628e+01   5.8910986380e+01    0.3486767    0.2231708 -46.15  0.001268463    1.792    0.442
       240  -9.1314     82.6046    174.6856   1.1303767790e+02   2.8797059296e+01    0.2066064    0.1841745  74.46 0.0008080429    1.087    0.080
       241  -7.1891      8.7072    171.2979   1.2840902870e+02   3.7814114387e+01    0.1143628   0.05972172  66.84 0.0003985429    1.563    0.360
       242  -7.8657    238.4765    176.5044   8.2147642027e+01   1.4864861341e+00    0.1268872    0.1045805   9.03 3.096467e-05    1.018    0.017
       243  -8.7484     82.1656    159.1960   1.1113713487e+02   3.2123704617e+01    0.1964009    0.1751615  75.59 0.0003265948    1.051    0.048
       244  -8.1175    111.6078     21.0131   6.4547501440e+01   5.5136436181e+01     0.398843    0.1983989 -19.83  0.001630765    2.177    0.541
       245  -8.7010    216.7598    156.9099   8.1982947015e+01   8.0484879229e+00    0.2111371    0.1727624  29.92 0.0003957485    1.141    0.123
       246  -8.3252    202.2332    155.1041   8.4283099568e+01   1.1110340587e+01    0.1733968    0.1644434 -81.57 0.0004440895    1.364    0.267
       247  -8.3872    154.9942     17.5009   5.4046077131e+01   4.4631912772e+01    0.3197711    0.1403664 -54.81  0.001041186    3.462    0.711
       248  -7.9827    102.1312     25.6640   6.9161116519e+01   5.6661808625e+01     0.378852    0.1795454  36.03  0.001481178    2.443    0.591
       249  -7.6260    145.1926    152.7522   9.5559451741e+01   2.2738811707e+01    0.1791271     0.160764   7.22 0.0004174846    1.263    0.208
       250  -8.3900    133.6010    146.1912   9.6904287000e+01   2.6264296769e+01    0.4754422      0.13953 -51.85  0.001513236    3.730    0.732
       251  -9.2785    237.7850    145.9897   7.6028231779e+01   5.6940642732e+00    0.2474001    0.1561385  27.77  0.001110531    1.614    0.380
       252  -9.3183     66.7739    143.9751   1.1272468528e+02   3.7616217940e+01    0.4767091     0.271335  63.10  0.002360587    1.916    0.478
       253  -7.3776    189.4793     15.5619   4.8435760313e+01   3.5699660713e+01    0.1416484    0.1355399 -85.60  3.42337e-05    1.010    0.010
       254  -8.5912    244.3961    145.2252   7.4784537495e+01   4.5901413277e+00    0.1804359     0.112831 -36.33 0.0006497903    1.623    0.384
       255  -8.3016    241.6620    138.6696   7.3795037460e+01   6.0008179291e+00    0.1436271   0.09415448   9.61 0.0003747123    1.737    0.424
       256  -8.5710    237.7716    135.4191   7.3704401037e+01   7.1960583250e+00    0.1885586    0.1183969  33.41 0.0009458037    1.621    0.383
       257  -8.5400    112.1779    133.7831   9.9594961626e+01   3.2861197306e+01    0.3139192      0.21313 -85.06 0.0009476239    1.965    0.491
       258  -8.9150    132.7589    132.1316   9.4204252682e+01   2.9352320477e+01     0.420089    0.2738152  78.59  0.001602966    2.498    0.600
       259  -8.4299    136.0000    130.9662   9.3174142502e+01   2.8956765936e+01    0.5561517    0.1861036 -52.45  0.001719795    3.425    0.708
       260  -7.5591     86.9828    134.0000   1.0603892936e+02   3.7008474501e+01    0.3031151   0.07669155  37.23 0.0009531156    4.084    0.755
       261  -8.3152     82.3509    130.8343   1.0668630814e+02   3.8434277287e+01     0.364522     0.192131 -81.66  0.001439257    2.770    0.639
       262  -9.3528     66.7655    128.6199   1.1043064081e+02   4.1140165002e+01    0.4852067    0.3176257 -84.81  0.002531072    1.580    0.367
       263  -9.9980     71.1696    125.8299   1.0879041995e+02   4.1195848570e+01    0.5530088    0.3244372 -82.79  0.001442351    1.982    0.496
       264  -8.0102    142.7221    131.7673   9.1762465697e+01   2.7441004054e+01    0.3599623    0.2381815  80.48  0.001444039    2.554    0.608
       265  -9.7441     98.5555    128.6219   1.0204431963e+02   3.6373160782e+01    0.6045254    0.3488128  72.73   0.00236313    2.831    0.647
       266  -7.9288    160.4712    129.3089   8.7152863638e+01   2.4249312307e+01    0.2592971    0.1880876  69.70   0.00118732    1.781    0.439
       267 -11.1154    140.6181    117.5140   8.8950553861e+01   3.0825877041e+01     1.353815    0.8838191 -20.56  0.005570332    2.260    0.557
