#   1 NUMBER                 Running object number                                     
#   2 MAG_AUTO               Kron-like elliptical aperture magnitude                    [mag]
#   3 X_IMAGE                Object position along x                                    [pixel]
#   4 Y_IMAGE                Object position along y                                    [pixel]
#   5 X_WORLD                Barycenter position along world x axis                     [deg]
#   6 Y_WORLD                Barycenter position along world y axis                     [deg]
#   7 A_WORLD                Profile RMS along major axis (world units)                 [deg]
#   8 B_WORLD                Profile RMS along minor axis (world units)                 [deg]
#   9 THETA_WORLD            Position angle (CCW/world-x)                               [deg]
#  10 FWHM_WORLD             FWHM assuming a gaussian core                              [deg]
#  11 ELONGATION             A_IMAGE/B_IMAGE                                           
#  12 ELLIPTICITY            1 - B_IMAGE/A_IMAGE                                       
         1 -13.6644    192.6326     27.2441   6.8967593694e+01   3.3235927588e+01     1.464418     1.396235  16.60  0.008592135    1.194    0.162
         2 -13.6749    201.4306     15.1601   6.4493152177e+01   3.2281457940e+01     1.314832     1.011134 -88.49  0.004943907    1.227    0.185
         3 -13.4858    206.5183      8.7898   6.2237322621e+01   3.1628240837e+01     1.377792    0.6552801  53.58  0.001413252    2.107    0.525
         4 -13.3739      4.3832     10.9140   1.2196367197e+02   7.2693804396e+01     1.758196     0.488397 -46.62  0.008617114    2.455    0.593
         5 -12.2806     14.0650     12.7542   1.1734806614e+02   7.1716040217e+01    0.3473409    0.2430596 -41.92   0.00213818    1.284    0.221
         6 -10.5316     75.7247    242.3741   1.4005770398e+02   1.7196800458e+01    0.2514698    0.1321356  64.04 0.0008724435    1.729    0.421
         7 -11.1645    139.1495    248.3114   1.2910111782e+02   6.7616843283e+00    0.3383885    0.1707451 -59.05  0.001845422    2.749    0.636
         8 -11.5892    124.8221    250.0546   1.3190779389e+02   8.7598585892e+00    0.4632689    0.1357948  41.47  0.002010336    2.592    0.614
         9 -11.7046    106.4809    246.9503   1.3492605618e+02   1.2039836761e+01    0.3868732    0.1760698  55.05  0.002048473    1.945    0.486
        10 -11.5570     98.4409    248.5436   1.3652276522e+02   1.2976569193e+01    0.3983954     0.225579  53.93   0.00183363    1.377    0.274
        11 -11.0628    101.0083    245.9586   1.3582379431e+02   1.3012284183e+01    0.2488452    0.1789301  69.88 0.0006580675    1.311    0.237
        12 -11.0822     81.0284    248.3615   1.3959612607e+02   1.5478902857e+01     0.350209    0.2231337  84.45   0.00233869    1.645    0.392
        13 -11.0954     82.0528    243.5124   1.3902083231e+02   1.6135354450e+01    0.2817334    0.1802482  51.38  0.001882216    1.181    0.153
        14 -10.5473     88.6769    249.2944   1.3832494748e+02   1.4259872425e+01    0.2415004    0.1362102  53.74 0.0008149456    1.346    0.257
        15 -10.6134     85.5059    246.5060   1.3865387943e+02   1.5158771845e+01     0.208436    0.1511143  67.34 0.0009424644    1.170    0.145
        16 -15.8908      9.1933    218.6302   1.5022574517e+02   2.9161176765e+01     8.730004     4.583538 -87.21   0.04184229    1.590    0.371
        17 -10.8228     32.6098    228.4353   1.4669912432e+02   2.4975880944e+01     0.200263    0.1382817  66.68 0.0005355866    1.046    0.044
        18 -10.2809     69.3514    235.0481   1.4062146321e+02   1.9311099779e+01    0.2630687    0.1673125 -76.99   0.00174516    1.659    0.397
        19 -10.1970    150.9946    229.0000   1.2447536967e+02   7.7179949835e+00    0.2223193   0.05880817  41.59 0.0003100578    3.004    0.667
        20  -9.1986    229.4811    229.4916   1.0989390059e+02  -5.4791066393e+00     0.120435    0.0948473  23.49  6.21529e-05    1.093    0.085
        21 -11.4498    102.4431    224.5622   1.3341043583e+02   1.6399050548e+01     0.629258   0.08955088  46.49  0.001841586    5.365    0.814
        22  -9.0510     94.8146    216.8612   1.3408308237e+02   1.8955233862e+01    0.1709073    0.1181027  66.46 0.0003673838    1.329    0.247
        23  -8.9412    152.7507    212.9848   1.2186764843e+02   9.9857772815e+00    0.1709924    0.1500235  45.53 0.0002952131    1.067    0.063
        24 -10.2150    193.1439    195.1745   1.1077307025e+02   5.4446050135e+00    0.8045709    0.3825719 -59.77  0.002013437    9.209    0.891
        25 -11.5462     67.5438    196.3089   1.3749115946e+02   2.6871896242e+01    0.3329454    0.2400607 -49.86  0.001533577    1.815    0.449
        26 -11.6256     72.7883    188.9430   1.3558395687e+02   2.7665721261e+01    0.2674523    0.2220706 -59.33 0.0007717414    1.410    0.291
        27 -10.9517     81.7639    176.5929   1.3207455351e+02   2.8987108840e+01    0.2287461    0.2057751  88.55 0.0003195322    1.102    0.092
        28 -13.1522     69.1261    174.3352   1.3468948905e+02   3.1275610559e+01    0.4671057    0.2893825 -44.51  0.001601761    2.174    0.540
        29  -9.8134    119.2006    174.6047   1.2311491524e+02   2.3247708817e+01    0.2001831    0.1272255  33.33   0.00095097    1.670    0.401
        30 -12.2149     87.5003    166.6535   1.2934210270e+02   3.0280457316e+01     1.385526    0.6506176  61.01  0.003659059    2.841    0.648
        31 -12.7340     67.4728    144.3020   1.3097305901e+02   3.8241869967e+01    0.8738209    0.5542052  82.16  0.004323851    1.863    0.463
        32 -12.2738     58.2439    132.3739   1.3157000708e+02   4.2201282975e+01     1.672796    0.5781476 -76.78  0.004198938    7.098    0.859
        33  -9.3794    103.3371    147.3422   1.2219297503e+02   3.1984123944e+01    0.2904663    0.2129185 -23.07 0.0009118597    2.012    0.503
        34 -12.0307     89.4547    150.7412   1.2634541903e+02   3.3531476010e+01    0.2678196    0.2562589 -26.74 0.0005030512    1.258    0.205
        35 -13.5651     44.3820    229.9578   1.4472809693e+02   2.3356018626e+01    0.7514647    0.3684383  42.57  0.001909833    1.742    0.426
        36  -9.9545    100.6341    151.3284   1.2360856419e+02   3.1554968717e+01    0.2836601    0.2597408 -67.75 0.0008935285    1.113    0.102
        37  -8.6258    192.3715    144.2122   1.0050382044e+02   1.4274569571e+01    0.1934171    0.1401034 -47.49 0.0003715893    1.536    0.349
        38  -9.7575    111.1335    136.6838   1.1806620200e+02   3.2980328808e+01    0.3515714    0.2558487 -15.95  0.001443928    2.105    0.525
        39 -10.4768     98.8107    133.9129   1.2077449031e+02   3.5820899770e+01    0.2817321    0.2269814 -35.53 0.0006767693    1.432    0.301
        40 -11.1741     50.2449    129.8478   1.3337146046e+02   4.3738392873e+01    0.2656165    0.1991106  47.97 0.0006246268    1.397    0.284
        41 -12.1963     21.2228    124.7815   1.4061256558e+02   4.7705565195e+01    0.3453729    0.2386175  70.61  0.002150903    1.462    0.316
        42  -9.5312    107.9343    123.6604   1.1609544716e+02   3.6517207630e+01    0.2168968    0.1975079 -40.26 0.0003434636    1.150    0.131
        43 -11.0238    168.3118    113.3197   9.8190613253e+01   2.5635576503e+01    0.3593194    0.3227847 -86.72 0.0007400036    1.277    0.217
        44 -10.7026     53.2379    110.4975   1.2923504335e+02   4.7905900471e+01    0.2603979    0.1686494 -63.01 0.0009704103    1.369    0.269
        45 -14.6677     49.2950    220.5369   1.4318968908e+02   2.4488523611e+01     1.826739     1.444093  41.61   0.00797711    1.435    0.303
        46  -9.0910    156.3012     76.3225   9.0506530643e+01   3.5561097941e+01     0.161495    0.1223904  16.83 0.0003456464    1.630    0.387
        47 -10.6733    238.7455    248.7201   1.1133656818e+02  -8.9633449162e+00    0.1877106    0.1287183 -12.01  0.001230689    1.507    0.337
        48  -9.6871    163.1579    249.1579   1.2480319320e+02   2.7776557365e+00    0.1684962     0.119823  52.49  0.001086693    1.343    0.255
        49 -10.6849    247.1591    247.8326   1.0978773781e+02  -1.0074226005e+01    0.1673765     0.102771  15.37  0.001094535    1.359    0.264
        50 -11.8901    121.5586    239.9613   1.3143011613e+02   1.0827990896e+01    0.6930187    0.3493221  75.67   0.00254392    5.197    0.808
