#   1 NUMBER                 Running object number                                     
#   2 MAG_AUTO               Kron-like elliptical aperture magnitude                    [mag]
#   3 X_IMAGE                Object position along x                                    [pixel]
#   4 Y_IMAGE                Object position along y                                    [pixel]
#   5 X_WORLD                Barycenter position along world x axis                     [deg]
#   6 Y_WORLD                Barycenter position along world y axis                     [deg]
#   7 A_WORLD                Profile RMS along major axis (world units)                 [deg]
#   8 B_WORLD                Profile RMS along minor axis (world units)                 [deg]
#   9 THETA_WORLD            Position angle (CCW/world-x)                               [deg]
#  10 FWHM_WORLD             FWHM assuming a gaussian core                              [deg]
#  11 ELONGATION             A_IMAGE/B_IMAGE                                           
#  12 ELLIPTICITY            1 - B_IMAGE/A_IMAGE                                       
         1 -14.8249      6.6261     25.2375   1.3428146499e+02   7.0920927917e+01     1.855724    0.7930149 -64.11  0.008072073    1.862    0.463
         2 -12.7939     80.0313     31.7038   1.0105620067e+02   6.0261661030e+01    0.8075509    0.6853247  55.73   0.00287103    1.347    0.257
         3 -13.6305    123.4390     10.5388   7.9133974513e+01   5.3188975929e+01     1.807597    0.9481562  63.12  0.004101309    1.848    0.459
         4 -12.2440     73.2181      1.5963   8.8385509387e+01   6.6115824218e+01     0.361568    0.3404715 -65.87 0.0003693955    1.343    0.255
         5 -12.2225     75.6543     13.3733   9.3920948577e+01   6.4065171089e+01    0.4122714    0.3982924   3.81  0.001242548    1.127    0.113
         6 -14.5326     85.7830     11.9180   8.9657156135e+01   6.2115938786e+01     3.309375    0.5710862  49.51  0.009351267    4.713    0.788
         7 -13.8431     86.3753      3.8137   8.5268943428e+01   6.2979096731e+01     1.598939    0.4434198  47.00      0.00544    3.262    0.693
         8 -14.0521     96.5472      3.7720   8.2340470350e+01   6.0615805156e+01     1.520042     0.569147  60.36  0.005749271    2.611    0.617
         9 -13.0679     83.3496     22.6842   9.5755505637e+01   6.1085357281e+01    0.7731128    0.6091097  54.80  0.003502922    1.400    0.286
        10 -11.6888     64.0496     18.0043   1.0091218475e+02   6.5585608228e+01    0.3678766    0.2786879  35.68 0.0007099097    1.357    0.263
        11 -12.0379    186.2246     11.9243   6.9943885579e+01   3.6398074186e+01    0.5013382    0.3929285  83.55  0.002110905    1.293    0.227
        12 -10.2753    149.6761      8.5896   7.3628844867e+01   4.6457674203e+01      0.45587    0.1695399  69.20  0.001613097    2.647    0.622
        13 -10.9344    193.0326      6.2351   6.7434946327e+01   3.5171294472e+01    0.4362104    0.1942482 -25.19  0.001640675    2.135    0.532
        14 -12.0058    137.5410      5.0668   7.4207537733e+01   5.0040974548e+01    0.7025799    0.3845779  53.34  0.002277734    1.685    0.407
        15 -10.2089    143.4885      2.5235   7.2243479159e+01   4.8686683950e+01    0.2814662    0.2266271 -60.32 0.0009481138    1.349    0.259
        16  -9.4473    158.5683      5.0034   7.1015788670e+01   4.4410076755e+01    0.2093216    0.1408786 -20.62 0.0004702443    1.535    0.348
        17 -11.5655     33.6484      3.8242   1.0831096821e+02   7.2717898068e+01    0.3631512    0.2724077  -7.76  0.001197891    1.312    0.238
        18  -9.2483    204.5189      1.4789   6.4953382789e+01   3.2671500419e+01    0.1338905    0.1268217 -62.86 -2.164221e-05    1.018    0.017
        19  -9.4327     36.3343    197.6378   1.4548821956e+02   3.0692678755e+01    0.1217336   0.05676751  60.26 0.0007037431    1.815    0.449
        20 -11.8991     62.2550    191.5759   1.3977407247e+02   2.8939712370e+01    0.4825823    0.1976824  54.56  0.002452174    2.232    0.552
        21 -10.7880     72.6868    190.3522   1.3747969677e+02   2.7887097774e+01    0.2136348    0.1938323  48.22  0.001591192    1.207    0.171
        22  -9.8492    135.6562    188.6777   1.2412552161e+02   1.9141172824e+01    0.1225833   0.09079126   9.73 0.0007050276    1.731    0.422
        23 -10.8572     69.1889    184.8710   1.3772118301e+02   2.9335049416e+01     0.401592    0.2011811  43.82  0.002255869    1.632    0.387
        24 -11.4931      2.4433    208.9456   1.5239989352e+02   3.1809919261e+01    0.3563102    0.2500141 -66.47  0.002617814    1.823    0.452
        25 -10.5227     49.5528    182.3404   1.4173626090e+02   3.2124917399e+01    0.1853951    0.1540958  83.72 0.0007750792    1.163    0.140
        26 -11.8001     36.3144    179.1701   1.4436187280e+02   3.4137961635e+01    0.3724788    0.3031737  54.75  0.002378219    1.125    0.111
        27 -10.5360     42.3228    176.2477   1.4285133545e+02   3.4083745179e+01    0.2198923    0.1551001  60.28 0.0007963391    1.156    0.135
        28 -10.9408     47.0513    177.0141   1.4187038187e+02   3.3426252553e+01    0.2063743    0.1565939  89.51 0.0003097216    1.244    0.196
        29 -11.4962     54.3310    171.2167   1.3976442090e+02   3.3749354666e+01    0.5024404    0.2056755  54.08  0.002167595    2.283    0.562
        30  -9.1450     35.3387    169.3058   1.4390251777e+02   3.6174299084e+01    0.1019633   0.08594847 -40.13 0.0007041107    1.677    0.404
        31 -10.0141     48.6640    160.8714   1.4014710116e+02   3.6482102844e+01    0.1831876    0.1617177  24.84  0.000814435    1.395    0.283
        32 -10.8779      8.8686    159.8828   1.4931512993e+02   4.0434068848e+01     0.357242    0.1558951  40.80   0.00209765    1.929    0.482
        33  -9.8991     13.1708    153.8249   1.4801237040e+02   4.1334349344e+01    0.1712229     0.118444  66.85 0.0004567825    1.168    0.143
        34  -9.8328    103.8990    151.6003   1.2568270335e+02   3.0916637066e+01    0.1835115    0.1538809  48.95 0.0004321846    1.080    0.074
        35 -10.0848     44.0073    149.6255   1.4023001460e+02   3.9347041524e+01    0.1639715      0.13844  56.42 0.0006017992    1.116    0.104
        36 -10.5754     57.0103    120.0155   1.3319598277e+02   4.4432686199e+01    0.1879019    0.1690493 -88.30 -0.007547014    1.033    0.032
        37 -12.0240     59.8807    146.0756   1.3585668604e+02   3.8293600454e+01     1.782434    0.7440621  66.76  0.006426463    4.071    0.754
        38 -12.1966     52.4863    144.2206   1.3753259296e+02   3.9569592973e+01    0.9946893    0.4332489  59.28  0.004415797    2.605    0.616
        39 -12.8468     55.5120    124.3117   1.3424094137e+02   4.3634789547e+01     1.054226    0.6111225 -33.95 0.0005047607    2.778    0.640
        40  -9.8830     40.8103    143.8664   1.4048322415e+02   4.0921712385e+01    0.1697812    0.1538989 -81.08  0.000517619    1.185    0.156
        41 -11.3430      6.1639    143.1918   1.4911181319e+02   4.4094636150e+01    0.2811765    0.2291473  48.23  0.001362164    1.254    0.202
        42 -11.4008     81.3884    130.9218   1.2809758713e+02   3.8711672784e+01    0.3256349    0.2688831  87.54  0.001406133    1.212    0.175
        43 -12.5296      9.8045    130.2118   1.4742566103e+02   4.6631043680e+01    0.4207845     0.303626  23.73  0.002583445    1.655    0.396
        44 -11.4391    126.2462    128.3676   1.1601078643e+02   3.1718774603e+01    0.4615109    0.3303494 -29.70  0.002303839    1.707    0.414
        45 -11.5233     67.2246    128.5276   1.3157965414e+02   4.1213532224e+01    0.3605454    0.3489756 -62.29  0.001231537    1.179    0.152
        46  -9.4127     36.7567    123.3331   1.3943288541e+02   4.5895362272e+01    0.1548126    0.1166714  18.97 0.0009383876    1.641    0.391
        47  -9.3385    137.5613    122.4345   1.1199330462e+02   3.0713878036e+01    0.1415163    0.1342736  34.45 4.712767e-05    1.013    0.013
        48  -9.3151    233.3072    117.6965   9.2153272327e+01   1.2134936986e+01    0.1215173    0.1021818 -54.49 0.0004747165    1.603    0.376
        49  -9.8036    126.7082    113.4729   1.1263613885e+02   3.4624644122e+01    0.3662796     0.138606  40.35  0.001298851    2.665    0.625
        50 -11.0556     79.4767    110.0836   1.2490913790e+02   4.3647367688e+01    0.3248841    0.2535322 -35.29  0.001311572    1.519    0.342
        51 -12.2848     46.5994    125.1479   1.3686776910e+02   4.4462936094e+01    0.7235908    0.5009176 -60.23 0.0004692121    1.432    0.302
        52  -9.7906      5.8306    107.9740   1.4696576723e+02   5.1872628203e+01    0.1881572    0.1461418  -7.49  0.001259785    1.768    0.434
        53 -13.5801     17.5588    101.2149   1.4274748365e+02   5.2643333423e+01    0.4426529    0.3926238 -85.95  0.001774035    1.083    0.077
        54 -12.0087     58.7308     98.6304   1.2908985396e+02   4.9172734043e+01    0.5024303    0.3001777 -57.53  0.001718925    1.550    0.355
        55 -13.0734     55.2890     94.5416   1.2943315604e+02   5.0559234843e+01    0.6733755    0.4613571 -33.93  0.002023536    1.821    0.451
        56 -10.5001     32.6836    100.4535   1.3781509261e+02   5.1580317605e+01    0.2647722    0.1279271  23.03  0.001275228    2.456    0.593
        57 -11.0336      5.4527     97.7549   1.4625384234e+02   5.4237176565e+01     0.382672    0.1783842 -89.07  0.001976962    1.902    0.474
        58 -10.6269     69.3127     95.7674   1.2511103534e+02   4.8417070202e+01    0.2847539    0.2300865 -31.37  0.001198772    1.455    0.313
        59  -9.8595     81.6980     95.4670   1.2112657090e+02   4.6620833475e+01     0.248795     0.190457  63.31 0.0006595461    1.445    0.308
        60 -11.2657    188.3447     94.1317   9.4050981414e+01   2.4840058262e+01    0.3862475    0.3300626 -84.44  0.002013469    1.518    0.341
        61  -9.9032    203.7843     94.1003   9.1282680555e+01   2.1420178508e+01    0.2180536    0.1943546 -48.32  0.001115481    1.257    0.205
        62  -9.9742    164.3146     92.7511   9.8497220862e+01   3.0510857464e+01    0.2293354    0.1836092 -49.87 0.0007346613    1.361    0.265
        63  -9.9510     44.6147     90.3508   1.3224091633e+02   5.2777231130e+01    0.2413217    0.1593249 -33.77 0.0008206596    1.902    0.474
        64 -10.9533    152.5341     88.3494   9.9892966667e+01   3.3972214347e+01    0.2768983    0.2604806  68.09 0.0006267411    1.140    0.123
        65 -11.0238    249.6965     86.7560   8.2682082472e+01   1.2881418037e+01    0.2937997    0.2104577 -24.46 0.0007975653    1.216    0.178
        66  -9.9586    111.8016     87.8526   1.1018104508e+02   4.2870082382e+01    0.2217841    0.2031288  -6.17 0.0008660008    1.197    0.164
        67 -10.9920     89.3352     86.3207   1.1648930025e+02   4.7402956602e+01    0.3543226    0.2632067  45.73 0.0007797442    1.384    0.278
        68 -10.7547     26.5259     84.8062   1.3762747354e+02   5.5809591274e+01    0.2667535    0.1349178 -52.05  0.001274358    1.863    0.463
        69 -11.1695    128.1380     83.1494   1.0438602786e+02   4.0407720643e+01    0.3802675    0.3069469  46.84 0.0009002309    1.235    0.191
        70  -9.9373     54.6680     82.1351   1.2708793126e+02   5.3545617423e+01    0.2150073    0.1761124  53.41 0.0006165596    1.305    0.234
        71 -10.0986    143.7931     81.2232   9.9898628724e+01   3.7268928352e+01    0.2271373    0.2094865 -77.81 0.0006748617    1.214    0.177
        72  -9.9577     67.4332     81.1673   1.2239616886e+02   5.2055656854e+01    0.2617957    0.1630519  51.58  0.000634203    1.816    0.449
        73 -10.4175     41.8348     78.2987   1.3091026317e+02   5.5920819964e+01    0.3397995    0.2099497 -34.67  0.001707214    1.970    0.492
        74  -8.8479     47.0000     75.3754   1.2836796562e+02   5.6043071367e+01    0.2979268   0.06857225 -62.12  0.000928849    3.887    0.743
        75 -11.0868    144.3025     73.9165   9.7592765315e+01   3.8476632539e+01    0.3359168    0.2223472  55.22 0.0005095934    1.558    0.358
        76 -12.9050     96.6380     71.8168   1.1007272018e+02   4.9206740811e+01    0.7278771    0.3902053  38.22  0.001249395    1.991    0.498
        77  -9.2008    194.4669     73.4879   8.7367296301e+01   2.6572802687e+01    0.1466036    0.1372429   0.87  6.28096e-05    1.036    0.035
        78  -9.9727    182.9609     72.4935   8.9107810417e+01   2.9456411925e+01    0.2160019    0.1927459 -22.02 0.0003449817    1.093    0.085
        79  -9.2938     65.6948     70.3551   1.2019326115e+02   5.4775314201e+01    0.1415243    0.1066181  83.60 0.0007040898    1.716    0.417
        80  -9.0509     23.2383     70.6321   1.3652373768e+02   5.9425319530e+01    0.1261612   0.08523649  80.38 0.0002732225    1.606    0.377
        81 -10.4001    210.4865     68.4930   8.3446298165e+01   2.3543074935e+01     0.246318    0.2364173   2.08 0.0008709211    1.040    0.039
        82 -11.5704     83.2107     68.5021   1.1346500633e+02   5.2374933812e+01    0.2551791    0.2304853 -53.77 0.0002799158    1.073    0.068
        83 -10.3660    146.1756     67.1101   9.5039914220e+01   3.9229580139e+01    0.2286896    0.2019257  10.93 0.0003150545    1.209    0.173
        84 -10.0687     21.1387     66.1019   1.3654675386e+02   6.0651473186e+01    0.2209822     0.166068   9.74 0.0008595392    1.634    0.388
        85 -10.5068    103.8488     64.7495   1.0558427394e+02   4.9223016172e+01    0.4504493    0.2370927  53.71  0.001810149    2.164    0.538
        86  -9.2854     61.3207     65.2824   1.2039527232e+02   5.6548874780e+01    0.1366319    0.1026165 -23.37 0.0002320253    1.588    0.370
        87 -11.4004    214.8807     62.3814   8.1153711149e+01   2.3344244294e+01    0.4237842    0.3696503 -17.02  0.001522656    1.086    0.079
        88 -10.3705    169.9982     62.9815   8.8714069440e+01   3.4077389709e+01    0.2486908    0.1782986  23.57 0.0008033421    1.660    0.398
        89  -9.9168    135.1467     63.3539   9.6469415370e+01   4.2516833947e+01    0.2107606    0.1898419  55.20 0.0005011755    1.133    0.117
        90 -10.3070     53.4407     62.1784   1.2256717510e+02   5.8314904944e+01     0.481509    0.2496502  12.26  0.001848099    3.495    0.714
        91 -12.7394    125.3407     57.3594   9.6959293601e+01   4.5885404447e+01    0.4122683    0.3383931  22.07  0.001434129    1.342    0.255
        92 -12.0322     68.8006     55.2956   1.1444857570e+02   5.7624523343e+01     0.404011    0.3396262  47.47  0.001230646    1.309    0.236
        93 -11.1801    210.0892     54.7271   7.9712409351e+01   2.5455307088e+01     0.318082    0.2376366  36.85 0.0008099622    1.446    0.308
        94  -9.6626    174.6763     56.5739   8.5865682647e+01   3.3877935996e+01    0.1922585    0.1480313  71.90 0.0007081181    1.441    0.306
        95 -11.6970    134.0496     53.9894   9.3584445406e+01   4.4396680818e+01    0.5524563    0.3333532  67.21  0.001985498    2.063    0.515
        96 -12.8329      3.2818     47.0714   1.4091252174e+02   6.6145665282e+01    0.5617831    0.4368054  75.83  0.001906118    1.380    0.276
        97 -13.3033    190.3199    217.9195   1.1793789606e+02   6.7131417973e+00    0.6397399    0.3464326  41.60  0.003890573    1.570    0.363
        98 -11.2450    145.3389     50.6642   8.9810268099e+01   4.2157002477e+01    0.3331648    0.2776131 -32.65 0.0006945305    1.197    0.164
        99 -12.4859     42.2833     33.8005   1.1810682709e+02   6.5925673091e+01    0.9216788    0.6812729 -84.07  0.004904458    1.997    0.499
       100 -12.9531     42.5992     47.4408   1.2273047352e+02   6.2950547215e+01    0.5208653    0.4262467   9.78  0.001100894    1.395    0.283
       101 -12.4600     41.9232     42.8143   1.2152879728e+02   6.4046210665e+01    0.4463813    0.3388838   4.98  0.001629306    1.556    0.357
       102  -9.8445     91.6618     53.0050   1.0543825675e+02   5.4008325675e+01    0.1983861     0.179711 -33.75 0.0004634121    1.060    0.057
       103 -10.3506    176.8033     45.0829   8.1891112124e+01   3.4962369490e+01    0.2491069    0.2177128  60.24 0.0005778702    1.158    0.136
       104 -11.4885    157.2623     43.7528   8.4972811083e+01   4.0167882881e+01    0.3186866    0.2846256  13.22 0.0005647186    1.174    0.149
       105 -10.0780     95.2850     42.9138   1.0043285926e+02   5.5174183173e+01    0.2055723     0.182667 -24.67 0.0004130159    1.090    0.083
       106 -10.3132    197.2103     41.2326   7.7601246291e+01   3.0297863334e+01    0.2371535    0.2281166   5.46 0.0005587869    1.060    0.056
       107  -9.9768    102.1551     41.6051   9.7742035825e+01   5.3929948070e+01    0.2325963    0.1914315 -42.13 0.0004097748    1.228    0.186
       108 -10.4051    217.0253     38.8525   7.4396819010e+01   2.5752525715e+01    0.4022184    0.1914863  42.74  0.001642091    2.489    0.598
       109 -11.6240    174.6964    228.7804   1.2207459180e+02   7.7063028281e+00    0.6014929    0.3118464  34.47   0.00370821    1.465    0.318
       110 -13.1437    179.4507    221.0826   1.2025672643e+02   7.9282717556e+00     1.258685    0.5801596  47.78  0.006685434    2.255    0.556
       111 -12.1345     81.5336    201.2513   1.3664592108e+02   2.4831725079e+01    0.6235799    0.3731448  70.77  0.003750749    1.842    0.457
       112 -11.7161     27.3305    219.3779   1.4826265660e+02   2.7840548898e+01    0.4099399    0.2477101  69.01  0.003082252    1.345    0.257
       113 -11.1680     77.0001    218.9950   1.3901468381e+02   2.2459087191e+01    0.3119314    0.1311833  53.94  0.001711962    2.107    0.525
       114 -11.9825    161.4419    222.6649   1.2365077053e+02   1.0354618471e+01     0.837293    0.4823655  56.98  0.004692642    2.400    0.583
       115 -10.6342     44.4949    208.1439   1.4449534426e+02   2.7995081083e+01    0.2290429    0.1674599  48.03  0.001369274    1.142    0.124
       116 -11.1575    176.5723     33.4619   7.8191341830e+01   3.6530238178e+01    0.2857913     0.254998  53.46 0.0006703419    1.122    0.109
       117 -10.8717    140.2674    221.6934   1.2738406385e+02   1.3541121079e+01    0.2446353    0.2135758  28.44  0.001638613    1.169    0.144
       118  -9.3755    109.5810     28.1891   9.0067628564e+01   5.4385109781e+01    0.2102808    0.1397039 -12.84 0.0009429242    1.726    0.420
       119 -10.6615     37.7470     27.3712   1.1779817210e+02   6.7798082177e+01    0.2729578     0.186873  41.92 0.0009973493    1.751    0.429
       120 -11.0431    241.9490     23.1720   6.7735251042e+01   2.1729119616e+01    0.3454002    0.2464014 -81.80  0.001314327    1.576    0.366
       121 -11.0477    151.1127     20.4678   7.7836831154e+01   4.4804479168e+01    0.5493866    0.2828319  44.39  0.001823561    2.008    0.502
       122 -10.3108    139.4878     20.4627   7.9961138715e+01   4.7876394156e+01    0.2594385    0.2394399  54.48 0.0005692743    1.055    0.053
       123  -9.9602    143.2950    208.3599   1.2521953069e+02   1.4967645223e+01    0.2711872    0.1182624  43.68  0.001395243    1.872    0.466
       124  -9.9216    208.8513     18.1714   6.9413533725e+01   3.0004793932e+01     0.209429    0.1770155 -61.84 0.0005699488    1.171    0.146
       125 -12.1874     11.5255    209.4770   1.5076396300e+02   3.0951704476e+01    0.4962659    0.2670197  25.98  0.002695541    2.152    0.535
       126  -9.4231     53.5004     10.5116   1.0165904369e+02   6.8629354369e+01    0.1316903    0.1164218 -13.87 -1.591529e-05    1.039    0.038
       127 -13.3757     84.5557    210.3209   1.3685087982e+02   2.2918613158e+01     1.124924    0.6547041  60.97  0.007010316    1.654    0.395
       128 -11.8315     35.4522    207.1649   1.4617881745e+02   2.9101116845e+01    0.4132594    0.1207427  34.56   0.00208385    2.740    0.635
       129 -10.8273     93.1392    204.2235   1.3459041089e+02   2.2802817183e+01    0.3167415    0.2146988  59.09  0.002083237    1.347    0.258
       130 -10.2927     53.4274    201.0476   1.4229013552e+02   2.8256963229e+01    0.2574894    0.1307365  62.11  0.001532185    1.793    0.442
       131 -10.1426    198.3414    198.6667   1.1370436983e+02   7.7847650973e+00    0.1079605   0.08999483  59.36 0.0007051135    1.753    0.430
       132 -13.3056     71.3304    202.3156   1.3879571731e+02   2.5931114361e+01    0.9190587    0.5448804  78.23  0.005646235    1.877    0.467
