#   1 NUMBER                 Running object number                                     
#   2 MAG_AUTO               Kron-like elliptical aperture magnitude                    [mag]
#   3 X_IMAGE                Object position along x                                    [pixel]
#   4 Y_IMAGE                Object position along y                                    [pixel]
#   5 X_WORLD                Barycenter position along world x axis                     [deg]
#   6 Y_WORLD                Barycenter position along world y axis                     [deg]
#   7 A_WORLD                Profile RMS along major axis (world units)                 [deg]
#   8 B_WORLD                Profile RMS along minor axis (world units)                 [deg]
#   9 THETA_WORLD            Position angle (CCW/world-x)                               [deg]
#  10 FWHM_WORLD             FWHM assuming a gaussian core                              [deg]
#  11 ELONGATION             A_IMAGE/B_IMAGE                                           
#  12 ELLIPTICITY            1 - B_IMAGE/A_IMAGE                                       
         1 -14.1718    210.7780      4.1461   5.3604580897e+01   3.2617036922e+01     1.320607     1.014953 -85.59  0.005562979    1.011    0.011
         2 -15.1854    188.2067     32.8181   6.2097667557e+01   3.4357738325e+01     2.619805     1.876606  13.08   0.01358354    2.595    0.615
         3  -9.2657    115.4912     31.4778   7.4152833347e+01   5.1012815665e+01    0.1286281     0.112965  49.88 0.0001299565    1.023    0.022
         4 -17.0873     63.3750    248.7852   1.3443391670e+02   1.3638974311e+01     10.23939     3.568062  27.27   0.02935147    6.939    0.856
         5 -12.7944     53.3151    220.5731   1.3365207668e+02   2.1180899811e+01    0.2930608    0.2039451  71.44 0.0007120783    1.328    0.247
         6 -11.7991     48.4714    217.2632   1.3434396448e+02   2.2574523151e+01    0.3389824    0.2289054  38.92  0.001369982    1.549    0.354
         7 -17.3064     32.3938    241.9993   1.3986417939e+02   1.9079055330e+01     9.747922     3.113605 -59.05   0.04190458    3.266    0.694
         8 -19.1400     19.4577    103.8137   1.2585097535e+02   5.3014843982e+01     17.44433     0.952508 -62.34   0.03124406   13.388    0.925
         9 -11.1826     36.5488    223.3289   1.3745156720e+02   2.2670846404e+01    0.2033854    0.1551236  67.89 0.0006997068    1.126    0.112
        10  -9.7628     80.9442    220.5168   1.2758725591e+02   1.7263286068e+01    0.1996783     0.128017  39.92 0.0004228371    1.523    0.344
        11 -12.6689     69.5246    218.5474   1.2988288717e+02   1.9405692451e+01    0.3479359    0.2433962  74.57  0.001194497    1.415    0.293
        12 -12.2909     73.3026    212.5700   1.2829204460e+02   2.0246784216e+01    0.2633463    0.2137544  81.55 0.0007104327    1.136    0.120
        13 -10.3460     76.9176    207.1463   1.2674717863e+02   2.0991277721e+01    0.3929294    0.2181633 -55.67  0.001323386    1.810    0.447
        14 -10.3287     10.2519    213.7591   1.4198085110e+02   2.7716218689e+01    0.1344763    0.1164761  87.98 0.0003695225    1.190    0.160
        15 -12.4369     57.0694    212.6060   1.3194881187e+02   2.2527499889e+01    0.3510464      0.24976  50.65  0.001135382    1.335    0.251
        16 -11.4264     64.3886    208.3198   1.2978615623e+02   2.2532564765e+01    0.5477934    0.3835235 -43.78  0.002680334    1.792    0.442
        17 -12.6882     62.6279    202.9938   1.2952153464e+02   2.4051715897e+01    0.4321294    0.2706659 -50.14  0.001480141    1.775    0.436
        18  -9.5204     50.3271    212.8780   1.3346999033e+02   2.3354848861e+01    0.1912865    0.1404909 -65.56 0.0002409706    1.332    0.249
        19  -9.4216     61.2963    228.2393   1.3277021399e+02   1.8362894958e+01    0.1095916    0.1032623 -25.03 0.0006832541    1.474    0.321
        20 -12.1447    105.7443    203.3936   1.1940194427e+02   1.7256651434e+01    0.5631071    0.4896722  74.62   0.00257913    1.127    0.113
        21 -10.5541    110.5044    211.4924   1.1955984109e+02   1.4564502964e+01    0.2615336    0.2374328  65.74 0.0006953186    1.032    0.031
        22 -11.7732    106.3920    209.8882   1.2026842090e+02   1.5630735419e+01    0.4906021    0.3941737 -67.46  0.001514312    1.258    0.205
        23 -11.8994    135.3263    207.8831   1.1320896058e+02   1.1020279508e+01    0.3416558    0.2219087 -73.35  0.001390345    2.036    0.509
        24 -12.1360    113.9460    208.7057   1.1831836791e+02   1.4613921993e+01    0.4500963    0.4116112 -19.11  0.002520299    1.307    0.235
        25 -12.1467    193.0776    193.5904   9.7718770786e+01   3.4918254590e+00     1.107425    0.5762494 -61.31  0.004003388    3.194    0.687
        26  -9.4038    163.3671    203.2710   1.0600237551e+02   6.9074478189e+00    0.1952231    0.1387794 -56.82 0.0009337442    1.540    0.351
        27 -11.3161    155.9079    199.8434   1.0703916367e+02   9.0230220519e+00    0.4919869    0.3322679 -69.68  0.001826947    1.962    0.490
        28 -10.7440    152.6067    194.2889   1.0674417440e+02   1.0865828217e+01    0.3400483    0.2245461  56.72  0.000839392    1.759    0.432
        29  -9.5887     86.0107    201.2871   1.2377826993e+02   2.0995229999e+01    0.4958221    0.1671232  51.96  0.001525771    3.892    0.743
        30 -10.5562     95.1309    200.1959   1.2143224724e+02   1.9790926890e+01    0.2727817    0.2043103  81.84 0.0002249486    1.458    0.314
        31  -9.3520     75.3412    200.7583   1.2623939865e+02   2.2759393615e+01    0.1442718   0.09662578  64.55 0.0005136686    1.559    0.358
        32 -11.4589    141.0437    197.8555   1.1009511783e+02   1.2227645328e+01    0.3570067    0.2182515 -64.78  0.001127517    1.973    0.493
        33 -11.1271    121.0781    197.9869   1.1484199296e+02   1.5847281758e+01    0.3094438    0.2077167 -61.20   0.00107628    1.544    0.352
        34 -11.3252    101.4104    197.7880   1.1953920407e+02   1.9323445469e+01    0.4265409    0.3075533 -13.63  0.001820144    2.272    0.560
        35 -11.0227    208.8921    197.6427   9.5306837150e+01  -7.6420041816e-02    0.2585139    0.1935789 -46.23 0.0005816659    1.347    0.258
        36  -9.9618     82.1311    195.0528   1.2378384483e+02   2.3112801653e+01    0.2489293    0.2401845   7.10  0.001454301    1.256    0.204
        37 -12.8807     71.8816    189.5561   1.2547043400e+02   2.6011129058e+01      0.75789     0.676661 -51.51  0.003973095    1.236    0.191
        38  -9.4667     98.1715    190.8750   1.1919585878e+02   2.1540965956e+01    0.1905862    0.1773759 -23.91 0.0007284674    1.272    0.214
        39 -11.9966    110.8290    188.4208   1.1565272363e+02   1.9953413546e+01     0.474782    0.3084733 -18.91  0.001817417    2.831    0.647
        40  -9.9495     87.1372    224.2167   1.2668547674e+02   1.5474486259e+01    0.3141298    0.2021545 -42.27   0.00152517    2.034    0.508
        41 -10.7291    151.9362    184.1465   1.0492386763e+02   1.3279356987e+01    0.2316284    0.2061381  80.27 0.0005485289    1.251    0.200
        42 -10.5410    109.6932    183.9626   1.1513772691e+02   2.1237795725e+01    0.2229019    0.1960212 -65.48  0.001168956    1.113    0.102
        43 -10.8435     73.7048    181.2576   1.2375688068e+02   2.7805579864e+01    0.3137257    0.2982623  39.83 0.0009756124    1.188    0.158
        44 -10.7818    117.7799    188.6035   1.1397670400e+02   1.8665680726e+01    0.2181231    0.1351259  49.48 0.0003955787    1.643    0.391
        45 -10.5729     99.4411    180.7217   1.1713618067e+02   2.3820864613e+01    0.2555006    0.2505638 -16.29  0.000571819    1.155    0.134
        46 -11.9007    145.2085    179.0155   1.0548393685e+02   1.5765409310e+01    0.4709864    0.3290049  22.65  0.002076513    1.762    0.432
        47 -10.4279    167.5871    175.6076   9.9587983437e+01   1.2142426200e+01    0.4613998    0.2612889 -67.64  0.001628874    2.905    0.656
        48  -9.4775    210.2814    176.5894   9.0822571345e+01   3.7972465330e+00    0.1453791    0.1107749 -72.19 0.0004875658    1.799    0.444
        49  -9.4182     35.2975    172.9681   1.3226152011e+02   3.4840860090e+01    0.1818723    0.1437254 -75.83 0.0002625589    1.075    0.069
        50 -10.2754    202.6665    170.8048   9.1123367596e+01   6.3694963557e+00    0.2338632    0.1767987 -29.20  0.001094559    1.342    0.255
        51 -10.0584     38.8147    170.9245   1.3110903236e+02   3.4958073569e+01    0.1922674    0.1626635 -59.45 0.0003289203    1.176    0.150
        52 -11.8590    194.9853    168.3774   9.2163721163e+01   8.3361984731e+00     0.374384    0.3553275  81.07  0.001181377    1.177    0.150
        53 -10.8111    190.4796    160.9001   9.1492814491e+01   1.0797469045e+01    0.3830228    0.2885235 -53.09  0.000931408    1.323    0.244
        54 -11.2944    189.4271    155.1913   9.0468050493e+01   1.2224150034e+01    0.4673546    0.3959291 -47.10  0.001396857    1.119    0.106
        55 -10.0306    198.5954    222.7680   1.0209474448e+02  -3.0568985211e+00    0.2294468    0.1723074  30.87 0.0003308521    1.285    0.222
        56 -10.4000    161.8919    167.2119   9.9112321556e+01   1.5165833615e+01    0.3814837    0.2511225 -78.23  0.001467044    2.462    0.594
        57 -12.3075     98.0675    154.4231   1.1247733228e+02   3.0614691642e+01    0.7171568    0.4691549 -32.70  0.002132876    1.923    0.480
        58 -11.6084    133.7221    144.5726   1.0089483824e+02   2.6204078749e+01     1.331412    0.3210896 -54.19  0.002930736    5.984    0.833
        59  -9.2028    182.9790    150.9888   9.0887732392e+01   1.4445429653e+01    0.1860768    0.1671373 -46.63 0.0003385457    1.060    0.056
        60 -10.4942     94.3807    250.3780   1.2833739305e+02   8.7693534103e+00    0.2574817     0.158067  39.51  0.001237201    1.493    0.330
        61 -10.5730    174.6466    149.1688   9.2271375399e+01   1.6576893358e+01    0.2808077    0.2226998  48.32 0.0006967142    1.314    0.239
        62 -10.8308    143.9798    145.9731   9.8656652467e+01   2.3753799933e+01    0.3763863    0.2238059 -70.95  0.001333326    2.637    0.621
        63 -11.5585    108.6925    139.7350   1.0639207131e+02   3.2300380253e+01    0.5754381    0.3454962 -33.44  0.002287173    2.078    0.519
        64 -12.4651     97.2326    139.7043   1.0956236158e+02   3.4399860608e+01    0.3051242    0.2854527 -43.50 0.0004272254    1.065    0.061
        65 -11.2695    105.9083    130.6834   1.0505550356e+02   3.4994488498e+01    0.4141917    0.3350369 -67.39  0.001299701    1.316    0.240
        66 -11.3057    103.4423    126.2320   1.0468163504e+02   3.6507262085e+01    0.3105302    0.2535616 -29.25  0.001019744    1.325    0.245
        67 -10.8692    115.6225    130.2070   1.0226498569e+02   3.3238457357e+01    0.3616662      0.28171 -21.09 0.0007988277    1.567    0.362
        68 -10.7201    135.8485    128.2024   9.6465754308e+01   2.9559672858e+01    0.4491217    0.1968612 -51.37  0.001568603    2.349    0.574
        69 -10.7250    160.0812    127.3616   9.0432088208e+01   2.4501375418e+01    0.5249872    0.3248037 -74.91  0.001888604    2.738    0.635
        70 -10.6362    120.1278    124.5812   9.9672401730e+01   3.3644916248e+01    0.3126198    0.2236485 -38.99 0.0008268009    1.435    0.303
        71  -9.7744    135.0000    119.9198   9.4622023341e+01   3.1597154610e+01    0.2596862   0.08762813 -46.05 0.0007988877    2.918    0.657
        72 -10.3254    110.8785    119.1125   1.0083327238e+02   3.6734505383e+01     0.221271    0.2174696 -34.71 0.0003697927    1.015    0.015
        73 -10.2595    168.0779    112.8392   8.5117501097e+01   2.5795784470e+01    0.3071501    0.2345053 -69.42 0.0008903375    1.470    0.320
        74 -11.1390    118.6691    110.2634   9.6414044167e+01   3.7141827149e+01    0.5425536    0.2362049  56.01  0.001723481    3.341    0.701
        75 -10.3654    205.5244    110.1597   7.7273008951e+01   1.8043126709e+01    0.2977338    0.2099033  46.06 0.0009818778    1.598    0.374
        76  -9.7600    108.7832    107.0049   9.8284932867e+01   3.9833560211e+01    0.3621756    0.2035785  58.65  0.001385959    2.440    0.590
        77 -10.0646    134.6284    105.0418   9.0875385447e+01   3.4870204397e+01    0.3577861    0.1446086 -44.17   0.00125062    2.468    0.595
        78 -10.4468     71.9915    102.5418   1.0820706739e+02   4.7264231934e+01    0.2024076    0.1398638  31.79 0.0003846146    1.530    0.346
        79  -9.4001    128.9325     95.4539   8.9740544677e+01   3.8054471742e+01    0.2147605    0.1319378  71.02  0.000808351    2.558    0.609
        80  -9.7257     41.6720     91.9808   1.1564488439e+02   5.3536585773e+01    0.1814305    0.1476401 -42.47 0.0004258969    1.072    0.067
        81  -9.7400     52.9687     90.7357   1.1142081893e+02   5.2462425037e+01    0.1872325    0.1665261 -19.92 0.0004776528    1.050    0.048
        82  -8.9262     54.6971     78.3136   1.0738465889e+02   5.4761742056e+01    0.1205961    0.1067731  83.08 0.0004210483    1.615    0.381
        83 -11.9757    167.3580     67.1212   7.3703589055e+01   3.4352227363e+01    0.9818652    0.5077773 -63.85  0.003555095    2.983    0.665
        84  -8.7045    168.2967    248.2659   1.1263171780e+02  -2.7211876344e+00    0.1271317   0.09542882   5.57 0.0001852345    1.513    0.339
        85 -13.4493    173.3988     47.6271   6.7747653279e+01   3.5833437165e+01    0.6719837    0.6222379  54.59  0.000710668    1.205    0.170
        86  -9.9364     71.8587    229.5910   1.3067038673e+02   1.6564547803e+01     0.171033     0.116022  47.00 5.406668e-05    1.357    0.263
        87  -8.9987     95.6700     63.2937   8.9384834783e+01   5.0726570484e+01     0.129836    0.1101832  85.90 0.0007023177    1.631    0.387
