#   1 NUMBER                 Running object number                                     
#   2 MAG_AUTO               Kron-like elliptical aperture magnitude                    [mag]
#   3 X_IMAGE                Object position along x                                    [pixel]
#   4 Y_IMAGE                Object position along y                                    [pixel]
#   5 X_WORLD                Barycenter position along world x axis                     [deg]
#   6 Y_WORLD                Barycenter position along world y axis                     [deg]
#   7 A_WORLD                Profile RMS along major axis (world units)                 [deg]
#   8 B_WORLD                Profile RMS along minor axis (world units)                 [deg]
#   9 THETA_WORLD            Position angle (CCW/world-x)                               [deg]
#  10 FWHM_WORLD             FWHM assuming a gaussian core                              [deg]
#  11 ELONGATION             A_IMAGE/B_IMAGE                                           
#  12 ELLIPTICITY            1 - B_IMAGE/A_IMAGE                                       
         1 -13.3590    226.4496     46.0487   9.7368866203e+00   2.9569183705e+01    0.6229703     0.526573 -71.14  0.003465491    1.468    0.319
         2 -10.2578    250.3881     24.6508   5.1262231967e+00   2.8819913675e+01    0.4025995   0.07321545 -45.37  0.002025747    3.664    0.727
         3 -10.5093      2.4704      4.4200   5.1251009877e+01   7.5648664325e+01    0.4737591    0.1224515 -47.07  0.002044042    4.515    0.779
         4  -8.8033    188.6689      2.2896   5.0518415726e+00   4.0802961263e+01     0.107221   0.05065627 -70.26 0.0005557721    1.624    0.384
         5  -8.2982     83.0000    245.9368   6.7165525360e+01   9.7204791491e+00    0.2007464   0.07629828 -65.11 0.0005417721    2.837    0.647
         6 -10.3234     75.1534    247.8454   6.9334581177e+01   1.0039873013e+01    0.5725762    0.1961844 -55.30  0.002281295    2.769    0.639
         7 -14.8383     57.1941    233.5638   7.2672635008e+01   1.5120331811e+01     6.449911     3.697384 -31.00   0.02163384    2.100    0.524
         8 -14.1376     39.4654    173.7131   7.1705690862e+01   3.2876221735e+01     4.477042     1.785167  39.51    0.0160887    2.376    0.579
         9  -8.4015    146.7223    242.6830   5.2121093165e+01   4.4147000538e+00    0.1274329   0.07788929 -27.06 0.0003605623    1.572    0.364
        10  -8.8167     97.1399    240.6164   6.3085631068e+01   9.5306704907e+00    0.2118386    0.1408406 -52.00 0.0006669336    1.498    0.332
        11 -10.1030    103.6701    237.8339   6.1177620733e+01   9.4992888536e+00    0.3210537    0.1916966 -42.14 0.0009244391    1.643    0.391
        12  -9.5453    184.9794    236.5024   4.4018187931e+01   2.3198157318e+00     0.184537    0.1215432 -43.88 0.0007183492    1.256    0.204
        13  -9.6227    216.3544    235.6734   3.8789385785e+01   1.0358696512e-01    0.2063296   0.08265813 -52.76  0.001131723    2.221    0.550
        14 -12.1227    132.9088    230.1647   5.3463473876e+01   8.2336739723e+00    0.5462611    0.3132805   5.03  0.002720969    2.003    0.501
        15 -10.3041     72.9092    233.4227   6.8463597660e+01   1.3602983919e+01    0.3918589    0.2458731 -73.41  0.001276454    1.801    0.445
        16 -15.6408     24.3035    176.3417   7.7051726833e+01   3.3612081480e+01      11.5235     4.194224  86.81   0.03171143    4.515    0.779
        17 -11.5221    119.2775    231.4048   5.6700843575e+01   9.3364090541e+00    0.3859323    0.1755138  22.27  0.001735586    2.177    0.541
        18 -11.5646     45.4379    230.1433   7.5579851696e+01   1.7088981792e+01    0.6552017     0.434666 -19.95  0.001860935    1.782    0.439
        19 -10.7842     72.0616    225.7932   6.7881206682e+01   1.5531363065e+01    0.4127876    0.2648866  39.36  0.001355411    1.530    0.347
        20 -10.6771    174.2440    223.7054   4.4245923178e+01   5.5720384019e+00    0.3291129    0.1768136 -18.68  0.001680845    2.336    0.572
        21 -15.8296      6.1134    216.7719   8.5788087194e+01   2.3898665452e+01     3.476567     1.921961  33.89   0.01613494    1.622    0.383
        22  -8.6785    118.4835    221.5321   5.5614692548e+01   1.1584444587e+01    0.1330748    0.1213548 -21.46 0.0002483227    1.004    0.004
        23 -14.6270     10.1095    206.4065   8.3987774161e+01   2.6384515772e+01     1.363638    0.9423609   1.56  0.003119952    1.594    0.373
        24  -8.2027    102.3030    211.2996   5.8207052521e+01   1.5733866409e+01    0.1445592   0.09964842 -26.68 0.0002032069    1.586    0.370
        25 -12.0173    108.2085    188.5300   5.3492867151e+01   2.0503341528e+01    0.8184174     0.321861 -41.26  0.002875307    3.007    0.667
        26 -11.9545     96.8857    197.5874   5.7738537559e+01   1.9704642296e+01    0.5563807    0.4716282 -63.79  0.003061715    1.188    0.158
        27 -11.2990    101.7368    195.5576   5.6183596116e+01   1.9606452218e+01    0.4555477    0.2702281  17.30  0.002057091    1.878    0.468
        28 -11.1810    108.7236    193.5640   5.4108537513e+01   1.9219169718e+01    0.4879938    0.2507603  15.54  0.001985177    2.453    0.592
        29 -11.2408    113.1954    195.9823   5.3347305531e+01   1.8083096628e+01     0.450852    0.2587399 -23.18  0.001882758    2.438    0.590
        30 -12.0331    117.2586    191.6202   5.1707613568e+01   1.8608203509e+01    0.7240985    0.3559986   7.20  0.002505084    3.779    0.735
        31  -9.6589    210.9891    198.7772   3.4676844838e+01   6.7655621320e+00    0.1867619    0.1256033 -45.54 0.0004718338    1.130    0.115
        32 -10.3098     68.6614    192.9457   6.4974229509e+01   2.4308079149e+01    0.5611873    0.3058594  78.35  0.002033749    2.888    0.654
        33  -9.3476    192.4976    193.9727   3.6885339029e+01   9.4072631095e+00    0.1594555   0.09526139 -71.44 0.0008098626    2.533    0.605
        34  -9.5090     73.2592    190.0018   6.3247453920e+01   2.4537556870e+01    0.3306799     0.182621 -58.13  0.001411981    1.748    0.428
        35  -9.1150    207.4256    189.7411   3.3936367947e+01   8.6985399704e+00     0.163193   0.08098387 -43.58 0.0009383953    1.584    0.369
        36 -13.9772      6.7407    187.9101   8.3796137677e+01   3.1755559722e+01     1.850873     1.332007  46.34  0.006209868    1.336    0.251
        37  -9.2258     94.4652    183.4716   5.6346678924e+01   2.3545992229e+01    0.2486015    0.1843578  76.29 0.0005954441    1.665    0.399
        38 -10.1263    115.9306    181.8152   5.0533312163e+01   2.1110118052e+01    0.2208539    0.1863201 -27.23 0.0006673831    1.245    0.197
        39  -8.7019     83.3688    180.2657   5.8964281011e+01   2.5820117478e+01    0.2000342    0.1406073 -77.58 0.0002961947    1.565    0.361
        40 -10.4742    171.9003    174.4495   3.7483235769e+01   1.5493970700e+01    0.2591325    0.2026179 -34.42  0.001351245    1.267    0.211
        41 -11.3125     71.9820    168.9233   6.0642587035e+01   3.0311527316e+01     1.493696    0.6414383 -74.10  0.003971612    2.970    0.663
        42 -12.4619     80.8063    144.8437   5.3986952351e+01   3.5402660131e+01     2.975694     1.463701 -59.59  0.009337518    1.972    0.493
        43 -12.2020     74.2176    130.6643   5.3443463248e+01   4.0026591245e+01     3.165315    0.9913826  51.92  0.007134523    6.810    0.853
        44 -13.2505     59.4324    145.0745   6.0917586908e+01   3.8410242135e+01     1.228983    0.9160019 -41.50  0.001552188    1.441    0.306
        45 -12.9014     69.9468    145.0393   5.7433158105e+01   3.6951696825e+01      2.42988     1.179181  75.57  0.004136859    6.403    0.844
        46 -10.6788    178.5270    164.1282   3.4696270589e+01   1.6729497691e+01    0.3299123    0.2054174  44.96  0.001905394    1.943    0.485
        47 -10.3018    102.8995    170.6908   5.2092554626e+01   2.5608323113e+01    0.3596002    0.1626503  38.04  0.001430808    2.217    0.549
        48 -11.4184     62.2608    157.5002   6.1965454867e+01   3.4674112900e+01    0.5373552     0.394908 -27.36 0.0009484235    1.610    0.379
        49  -8.7412    110.4925    166.9666   4.9506756494e+01   2.5445325654e+01    0.2165384    0.1364186 -60.48 0.0004786004    1.526    0.345
        50  -8.7733    101.7016    167.0488   5.1817493968e+01   2.6684304633e+01    0.2055913     0.177129 -59.96 0.0003446861    1.114    0.102
        51  -9.3222     50.1111    163.8823   6.6904846137e+01   3.4437850240e+01    0.2527212    0.1756461 -31.11  0.001123628    1.670    0.401
        52 -10.1588    238.9211    161.1871   2.5686920877e+01   1.0505043799e+01    0.1622771    0.1132737 -61.13 0.0009257299    1.311    0.237
        53  -9.1142     44.6867    156.7254   6.7753898695e+01   3.7065566933e+01    0.3026586    0.1726702  79.70  0.001146239    2.333    0.571
        54 -12.5450     72.7428    150.3090   5.7440072535e+01   3.5162458232e+01    0.5435749     0.483883  21.64 0.0003555247    1.180    0.153
        55 -11.3865     78.5368    136.7256   5.3212346630e+01   3.7822868006e+01     0.513328    0.3588522  46.46    0.0007475    1.430    0.301
        56 -10.1484    134.0000    147.9763   4.0613790909e+01   2.6375727757e+01    0.5085902    0.1958833 -64.80  0.001658852    3.729    0.732
        57  -9.1728    123.1755    151.0587   4.3641296049e+01   2.7338800481e+01    0.1971616    0.1763432 -43.65 0.0002931771    1.149    0.129
        58  -9.7226     46.9200    146.9697   6.5552561029e+01   3.9504458573e+01    0.3865578    0.1979468  33.38   0.00155336    1.854    0.461
        59 -10.4866    109.0112    145.3970   4.6132007909e+01   3.0881351962e+01    0.4119236    0.2727116 -43.92  0.001968327    1.587    0.370
        60  -8.9380    112.7226    144.3316   4.4987567051e+01   3.0546221158e+01    0.2097254     0.182507 -89.58 0.0003766058    1.169    0.144
        61 -10.8009     37.3869    142.8877   6.8386515791e+01   4.1748225738e+01    0.3843894    0.2761577  63.75 0.0008996415    1.529    0.346
        62 -10.2252     40.9703    140.6632   6.6735590691e+01   4.1950899620e+01    0.2577684     0.243562 -71.16 0.0003417399    1.055    0.052
        63  -8.7210     27.0893    143.0732   7.2257474061e+01   4.2782096938e+01    0.3125892    0.2063781   8.28  0.001398155    1.650    0.394
        64  -9.7713     95.8832    134.8833   4.7711876561e+01   3.5523143878e+01    0.3164157    0.2911154 -26.29 0.0007962032    1.243    0.196
        65  -9.0125     99.3604    132.3060   4.6247593087e+01   3.5572287085e+01    0.2292647    0.1877118   6.99 0.0009201288    1.594    0.373
        66 -11.4594     56.8945    161.5511   6.4328969760e+01   3.4256102700e+01    0.5175995    0.3697526 -22.04  0.002339046    1.707    0.414
        67 -10.3948     44.2322    131.4778   6.4057257255e+01   4.4051581144e+01    0.4512547    0.3478546  20.26  0.002222788    1.330    0.248
        68 -11.5610     83.6335    132.1596   5.0777829335e+01   3.8169413114e+01    0.3204086    0.2699955 -72.88 0.0004488708    1.180    0.153
        69 -10.2579    105.4714    130.7853   4.4303462743e+01   3.4915101548e+01    0.3755772    0.3417136 -76.38  0.001173198    1.034    0.033
        70  -9.2901    107.8348    126.3857   4.2820505764e+01   3.5535189747e+01    0.2518174    0.2048263  21.23 0.0008764079    1.541    0.351
        71  -9.2200    113.0432    130.7057   4.2338269056e+01   3.3664892048e+01    0.2499862    0.1872344 -86.53 0.0007260211    1.498    0.332
        72  -9.9564     25.2519    128.7461   7.0982773288e+01   4.6927929107e+01    0.3758275    0.2783535  23.00  0.001256768    1.338    0.253
        73  -8.3482    219.3066    126.2621   2.2887250841e+01   1.8492035455e+01   0.09700858   0.07537454 -37.48 0.0001982115    1.525    0.344
        74 -10.5463     94.4664    121.6807   4.5507721911e+01   3.8906600207e+01    0.3043271    0.2613184 -10.91 0.0007264278    1.517    0.341
        75  -8.9162     48.8446    123.1334   6.0868416030e+01   4.5660798132e+01    0.2030766    0.1723764 -29.31 0.0003957431    1.297    0.229
        76 -15.0685      3.3418    238.7910   8.7674628912e+01   1.8454354571e+01     2.034532     1.418125  51.78   0.01108833    1.306    0.234
        77  -9.2128     87.5861    121.6242   4.7501342851e+01   4.0084592947e+01    0.2903579    0.1940117  76.71 0.0009152709    1.960    0.490
        78  -8.7333    142.1524    121.4013   3.3986532538e+01   3.0777803831e+01    0.1727153    0.1192716  64.16 0.0004521532    1.594    0.373
        79  -9.7186    135.0000    120.0237   3.5192011614e+01   3.2274242754e+01    0.3818438   0.07072871 -52.12  0.001055665    4.974    0.799
        80 -10.0272     29.1576    118.5506   6.7809987184e+01   4.9264801459e+01    0.4747498    0.2075686  31.56  0.001050075    2.110    0.526
        81  -9.8185    104.5030    116.2673   4.1642016398e+01   3.8406082820e+01    0.3579543    0.2130227  34.13  0.001093063    1.956    0.489
        82  -9.0924     23.3630    116.5983   6.9907088679e+01   5.0383815411e+01    0.3382519    0.1614519 -58.54  0.001378359    1.984    0.496
        83 -10.8462     35.9633    114.3086   6.4287567468e+01   4.9596326997e+01    0.3466335    0.2648987  38.70 0.0004529456    1.275    0.216
        84  -9.9651    243.4136    114.2141   1.8520974272e+01   1.7513468810e+01    0.1486716   0.06852455 -56.47 0.0004366613    1.605    0.377
        85 -11.0019     53.3421    109.4690   5.6515129459e+01   4.8492359001e+01    0.4300104    0.2875226 -48.90  0.001204591    1.562    0.360
        86  -9.4559    235.5603    113.3204   1.9163584283e+01   1.8587007155e+01    0.2043506   0.07300077 -52.75 0.0009947744    2.031    0.508
        87  -9.9057     32.1454    107.9556   6.4703079970e+01   5.1678250976e+01    0.3883286    0.2072871 -66.55  0.001492256    1.938    0.484
        88  -9.1381    134.3249    105.5494   3.2458992027e+01   3.5346964159e+01    0.2962117    0.1483589 -64.59  0.001283236    2.261    0.558
        89 -11.0407     23.5943    104.5206   6.7772695823e+01   5.3495474176e+01    0.4825599    0.3225734  50.52  0.001498831    1.617    0.382
        90 -10.3172     52.2677    103.0605   5.5572930906e+01   5.0207807789e+01    0.3123706    0.2525546  -1.18  0.001606864    1.478    0.323
        91  -9.6837     40.3540     99.3841   5.9555951272e+01   5.2776625772e+01    0.2435421    0.2075075  52.59 0.0004006324    1.189    0.159
        92  -8.7448     33.2881    101.3601   6.2948749918e+01   5.3195458493e+01    0.1520275     0.104048 -30.85 0.0007024434    1.687    0.407
        93  -9.3878     46.3860     95.6225   5.6262649962e+01   5.2833959088e+01    0.2162422    0.1571781  61.98 0.0007878185    1.560    0.359
        94 -10.1666     54.1936     88.6081   5.1540434186e+01   5.3253790835e+01    0.2658016    0.1141037 -60.94   0.00102433    2.616    0.618
        95 -10.4596     35.0578     88.2198   5.9398015380e+01   5.6119430618e+01    0.3708599     0.228066  47.93  0.001748437    1.705    0.413
        96  -8.6706     90.4919     87.5625   3.9105796381e+01   4.7104352297e+01    0.1405161    0.1231106  75.70 0.0001025565    1.057    0.054
        97 -10.6155     31.0755     85.5716   6.0591708055e+01   5.7239841631e+01    0.3090697    0.2237924  41.75 0.0008143186    1.350    0.259
        98  -9.2046     97.8361     85.0496   3.6478664534e+01   4.6215581570e+01    0.2151404    0.1676851  85.84 0.0005761152    1.326    0.246
        99  -8.6283    137.3588     83.6556   2.7324253379e+01   3.8931490915e+01    0.1398606   0.08864062 -84.78 0.0007033674    1.836    0.455
       100  -8.2881     67.5339     82.5900   4.5141268421e+01   5.2314167572e+01    0.1406143    0.1240545  61.52  0.000151376    1.068    0.063
       101  -9.2760    115.4297     75.3907   2.9926808005e+01   4.4616101532e+01    0.2587655    0.1632902 -87.58 0.0008282408    1.986    0.496
       102 -11.0198     64.3849     70.4922   4.3094900194e+01   5.5297337239e+01    0.4934495    0.3699619  87.86  0.002639511    1.649    0.393
       103  -9.0783     90.8119     66.3444   3.3719838186e+01   5.1065688712e+01     0.184815    0.1128004  45.38   0.00046707    1.646    0.393
       104 -12.1408    202.7439     61.5134   1.4217107342e+01   3.1069532266e+01     0.410286    0.2947052  86.46    0.0012219    1.320    0.242
       105 -13.1088    213.0211     54.9939   1.2206989283e+01   3.0385501166e+01    0.7638173    0.5978744 -60.09  0.003676126    1.325    0.245
       106  -9.0861    151.1335    249.0300   5.2012239653e+01   2.8228075150e+00    0.2126153    0.1026118 -33.42  0.001079672    1.983    0.496
       107 -10.3667     21.4674     66.2876   6.0646098626e+01   6.2657828853e+01    0.5270578    0.1752443  46.28  0.001722008    4.153    0.759
       108  -8.6928     61.6859     56.2859   4.0053276482e+01   5.8398408129e+01    0.1310022   0.09533397  72.24 0.0003462393    1.582    0.368
       109 -10.2183      1.7436     51.8590   6.8159871691e+01   6.7599129571e+01    0.2796377    0.1138175 -67.92   0.00121234    2.942    0.660
       110 -10.4313     18.4538     51.6322   5.8282426855e+01   6.5972190262e+01    0.3632385    0.1809436  39.96 0.0005347841    1.920    0.479
       111  -8.4825     46.3132     50.6887   4.4365315726e+01   6.2083165837e+01    0.1292198   0.09486996  67.81 0.0004238184    1.632    0.387
       112 -11.2915     10.7943     42.7028   6.0077114773e+01   6.8531906420e+01    0.5673657    0.1611314  36.37   0.00219306    3.072    0.674
       113 -11.4514      3.3079     40.5319   6.4138897924e+01   6.9682936666e+01    0.4310591    0.2602995 -70.19  0.002359944    2.183    0.542
       114  -9.3947     21.6642     34.3009   5.0930527888e+01   6.8666268815e+01    0.1219955   0.08688738  54.86 0.0007035441    1.660    0.397
       115  -9.9959     30.6750     32.4335   4.5463800586e+01   6.7637975916e+01     0.236849    0.1554822  50.41 0.0008364349    1.503    0.335
       116  -9.3308     81.9811     58.2402   3.4031040498e+01   5.4199513745e+01    0.1759539   0.09914708  52.32 0.0005501366    1.585    0.369
       117  -9.4631    138.0817    247.1278   5.4483927391e+01   4.3158376633e+00    0.1906871    0.1415495 -21.15 -0.000430966    1.221    0.181
       118 -10.8427      6.3883     27.7731   5.8000445680e+01   7.1646858438e+01    0.2302347    0.1869966  23.73 0.0004432144    1.091    0.083
       119  -9.2597     25.2099     23.7857   4.5067225712e+01   6.9789302826e+01    0.1924996    0.1193154  66.04 0.0009492823    2.781    0.640
       120 -10.0629      2.4301     22.6782   5.8901175273e+01   7.2910516635e+01    0.1858264    0.1190624 -61.35 0.0007400539    2.044    0.511
       121  -9.3732     60.7311     21.1563   2.9051427258e+01   6.3817864539e+01    0.2081754    0.1388053  65.00 0.0007266374    1.337    0.252
       122  -8.5488    189.4060     15.1744   7.2892339779e+00   3.9266673603e+01     0.142488   0.06711033 -56.62 0.0006739111    1.616    0.381
       123  -9.7682    185.3733    245.2912   4.5078574428e+01   7.5416111460e-01    0.2243022    0.1196326 -53.70   0.00104719    1.810    0.448
