#   1 NUMBER                 Running object number                                     
#   2 MAG_AUTO               Kron-like elliptical aperture magnitude                    [mag]
#   3 X_IMAGE                Object position along x                                    [pixel]
#   4 Y_IMAGE                Object position along y                                    [pixel]
#   5 X_WORLD                Barycenter position along world x axis                     [deg]
#   6 Y_WORLD                Barycenter position along world y axis                     [deg]
#   7 A_WORLD                Profile RMS along major axis (world units)                 [deg]
#   8 B_WORLD                Profile RMS along minor axis (world units)                 [deg]
#   9 THETA_WORLD            Position angle (CCW/world-x)                               [deg]
#  10 FWHM_WORLD             FWHM assuming a gaussian core                              [deg]
#  11 ELONGATION             A_IMAGE/B_IMAGE                                           
#  12 ELLIPTICITY            1 - B_IMAGE/A_IMAGE                                       
         1 -13.0913    211.2088      1.8582   5.8542736497e+01   3.0928978955e+01     1.796706    0.8226461  70.72  0.006667353    2.164    0.538
         2 -14.1657    187.7718     24.9470   6.8842331416e+01   3.4886818846e+01     2.050198     1.438717  -2.30  0.006205818    1.512    0.339
         3 -13.9222    195.3221     18.6760   6.5688539384e+01   3.3546492684e+01     1.606893     1.135755 -33.32  0.005143793    1.417    0.294
         4 -13.0703    200.9818     10.7771   6.2428243726e+01   3.2816349852e+01    0.8557268    0.6752721  30.23   0.00141475    1.294    0.227
         5 -10.3943     33.0000      7.4813   1.0776690882e+02   7.0274884391e+01    0.2833421   0.05816504 -47.02 0.0009449571    4.018    0.751
         6 -12.7099     52.3515    233.3382   1.3942477692e+02   2.3508213014e+01    0.4664406    0.3523418 -75.80   0.00213275    1.565    0.361
         7 -11.6168    247.2885    249.3356   1.0966501082e+02  -4.0647288381e+00    0.4392242    0.1628691  32.67  0.002612041    1.868    0.465
         8 -10.4855    163.6530    250.0703   1.2283035087e+02   7.4089702632e+00    0.2371122   0.09550524  50.21  0.001284663    2.470    0.595
         9 -12.6830    140.4690    248.2899   1.2637833261e+02   1.0780856970e+01    0.4911441    0.2653579  50.99  0.003356897    1.580    0.367
        10 -14.6381    102.5195    245.3239   1.3222098909e+02   1.6084038781e+01     3.896386     2.010286  27.29   0.01791116    2.671    0.626
        11 -13.3166     48.9774    226.5855   1.3960129299e+02   2.4851131011e+01    0.5514575    0.3920626  12.30   0.00233947    2.682    0.627
        12 -16.2313     58.1723    212.6797   1.3725012845e+02   2.6009684964e+01     11.59818     4.427201  74.51     0.051309    4.565    0.781
        13 -12.0566     32.5542    205.0285   1.4118227141e+02   2.9853490289e+01    0.3152135    0.1747025  53.70   0.00151801    1.374    0.272
        14 -10.6675    192.7305    194.1700   1.1054083564e+02   9.4699739245e+00     0.646305    0.3513872 -59.46  0.002314175    6.555    0.847
        15 -10.0527     66.3424    195.4680   1.3454564041e+02   2.7908684432e+01    0.2172511    0.1380401  61.78 0.0005734775    1.346    0.257
        16 -11.9729     72.9169    192.9204   1.3310247848e+02   2.7569636861e+01    0.3190956    0.2361723 -45.28  0.001257163    1.909    0.476
        17 -11.9252     77.4303    186.1018   1.3161765279e+02   2.8197692110e+01    0.2344061    0.2124092 -60.70 0.0005962372    1.372    0.271
        18  -8.7869    181.5263    192.4319   1.1231324082e+02   1.1555573812e+01    0.1249509   0.09736473  28.86 6.960388e-05    1.044    0.042
        19  -8.6298     90.6812    184.2993   1.2883144039e+02   2.6817207555e+01     0.118176   0.07372051  63.96 0.0002840354    1.618    0.382
        20 -16.0583      9.2941    240.7579   1.4619015321e+02   2.6514595912e+01     14.13991     1.160771 -79.14   0.04029188   10.392    0.904
        21 -13.4366     58.0779    131.0760   1.2978929771e+02   4.1174214398e+01     2.213377    0.7039505 -77.89  0.006111587    7.199    0.861
        22 -13.0520     91.2122    166.1174   1.2663128686e+02   3.0019851219e+01     2.318494    0.5037898  47.52  0.001409907    4.813    0.792
        23 -14.0404     68.3712    145.4885   1.2914881715e+02   3.6991256467e+01     1.569632    0.8438889  73.00  0.007694815    2.457    0.593
        24 -13.4385     73.4263    171.6352   1.3098995944e+02   3.1294078731e+01    0.3846006    0.2450698 -45.14  0.001604669    2.121    0.528
        25 -10.8829    126.3091    174.0215   1.2032448824e+02   2.3420663335e+01     0.356306    0.1652153  38.05  0.001702152    1.945    0.486
        26 -10.3480    138.7533    171.7369   1.1742284239e+02   2.1796223591e+01    0.2269742    0.1913421  60.64  0.001454416    1.236    0.191
        27 -11.6340     85.8259    174.2846   1.2871889968e+02   2.9236752680e+01    0.2503824    0.2054119  45.12  0.000532451    1.165    0.142
        28 -11.6586     47.5245    150.4953   1.3441167841e+02   3.8296974323e+01    0.2931405    0.1891054 -46.31  0.001294968    1.997    0.499
        29 -12.2338     46.8752    145.7721   1.3409522759e+02   3.9314556073e+01    0.3562487    0.2227899  78.58  0.002197006    1.565    0.361
        30 -10.2735    103.2522    149.5764   1.2169242697e+02   3.1444941278e+01    0.2400476    0.2356499 -12.10 0.0007935328    1.176    0.150
        31  -9.7383    105.6281    145.6913   1.2053892557e+02   3.1840982649e+01    0.2716847    0.1970924 -23.54  0.001455025    2.008    0.502
        32 -12.3019     92.1907    148.9336   1.2412433596e+02   3.3183003213e+01    0.2301482    0.2250162 -26.70 0.0004560585    1.215    0.177
        33  -9.9560    134.1921    146.3895   1.1414830141e+02   2.7007052554e+01    0.5003022    0.1087596 -51.76  0.001380353    6.082    0.836
        34 -10.0053    113.0083    135.2931   1.1703017004e+02   3.2721512063e+01    0.2875966    0.2120487 -21.05   0.00118417    1.875    0.467
        35 -11.2945     69.9581    134.5606   1.2734742599e+02   3.9051294046e+01    0.4006689    0.2075068  38.58  0.002102844    1.915    0.478
        36 -12.4422     33.0759    124.3558   1.3517724293e+02   4.5073437469e+01    0.6926786    0.1427802 -72.02   0.00246535    4.316    0.768
        37 -13.4995     42.6836    127.1852   1.3311187602e+02   4.3594509649e+01    0.6227726    0.3781884 -82.65  0.003717473    1.518    0.341
        38 -11.3792     63.4506    249.8283   1.3859138134e+02   2.0035854793e+01    0.4378752   0.09276462  41.81  0.002329844    2.918    0.657
        39  -9.6372    109.0314    122.9321   1.1566790314e+02   3.5870226240e+01    0.1903675    0.1853729  52.03 0.0003281087    1.025    0.024
        40 -10.0173    228.9922    205.8422   1.0613100872e+02   2.3187308818e+00    0.1911321    0.1615088 -22.67 0.0006725578    1.574    0.365
        41  -8.7679    118.2749    128.3641   1.1445237153e+02   3.3218762870e+01    0.1351569    0.1054237 -15.41 0.0007005542    1.667    0.400
        42 -10.9754    168.3191    113.1023   9.9286044076e+01   2.6379661872e+01    0.3468966    0.3029342  89.69 0.0009665806    1.555    0.357
        43 -14.3255     11.5039    206.6589   1.4475030251e+02   3.1462384987e+01     0.993376    0.6709583  47.26  0.003011238    1.328    0.247
        44  -9.5631    205.6049    110.2866   9.0922242899e+01   1.8748855448e+01    0.2637155    0.1577076  29.55 0.0006785369    1.725    0.420
        45 -10.8843    100.5267    132.5221   1.1955369071e+02   3.5257018151e+01    0.2536802    0.2110102 -25.22 0.0008193296    1.482    0.325
        46  -9.6652    154.5206     76.0204   9.2249482411e+01   3.5974743312e+01    0.2380367    0.1492604 -33.31 0.0006881367    1.576    0.365
        47 -13.3551     73.3354    226.8052   1.3563453926e+02   2.2152947899e+01    0.8052439    0.2876637  61.10  0.003667223    3.450    0.710
        48  -9.3362    127.5133     54.0074   9.1872523540e+01   4.6001064250e+01    0.2062737    0.1262421 -55.33 0.0004715628    2.311    0.567
        49 -11.7141    200.9916    249.3191   1.1680137910e+02   2.2686053822e+00    0.4468198    0.1058101  39.97  0.002046548    2.939    0.660
        50 -14.0803     33.1466    245.7792   1.4291299106e+02   2.3667422239e+01     1.423312    0.6971629  44.76   0.01131709    1.497    0.332
        51  -9.6732    226.6774    238.3451   1.1133809888e+02  -3.6739151267e-01   0.09411415   0.07568394  46.49 0.0007050076    1.735    0.423
        52  -9.5307    185.6734    238.2962   1.1793013602e+02   5.5271196482e+00    0.1012397   0.07087028  52.29 0.0002393437    1.629    0.386
