#   1 NUMBER                 Running object number                                     
#   2 MAG_AUTO               Kron-like elliptical aperture magnitude                    [mag]
#   3 X_IMAGE                Object position along x                                    [pixel]
#   4 Y_IMAGE                Object position along y                                    [pixel]
#   5 X_WORLD                Barycenter position along world x axis                     [deg]
#   6 Y_WORLD                Barycenter position along world y axis                     [deg]
#   7 A_WORLD                Profile RMS along major axis (world units)                 [deg]
#   8 B_WORLD                Profile RMS along minor axis (world units)                 [deg]
#   9 THETA_WORLD            Position angle (CCW/world-x)                               [deg]
#  10 FWHM_WORLD             FWHM assuming a gaussian core                              [deg]
#  11 ELONGATION             A_IMAGE/B_IMAGE                                           
#  12 ELLIPTICITY            1 - B_IMAGE/A_IMAGE                                       
         1 -13.1119     37.2014     50.0103   8.6159752531e+01   6.4093875413e+01    0.8271393    0.6815536 -20.86  0.003936498    1.081    0.075
         2 -12.5916     57.6191     34.4542   7.0264442856e+01   6.3755538362e+01    0.3584099    0.3100003  -7.65  0.000496134    1.098    0.089
         3 -12.3877    128.7353     11.5016   4.1310854135e+01   5.0692302114e+01    0.4222938    0.2846168  84.87  0.002290881    1.490    0.329
         4 -10.3040    126.5010      3.0701   3.8845158276e+01   5.1963277619e+01    0.2760799    0.1530283 -26.32 0.0007173933    2.029    0.507
         5 -12.6022    129.1969     19.1773   4.3785037576e+01   4.9829824431e+01    0.3184578    0.2585355 -12.19 0.0005702973    1.462    0.316
         6 -10.8025     32.0802     16.9347   7.4321523238e+01   7.0519614846e+01    0.5491429    0.2309912  24.48  0.002293815    2.907    0.656
         7 -11.3179     12.2229      2.1397   7.8374520240e+01   7.5222060966e+01    0.3136347    0.1997633   6.05  0.001311537    1.433    0.302
         8  -9.9653     32.9778      1.3478   6.5052304137e+01   7.2372338911e+01    0.2228594    0.1059437  47.08  0.001125829    2.116    0.527
         9 -11.0650     15.9983      6.9439   7.8636507596e+01   7.4096578024e+01    0.7671434    0.3902642 -32.37    0.0042522    1.859    0.462
        10 -11.1476     26.6858      2.5696   6.9294720759e+01   7.3222779057e+01    0.5010386    0.2580423  42.82  0.002469074    1.965    0.491
        11 -10.5569     14.3509     22.8181   8.7929663935e+01   7.1733803170e+01    0.4481217    0.1908432 -32.72  0.002095792    2.321    0.569
        12 -11.1666     20.1742     17.3111   8.1559397104e+01   7.2030522213e+01    0.3665143    0.3129717 -13.15  0.002523947    1.153    0.132
        13 -10.7322     22.5855     13.2610   7.7928891224e+01   7.2356956400e+01    0.2446494    0.1095338 -40.12  0.001166683    2.237    0.553
        14 -11.5082     22.5806      8.1097   7.5056984343e+01   7.3093963586e+01    0.4451335     0.210799  43.55  0.002166335    2.596    0.615
        15 -11.0296     20.5583      4.4930   7.4201557676e+01   7.3853574967e+01    0.2526709    0.1860289 -15.23 0.0008768696    1.221    0.181
        16 -11.7577     97.0124     22.5913   5.1854974546e+01   5.7132600388e+01    0.8819498     0.336909  50.81  0.002528822    2.219    0.549
        17 -10.1251      5.4460     12.8050   8.9215455409e+01   7.4267194055e+01     0.219014    0.1730662 -46.64  0.001488745    1.467    0.319
        18 -11.8242      8.7280      8.6827   8.4685963486e+01   7.4634247685e+01    0.4437769    0.2202671  32.09  0.002439747    2.112    0.527
        19 -11.8910      4.2087     17.8680   9.2503543400e+01   7.3490349200e+01    0.4645551    0.3634181  42.97  0.002245439    1.861    0.463
        20 -11.2165      9.7650     15.7337   8.7620948648e+01   7.3388621593e+01    0.2722874    0.1767285 -17.27 0.0007775957    1.365    0.267
        21 -11.9014    238.0112     17.8760   3.1818260219e+01   2.5649839003e+01    0.2564082    0.1820321 -71.57 0.0003348356    1.191    0.160
        22 -11.6651    233.7442     11.6134   3.0833661680e+01   2.7135922880e+01    0.3595524    0.1376169 -30.47  0.001788646    2.633    0.620
        23 -11.3149     48.5401     16.1391   6.5619194959e+01   6.7961816417e+01    0.6358355    0.3532664  24.36  0.003042696    1.940    0.485
        24 -10.4475     43.6167      8.6725   6.3951185645e+01   6.9736948510e+01    0.4049053    0.2209978 -33.42 0.0008614708    1.996    0.499
        25 -11.8539     40.6917     16.6897   6.9647700162e+01   6.9226250253e+01     0.546368    0.4141502 -45.03  0.002889905    1.735    0.424
        26 -10.5497     39.7107     11.0278   6.7129702881e+01   7.0123749961e+01    0.2456065    0.1649379  39.78 0.0007059128    1.407    0.289
        27 -10.4379     74.4684      2.5973   4.9393150358e+01   6.4165068244e+01    0.3509605    0.2300969 -30.21  0.002009717    1.745    0.427
        28 -11.0988     77.7503     11.0093   5.2296149211e+01   6.2683924155e+01    0.6147555     0.232289  57.50  0.002060067    2.348    0.574
        29 -11.1928     69.8057     15.5216   5.6902873563e+01   6.3912559742e+01    0.4048786     0.268375   2.32 0.0009317276    1.781    0.439
        30 -11.3671    157.8082     12.7315   3.7662724105e+01   4.3568558053e+01    0.4226268    0.1663961 -45.19  0.001846339    2.542    0.607
        31 -10.3384    100.0038     12.4411   4.7124959484e+01   5.7486997910e+01     0.285557    0.1922466  -5.38 0.0008733524    1.820    0.451
        32  -9.9241     61.9087     14.4474   5.9231045594e+01   6.5641762297e+01    0.2000448    0.1137204  49.25  0.001027232    1.593    0.372
        33  -9.9769    138.3340     11.6613   3.9904353996e+01   4.8352080726e+01     0.208037    0.1349942 -65.74  0.001090895    1.714    0.417
        34 -11.4532    164.2009      8.0096   3.5625565326e+01   4.2505585038e+01    0.3816152    0.3003533   5.68  0.001525234    1.746    0.427
        35 -12.9609    214.9483      5.8260   3.0834054738e+01   3.1473268053e+01    0.8320732    0.4588034  86.69   0.00491469    1.687    0.407
        36 -11.2894    203.2806      3.4630   3.1110816334e+01   3.4147354907e+01    0.4295998    0.2657056  55.35  0.002566735    1.888    0.470
        37 -10.7217    148.6471      2.0179   3.5640268869e+01   4.6722102204e+01    0.2329072    0.2039956 -84.26 0.0007366816    1.061    0.058
        38 -10.3163    246.4290      8.5170   2.9492211448e+01   2.5073550743e+01    0.1099226   0.08251369 -61.10 -1.512843e-05    1.012    0.012
        39 -11.2559    190.4454      6.5576   3.2805255519e+01   3.6641067315e+01    0.3986487    0.3297414 -53.24   0.00272434    1.170    0.145
        40 -11.0169    194.6667      2.1349   3.1429185806e+01   3.6131135766e+01    0.3177594    0.1585179 -80.62  0.001647055    1.992    0.498
        41 -10.6124    117.7657     12.2178   4.3430575880e+01   5.3277931124e+01    0.4445865    0.2459814 -11.12  0.002114713    2.396    0.583
        42 -11.3893     98.0345      4.2718   4.4318666170e+01   5.8668171806e+01     0.336334    0.2394534  28.96  0.001731634    1.498    0.332
        43 -10.3300     90.0754      7.2816   4.7356081887e+01   6.0261539956e+01    0.3261658    0.1576016  62.08 0.0009272958    1.825    0.452
        44  -9.7385     93.5135      4.4972   4.5395854354e+01   5.9704343812e+01    0.2022218    0.1212077   3.12  0.001015474    2.176    0.540
        45 -10.1144     81.4845      5.4944   4.8773565604e+01   6.2365432988e+01    0.1869162    0.1146692 -35.74 -5.777986e-05    1.892    0.471
        46 -12.1583    179.0309      4.2003   3.3193086051e+01   3.9426702963e+01    0.2344281    0.1935709 -73.31 0.0003451268    1.054    0.051
        47 -10.1892    118.7576      3.8256   4.0303186829e+01   5.3769223763e+01    0.2161471    0.1590623  68.92  0.001053314    1.171    0.146
        48 -11.4777     67.7624      3.7291   5.1957694445e+01   6.5513906637e+01    0.2524476    0.1774665  43.90  0.000372327    1.186    0.157
        49 -11.4056    237.1126      2.6751   2.8868083081e+01   2.7403634831e+01    0.2257486    0.1380387 -84.87  0.001502917    1.468    0.319
        50 -10.1896    169.8863      2.8899   3.3684873246e+01   4.1644628968e+01     0.208836    0.1191582 -63.13  0.001080486    1.735    0.424
        51 -10.8099    230.7185      1.7140   2.9026205711e+01   2.8725657030e+01    0.1718398     0.130554  79.47 0.0005222386    1.354    0.262
        52 -10.7878    108.1850      1.6398   4.1321462677e+01   5.6475710186e+01     0.223828    0.1507706  62.61 0.0005907284    1.249    0.199
        53 -11.4702    146.3667      6.9842   3.7386941779e+01   4.6840612523e+01     0.417495    0.2596585  49.83  0.002106739    1.644    0.392
        54 -12.6578     21.5864    157.1903   1.1383665000e+02   3.9343650571e+01    0.6492679    0.4949927   4.46 0.0009002471    1.596    0.373
        55 -10.6418    250.1431    246.8070   7.4044946367e+01  -8.3166134482e+00    0.1763929    0.1231775 -23.03 0.0009856254    1.334    0.250
        56 -12.4069    226.2659    245.5185   7.7852058317e+01  -5.6821092757e+00    0.6617481    0.3178639  -4.82  0.003234946    2.794    0.642
        57 -11.9584    234.9978    248.8016   7.6851974334e+01  -7.0241271611e+00    0.4845876    0.2438357  -5.30  0.002697833    2.189    0.543
        58 -12.2099    232.7785    244.8763   7.6631177701e+01  -6.3031466231e+00    0.5637071     0.211571 -28.78  0.002862604    2.567    0.610
        59 -11.4903     89.0549    249.6045   1.0606219898e+02   1.0965957603e+01    0.2965284    0.2136704  29.44 0.0008471012    1.201    0.167
        60 -10.1770     72.6059    250.1346   1.0963724702e+02   1.2891041045e+01     0.202003    0.1561441   0.06  0.001125143    1.672    0.402
        61 -13.2015     19.2303    237.7648   1.2009101616e+02   2.1085223193e+01     1.713662    0.4069656  54.71  0.006475495    3.971    0.748
        62 -11.8493      4.9817    236.0313   1.2293289235e+02   2.2725594850e+01    0.5235063    0.3370692  38.53  0.002634228    1.359    0.264
        63 -13.3502      5.9207    245.2466   1.2310737094e+02   2.0840613621e+01    0.9409563    0.5609356  31.64  0.004842462    1.563    0.360
        64 -12.5237     22.1741    249.0697   1.2005011548e+02   1.8600613493e+01     0.660662    0.2164004  33.27  0.003044336    2.357    0.576
        65 -11.1401     17.4831    247.4809   1.2091304334e+02   1.9353650795e+01    0.2223742     0.175195  63.65 0.0006600888    1.067    0.063
        66  -9.3412    216.3900    155.2061   6.3566487169e+01   9.3230421811e+00    0.1772571    0.1118433 -44.44 0.0003639293    1.548    0.354
        67 -10.1253     11.3943    153.5072   1.1647352746e+02   4.1078447730e+01    0.2547632    0.1302952  19.42  0.001219966    2.197    0.545
        68  -9.9534    177.3567    150.8856   7.0099233618e+01   1.6808023158e+01    0.2620693    0.1995665  68.40  0.001274767    1.920    0.479
        69 -10.2257     33.0805    147.9979   1.0935648778e+02   4.0659590503e+01    0.2022409    0.1846506 -80.39 0.0003173579    1.011    0.011
        70 -10.2564    207.0699    146.6650   6.3440990707e+01   1.2338287426e+01    0.1839545    0.1682048  -0.34 0.0006375845    1.103    0.094
        71 -10.3068     17.6597    146.8112   1.1397287294e+02   4.2308999803e+01    0.3178312    0.1712921 -29.90  0.001151973    2.524    0.604
        72  -9.7162    220.4548    143.9467   6.0580432077e+01   1.0570905771e+01    0.2011158    0.1136805 -38.12 0.0007686725    1.534    0.348
        73  -9.8529     10.2804    144.4239   1.1599255337e+02   4.3461991808e+01    0.2259967    0.1330642   6.61  0.001123284    2.126    0.530
        74  -9.6033     82.0205    139.7359   9.2613212486e+01   3.6599977621e+01    0.2107313    0.2009331  41.01 0.0008675229    1.060    0.057
        75 -10.3081     55.3804    138.7316   1.0090644256e+02   4.0606169408e+01    0.3584099    0.2669938  42.21  0.001817856    1.378    0.274
        76 -10.4667      9.3215    135.7555   1.1546059274e+02   4.5741492915e+01    0.2956963    0.1118082 -85.26  0.001117495    2.815    0.645
        77  -9.6044    122.7261    135.3317   7.9721622167e+01   3.0517970202e+01    0.1516795    0.1238509  87.72 0.0002873012    1.595    0.373
        78  -9.4255     39.9758    135.2095   1.0539352865e+02   4.3286603284e+01    0.1723256    0.1143935  25.19 0.0008380583    1.609    0.378
        79  -9.6941     20.6895    135.2130   1.1173856988e+02   4.5057521642e+01    0.2026152    0.1036742 -63.66 0.0009318755    1.693    0.409
        80  -9.8833      2.5265    135.5140   1.1758532284e+02   4.6222192856e+01    0.1307601    0.1119967 -77.65  0.000153048    1.021    0.021
        81  -9.8875    249.2979    134.0493   5.4258449770e+01   7.6476701939e+00    0.1811316    0.1315096 -34.22 0.0007988996    1.106    0.096
        82 -10.6844    112.0185    132.5798   8.2078960187e+01   3.3182440641e+01    0.3097276    0.2088062 -35.65  0.001117401    1.604    0.377
        83 -10.9738     55.2196    132.7484   9.9924082943e+01   4.2175291869e+01    0.3654332    0.2034591  44.27  0.001235483    1.909    0.476
        84 -11.4898     36.7756    129.5712   1.0560700690e+02   4.5082056635e+01    0.6418442    0.2684905 -49.14  0.002545539    2.296    0.564
        85  -9.6892     59.0622    130.5345   9.8239546930e+01   4.2255427632e+01    0.2351822     0.174421 -61.00 0.0007413338    1.288    0.223
        86 -11.0387     73.9528    129.3917   9.3086187457e+01   4.0451498197e+01    0.3371188    0.2916821 -54.83 0.0009846055    1.124    0.110
        87  -9.0962     29.6642    129.7205   1.0804138328e+02   4.5721386730e+01    0.1430172   0.09688748 -36.20 0.0006500225    1.614    0.380
        88 -11.4869     13.1741    125.9589   1.1314062194e+02   4.8002188831e+01     0.521441    0.2400883  14.53 0.0003520044    2.537    0.606
        89 -10.9145     10.3532    122.6943   1.1372163562e+02   4.9028011525e+01    0.2796727    0.2523724  76.21  0.001532831    1.135    0.119
        90 -10.6554     24.3039    126.0673   1.0935900587e+02   4.7135125192e+01     0.220677    0.1943827  37.26 0.0003679745    1.231    0.187
        91  -9.9454    220.0242    124.3132   5.6524402484e+01   1.3945867760e+01    0.1785381    0.1638651 -29.59 0.0004848794    1.068    0.064
        92 -10.4097      2.4888    122.7956   1.1640412328e+02   4.9463281776e+01    0.2331431    0.1457263 -68.41 0.0007120521    1.350    0.259
        93  -9.9159      1.3966    119.0621   1.1639748369e+02   5.0471554851e+01    0.1984536    0.1106771 -77.05 0.0003637721    1.552    0.356
        94 -10.9039     21.6227    121.3587   1.0963952871e+02   4.8571890874e+01    0.3035404    0.2228477 -22.97 0.0008887266    1.556    0.357
        95  -9.1871     32.4713    121.5412   1.0584221176e+02   4.7587783537e+01    0.1410616     0.126741 -56.20 1.835919e-05    1.042    0.041
        96 -10.5091     73.0353    118.3446   9.1006301201e+01   4.3374714367e+01    0.3947028    0.2567312  85.64  0.001548508    2.515    0.602
        97 -10.2180     86.0079    116.6703   8.6287914587e+01   4.1683626326e+01    0.2110371    0.1981606  24.18  0.001119157    1.078    0.072
        98  -9.6372     23.6171    117.7158   1.0840827719e+02   4.9354790133e+01    0.1472667   0.09186129 -35.37 0.0006172961    1.733    0.423
        99 -10.5515     16.5359    115.5312   1.1064348071e+02   5.0456078875e+01    0.2806502    0.1506088 -32.50  0.001272737    2.152    0.535
       100  -9.9149    213.9628    115.5272   5.5567131454e+01   1.6507661508e+01    0.1790849    0.1343274  47.70 0.0004858689    1.515    0.340
       101 -11.1598    249.3520    112.1993   4.9912912235e+01   1.0972793357e+01    0.2200778    0.1799989 -42.05 0.0003783664    1.064    0.060
       102 -10.0808     94.9735    112.5102   8.2367445487e+01   4.1096716451e+01    0.2899289    0.2219066 -68.78 0.0009543038    1.528    0.346
       103 -11.3368     37.0854    110.2945   1.0221898128e+02   5.0038908965e+01    0.4612684     0.302174  62.77  0.002128253    1.946    0.486
       104 -11.7269     55.2743    109.6297   9.5332687055e+01   4.8094913783e+01    0.4971181    0.2709851 -51.72  0.001576985    1.693    0.409
       105 -12.2177     14.6277    109.3377   1.1047420293e+02   5.2176973412e+01    0.5009071    0.3179855  18.64  0.002622317    1.761    0.432
       106 -10.5259      5.5292    106.5131   1.1348676025e+02   5.3446354172e+01    0.2644906    0.1682666 -28.22 0.0008937465    1.721    0.419
       107 -10.1466      1.4136    108.9615   1.1529976520e+02   5.3035944073e+01    0.2773338    0.1072942 -71.80 0.0004951958    2.131    0.531
       108  -9.6972      2.5056    105.4965   1.1448857774e+02   5.3859365575e+01    0.1863275    0.1142204 -86.66 0.0009568072    1.592    0.372
       109  -9.6134     82.5485    109.0392   8.5557061660e+01   4.4122456257e+01      0.23914    0.1475651 -52.90  0.001030431    1.598    0.374
       110 -10.2447     32.2534    106.1568   1.0327471114e+02   5.1570538773e+01    0.4220804    0.2199809 -69.86  0.001011186    1.889    0.471
       111  -9.9791     34.6980    102.6782   1.0166179336e+02   5.2218183047e+01    0.2260628    0.2133253 -57.06 0.0003320558    1.048    0.046
       112 -10.8746     37.5100    101.5264   1.0033133067e+02   5.2224373855e+01     0.471613     0.207032 -63.47  0.001763382    2.132    0.531
       113  -9.9953    243.6279    104.7822   4.9122587568e+01   1.3028670776e+01    0.1796332   0.09438011 -43.97 0.0005348091    1.592    0.372
       114 -10.7451     51.2651    104.2509   9.5628109397e+01   4.9960367790e+01    0.2565449    0.2006381 -56.74  0.001330799    1.209    0.173
       115  -9.0674    186.3459    104.2839   5.7625639563e+01   2.3854379113e+01    0.1406685    0.1108153   9.62  0.000232174    1.645    0.392
       116 -11.0262    120.9150    100.3402   7.1363311468e+01   3.8688077886e+01    0.6955903    0.3453101 -25.53  0.002097988    3.839    0.739
       117 -11.4622    142.8166     98.5399   6.5218958566e+01   3.4314225643e+01    0.6628762    0.3870634  54.11  0.002796644    1.833    0.454
       118 -10.9194     61.9015     98.8651   9.0331467374e+01   4.9849926218e+01    0.3326039    0.2852461 -22.94 0.0009558981    1.183    0.155
       119 -10.5817     66.2054     98.1273   8.8539001629e+01   4.9389074459e+01    0.2816083     0.231934   9.97  0.000525025    1.297    0.229
       120 -10.7730      4.6203     98.8156   1.1281901656e+02   5.5437786132e+01     0.276924    0.2506498 -17.12  0.001786361    1.213    0.176
       121 -11.9209    161.8798     98.1583   6.0847464923e+01   3.0194007198e+01     0.470593    0.1880892 -43.28  0.001711681    2.416    0.586
       122 -13.0091    163.7748     83.9790   5.6713928640e+01   3.2345169545e+01     1.695833    0.8880221  49.15  0.007241335    1.958    0.489
       123 -11.3981     25.6994     90.7574   1.0288475643e+02   5.6032558738e+01    0.4281726    0.2255099 -63.10  0.001985159    1.711    0.416
       124 -12.1360     21.7166     87.7013   1.0394029156e+02   5.7113428174e+01    0.7957981    0.1996085 -61.77  0.002751688    3.098    0.677
       125 -11.1589     14.3310     95.7145   1.0848558899e+02   5.5651521229e+01    0.4850255    0.1702069 -64.02    0.0019561    2.296    0.564
       126 -10.9476     10.9545     90.2919   1.0896138258e+02   5.7217754905e+01    0.3663293    0.3297319 -76.06   0.00114162    1.130    0.115
       127  -9.5148    250.0572     95.9583   4.6564287192e+01   1.3280872263e+01    0.1466791    0.1195695 -43.39 0.0005578556    1.017    0.017
       128 -10.6915     51.2242     98.6274   9.4342999860e+01   5.1363097515e+01    0.3939947    0.2121273 -33.99   0.00160884    2.169    0.539
       129 -10.6021     37.5436     95.0911   9.8942839261e+01   5.3830574895e+01    0.3015083     0.194097  36.60  0.001091589    1.682    0.406
       130  -9.8866     23.9075     99.1296   1.0523794260e+02   5.4087608895e+01    0.4110879    0.1796946  35.08  0.001255134    2.448    0.592
       131  -9.1031    113.2946     93.3537   7.1548302190e+01   4.1773441940e+01     0.158232    0.1211703  -4.96 0.0003418117    1.687    0.407
       132  -9.4946     31.4463     92.9913   1.0097082675e+02   5.4961338420e+01    0.2044583    0.1260848 -61.44 0.0003565663    1.485    0.327
       133  -9.4035     46.5473     92.5805   9.4728977568e+01   5.3428123120e+01    0.1400282    0.1334813 -40.38 9.974305e-05    1.050    0.048
       134 -10.5860     57.8856     89.9942   8.9559863723e+01   5.2554556180e+01    0.4032659    0.2519352  22.78  0.001525042    1.724    0.420
       135 -10.4712     96.3057     89.7879   7.5703955547e+01   4.6006735040e+01    0.3243369    0.2128973  28.92  0.001423185    1.672    0.402
       136 -10.0581     83.0107     88.9195   7.9915108923e+01   4.8718398355e+01    0.2264831    0.2131125 -20.10 0.0005368389    1.030    0.029
       137 -10.7200     78.7696     88.1975   8.1202924325e+01   4.9637816995e+01    0.3650556    0.2072485 -51.11  0.001549996    1.781    0.438
       138 -11.2478     66.1548     86.0860   8.5263236713e+01   5.2224380687e+01    0.5794752    0.3096748 -28.78  0.002193992    2.562    0.610
       139 -11.3547      5.0718     84.5911   1.1049827360e+02   5.8949262155e+01    0.6709126    0.1911321 -46.85  0.002580444    2.820    0.645
       140  -9.2080    120.6904     87.2861   6.7696150889e+01   4.1427028024e+01    0.1493828    0.1217932 -89.33 0.0006046162    1.573    0.364
       141  -9.5305     51.0224     85.7067   9.1149332299e+01   5.4509604572e+01    0.1866283    0.1753304  -9.02 0.0005272133    1.053    0.050
       142  -9.3141    116.0193     84.0000   6.8013475633e+01   4.3100578530e+01    0.2596451   0.08541358  46.72 0.0008117997    3.008    0.668
       143 -10.0136     73.7885     83.3918   8.1590005668e+01   5.1574570606e+01    0.2096188    0.1395909  22.68 0.0005005957    1.656    0.396
       144  -9.1927     56.4302     83.5382   8.8356215645e+01   5.4272702923e+01    0.1446903    0.1330973 -26.04 8.704826e-05    1.009    0.009
       145 -11.4455     30.5866     81.7159   9.8780739323e+01   5.7795660654e+01    0.4244452    0.3032207  -6.83   0.00165056    1.532    0.347
       146  -9.5381     62.4532     82.5836   8.5682000783e+01   5.3598964993e+01    0.1453786    0.1345976 -15.58 4.740812e-05    1.020    0.020
       147 -11.5004     20.0369     81.1265   1.0329535691e+02   5.8848607217e+01    0.6020711    0.3743861 -30.21  0.002203734    1.623    0.384
       148 -11.8738     30.7149     62.1055   9.3405973236e+01   6.2300318967e+01     1.054551    0.7769134  67.37  0.005429169    2.115    0.527
       149 -12.7979     10.8237     75.0911   1.0618918446e+02   6.0932996072e+01     1.039604    0.6266513  -6.56  0.005408827    1.853    0.460
       150 -14.0099     16.7555     67.4609   1.0166834724e+02   6.2331052424e+01    0.6080961      0.46015 -31.18  0.002129188    1.197    0.165
       151 -10.7129     15.1624     59.4192   1.0038957493e+02   6.4280008297e+01    0.2787567    0.1996994 -21.07  0.000517603    1.329    0.248
       152 -12.0917     36.9587    243.9387   1.1673880885e+02   1.8095790217e+01    0.6345227    0.3170376  88.77  0.003079885    2.273    0.560
       153 -12.1547     26.8053     49.7878   9.1387016405e+01   6.5331721203e+01    0.6424655    0.3970445 -55.48  0.002260207    1.656    0.396
       154 -11.6694     35.2113     42.5478   8.4326162401e+01   6.5794805630e+01    0.7268745    0.3600807  10.76  0.002961453    2.901    0.655
       155 -11.1241     45.5221     85.8337   9.3445707132e+01   5.5179141856e+01    0.6072574    0.3747138  83.29   0.00231129    3.263    0.693
       156 -10.8084     60.9435     78.1797   8.4967515220e+01   5.4820708946e+01    0.3777606    0.2905283  -6.16  0.001349035    1.444    0.308
       157 -10.8383     61.9188     72.1959   8.2705369170e+01   5.5976995664e+01    0.3421592    0.1882791 -42.96 0.0006196793    1.761    0.432
       158  -8.9748    228.7030     78.7126   4.5447213592e+01   1.9596364652e+01    0.1143373   0.09719107   0.81 0.0002516628    1.551    0.355
       159 -12.7517     44.6362     75.1935   9.0901623883e+01   5.7769897918e+01    0.3416778    0.2742792  40.25 0.0005342012    1.397    0.284
       160  -9.8770    145.7550     74.2662   5.7728563218e+01   3.8164626138e+01    0.2574683    0.1790061 -40.98 0.0007220676    1.437    0.304
       161 -10.5730     90.3318     74.9765   7.3089604516e+01   5.0285526413e+01    0.2125254    0.1903845 -31.19 0.0005243277    1.116    0.104
       162 -10.1752     74.9224     75.0668   7.8576176741e+01   5.3176425497e+01    0.2448141    0.1763181  -7.15  0.001132068    1.744    0.427
       163 -10.6896     76.8858     63.7296   7.4038778683e+01   5.5107248995e+01     0.382557     0.297364 -51.24  0.001645504    1.432    0.301
       164 -10.2230     74.3350     71.3273   7.7575782817e+01   5.4059780045e+01    0.2602579    0.1746604 -22.92 0.0005147886    1.755    0.430
       165 -10.9273     77.7381     69.8300   7.5813948917e+01   5.3744384153e+01    0.3932611     0.255103  50.63  0.001185622    1.746    0.427
       166  -9.7975     48.9708     60.2501   8.4246303367e+01   6.0439907767e+01    0.1921995    0.1692853  10.18 0.0003472625    1.097    0.089
       167 -10.4451     53.9838     74.3167   8.6643719140e+01   5.6711651862e+01    0.2635974    0.2250841  75.22 0.0008095404    1.566    0.361
       168 -10.8403     51.5540     62.9077   8.4008495068e+01   5.9517472479e+01    0.3490548      0.23789 -32.74  0.001151864    1.438    0.305
       169 -10.6008    207.5402     73.4706   4.6933633040e+01   2.4545605058e+01    0.2135325    0.1941145 -52.98 0.0001893308    1.044    0.042
       170 -11.8314     50.3367     68.7984   8.6476875144e+01   5.8438220162e+01    0.4488649    0.3309696 -30.04 0.0006957333    1.321    0.243
       171 -11.8694      6.4141     51.8170   1.0295904741e+02   6.6542435774e+01    0.7567323    0.3466661 -45.66  0.003609102    1.751    0.429
       172 -11.1453      6.5310     41.3591   9.9866775431e+01   6.8775821933e+01     0.455008     0.195015 -43.37 0.0008116942    1.882    0.469
       173 -11.7242      2.2730     71.8072   1.0951617348e+02   6.2169910835e+01    0.8254962    0.2154795 -69.86  0.002393789    3.399    0.706
       174 -11.3110     10.0099     63.4406   1.0401004159e+02   6.3714270136e+01    0.3850554     0.346156   6.04  0.001446935    1.226    0.184
       175 -11.3288     12.7599     51.8823   9.9541701224e+01   6.6117049114e+01    0.5449777    0.2296818 -57.70  0.001640075    2.075    0.518
       176 -10.7104     11.2104     44.8688   9.8272019051e+01   6.7725549301e+01    0.3456052    0.2531302 -55.34  0.001516201    1.328    0.247
       177 -12.0212      5.1791     58.8847   1.0538261134e+02   6.5031539869e+01    0.3043803    0.2705348 -43.78 0.0003066029    1.089    0.082
       178 -12.2420      6.1047     68.0092   1.0694606349e+02   6.2877337600e+01     0.245984    0.1882966 -46.89 0.0003769996    1.087    0.080
       179 -12.5320      3.2581     63.1232   1.0730791361e+02   6.4158469199e+01    0.4673126    0.2931118  73.98  0.002360861    2.347    0.574
       180 -10.7037    100.9427     72.4076   6.8832649273e+01   4.8608149963e+01    0.3980679    0.2713575  73.34  0.001112024    2.282    0.562
       181  -9.9173    128.5555     71.7028   6.0949514875e+01   4.2595030884e+01     0.316127    0.1649081  39.91  0.001252029    2.120    0.528
       182  -9.7351    167.9090     69.7342   5.2102171511e+01   3.3792087634e+01    0.1895189    0.1723085  73.68 0.0003511304    1.098    0.089
       183 -10.1318    123.1170     69.1167   6.1515353457e+01   4.4300839484e+01    0.2234846    0.1997859  11.74 0.0003327756    1.225    0.184
       184 -10.5241     36.1858     68.7665   9.2811484527e+01   6.0227659545e+01    0.3023015    0.1960263  46.68  0.001483023    1.951    0.487
       185  -9.7721     42.6800     68.2885   8.9706562840e+01   5.9563710706e+01    0.2308126    0.1963348  11.08  0.001327456    1.172    0.147
       186 -10.3583    127.8347     66.8032   5.9610207260e+01   4.3614233083e+01    0.2231408    0.2095336  87.33  0.001236448    1.113    0.102
       187 -11.1472     93.7110     66.5751   6.9187084125e+01   5.1231255655e+01     0.337115    0.2651755   4.52  0.000888705    1.495    0.331
       188  -9.3930     99.5418     64.9380   6.6786498965e+01   5.0301765552e+01    0.2057583    0.1291616 -12.51 0.0008080222    2.475    0.596
       189 -10.9189    105.3112     63.5510   6.4583753034e+01   4.9294776582e+01    0.3211266    0.2371561  24.66 0.0008348539    1.541    0.351
       190  -9.7920    153.4869     63.5369   5.3043557829e+01   3.8130873746e+01    0.1415405    0.1357758 -89.48 6.660235e-05    1.003    0.003
       191 -10.5984    120.3803     61.0349   5.9630827356e+01   4.6314478133e+01    0.2978286    0.2115983  59.12  0.001445521    1.422    0.297
       192  -9.0709    113.3114     61.6470   6.1690543189e+01   4.7832962292e+01    0.1499247    0.1160065 -77.08  0.000704472    1.726    0.421
       193 -10.8516     84.4283     60.9637   7.0359552157e+01   5.4166013139e+01    0.4273159     0.295168  22.14  0.002022286    1.651    0.394
       194  -9.8175    155.1579     60.1798   5.1761293542e+01   3.8260134924e+01    0.1909332    0.1581665 -79.17            0    1.287    0.223
       195  -8.9614     98.3113     60.2926   6.5574166448e+01   5.1395717383e+01    0.1477821    0.1115002  13.96  0.000170626    1.589    0.371
       196 -11.3553     59.4520     58.4122   7.9032156183e+01   5.9207872785e+01    0.3502839     0.263015 -28.73  0.001136916    1.311    0.237
       197  -9.9486    147.1395     56.8745   5.2330757819e+01   4.0663788374e+01    0.2098554    0.1829093 -69.54 0.0003641837    1.184    0.155
       198 -10.4167     75.2362     56.2719   7.1974462822e+01   5.6818777382e+01    0.2158832    0.1809855 -20.78 0.0004180074    1.196    0.164
       199 -12.3482    105.1173     52.8406   6.0956744488e+01   5.1143006839e+01    0.3269804    0.3226402 -25.66 0.0004535139    1.078    0.072
       200  -9.6943     68.4515     56.4310   7.4636827817e+01   5.8044299333e+01    0.1405667    0.1299413   7.24 3.840544e-05    1.027    0.027
       201  -9.2895     48.3619     56.2516   8.3115703613e+01   6.1340323198e+01    0.1411736   0.09868586  -5.31 0.0006956059    1.616    0.381
       202 -10.2351    132.3561     54.1369   5.4568857002e+01   4.4598820977e+01    0.3314852    0.2412747  44.39  0.001674191    1.381    0.276
       203  -9.2376     82.4833     54.4686   6.8688861072e+01   5.5721739364e+01    0.1446288    0.1315068  14.80 0.0008093271    1.037    0.036
       204 -10.2900     55.8470     53.6843   7.8840215772e+01   6.0706158690e+01    0.2820959    0.1974191  -1.02   0.00140472    1.670    0.401
       205 -10.0961    120.1860     52.4376   5.6847877108e+01   4.7734984147e+01    0.2648961    0.1968227  25.49 0.0007415598    1.593    0.372
       206 -11.3483     62.5916     50.8985   7.4919662016e+01   6.0100204090e+01    0.3746148    0.2230449 -30.58   0.00107419    1.779    0.438
       207 -11.3992     88.2286     51.1179   6.5495417167e+01   5.5110022341e+01    0.2885631    0.2598782   4.39 0.0006417219    1.107    0.096
       208  -9.9292     77.9730     51.5486   6.9203700603e+01   5.7127116030e+01    0.2557983    0.2002347 -54.67 0.0007938312    1.561    0.359
       209 -10.6623     44.9553     49.6243   8.2254692680e+01   6.3131105316e+01    0.4353743    0.1894571 -48.55  0.001463596    2.330    0.571
       210  -9.7976    237.3841     50.8195   3.8600078769e+01   2.1830887581e+01    0.1656733    0.1042991 -28.52 0.0009505598    1.705    0.413
       211 -11.5594    129.1166     49.0169   5.3643422762e+01   4.6133807984e+01     0.525092    0.3791913  11.32  0.002513379    1.924    0.480
       212 -11.1228    199.8990     49.6217   4.2241815921e+01   2.9574511497e+01    0.2294646     0.191371 -63.08 0.0003350486    1.069    0.065
       213 -10.8692     53.3196     50.0096   7.8559302849e+01   6.1803045674e+01    0.2542395    0.1918579  26.40 0.0004373169    1.276    0.216
       214  -9.4330    205.8311     48.6530   4.1322103467e+01   2.8432972893e+01     0.166416    0.1115677  86.27 0.0001073914    1.584    0.369
       215  -9.4378    119.9423     47.0400   5.5094930243e+01   4.8600501827e+01    0.1656496    0.1596407  55.25 0.0006554282    1.024    0.023
       216 -10.1365     78.4931     46.8934   6.7231616856e+01   5.7807876238e+01    0.2354852    0.1920349 -56.50  0.001267356    1.532    0.347
       217 -10.8313    142.8443     45.4124   4.9693235757e+01   4.3352805782e+01    0.2721496    0.2201816 -68.41 0.0008218734    1.324    0.245
       218 -10.4725     99.1213     39.5098   5.7811200840e+01   5.4506447878e+01    0.4860854    0.1775979  46.12  0.001808658    2.545    0.607
       219 -10.0544    100.9249     36.1646   5.6054991681e+01   5.4556404873e+01    0.2705307    0.1725713  65.16 0.0008978223    1.695    0.410
       220 -10.7348     92.1405     43.5040   6.1383100229e+01   5.5477033263e+01    0.4142215    0.3065458 -68.10  0.002025615    1.964    0.491
       221  -9.9964     83.8689     45.2335   6.4719919251e+01   5.6975809955e+01     0.331174    0.1675784  53.86  0.001028403    2.116    0.527
       222 -11.7333     66.3876     40.6604   6.9290362527e+01   6.1171281390e+01    0.5244545    0.4616261  29.74  0.002147324    1.095    0.087
       223 -11.0779     71.6895     41.5530   6.7606214906e+01   6.0015896430e+01    0.3811044    0.2658848 -50.03  0.001256828    1.769    0.435
       224 -12.3849     72.9338     36.9746   6.5258509045e+01   6.0477983009e+01    0.7627298    0.4240862  31.99  0.002459286    1.894    0.472
       225 -10.7801    124.7548     42.4453   5.2445001572e+01   4.8107279312e+01    0.3089368    0.2392695 -82.21  0.001385018    1.543    0.352
       226 -10.1949    107.0093     42.9655   5.6924917375e+01   5.2211918164e+01    0.2138789    0.1919287  47.61 0.0003519732    1.036    0.035
       227 -10.3058     18.5220     42.3199   9.3274053017e+01   6.7657983161e+01    0.4764612    0.1495996 -45.04  0.001619705    2.635    0.620
       228 -11.3752     23.9027     41.6369   9.0019046035e+01   6.7274200275e+01    0.4684806      0.34289  67.14  0.002420055    2.531    0.605
       229 -10.6356     30.1718     33.0078   8.3060825595e+01   6.8178141174e+01    0.3160322     0.249557  -9.43 0.0007785512    1.109    0.098
       230 -12.3744     27.7276     38.0759   8.6524780974e+01   6.7543638546e+01    0.3568411     0.232756  24.26   0.00037987    1.512    0.338
       231 -11.6903     24.1726     35.0928   8.7301231356e+01   6.8499796602e+01     0.403118    0.2344939   4.47 0.0007837093    1.908    0.476
       232 -11.5560     53.0257     40.7748   7.4987856953e+01   6.3506792821e+01    0.3758302    0.2461444  34.12  0.001311881    1.460    0.315
       233 -13.1005     74.3018    237.9670   1.0819137877e+02   1.4995520427e+01    0.7752339    0.6332107 -78.66  0.005077082    1.383    0.277
       234 -10.0505    111.9110     46.3466   5.6845024072e+01   5.0584801083e+01    0.2981006    0.1568846  42.73  0.001274816    1.909    0.476
       235 -11.6040     43.5744     38.1815   7.8327386178e+01   6.5435275691e+01    0.5328545    0.3117795  47.72  0.002558252    2.215    0.549
       236 -11.0531    224.8904     38.3220   3.7075770616e+01   2.5832064992e+01    0.2723467    0.1872962  83.67 0.0005633508    1.473    0.321
       237  -9.6716    116.7696     39.5952   5.3293522476e+01   5.0397081050e+01    0.1961331    0.1299656  69.25 0.0007558676    1.607    0.378
       238  -9.3968    160.4164     38.4362   4.4635250565e+01   4.0062918082e+01    0.1337361    0.1218556 -85.17 4.956363e-05    1.014    0.014
       239  -9.9055     95.5391     42.9607   6.0146818220e+01   5.4810359443e+01    0.2366901    0.1771852  29.85 0.0005359564    1.372    0.271
       240 -10.2206      1.6586     37.6993   1.0163678778e+02   6.9822020403e+01    0.2205477    0.1138079 -43.98 0.0008950752    1.541    0.351
       241 -11.1851     84.1548     35.6046   6.0817575457e+01   5.8355392706e+01    0.4585302    0.2540285  27.21   0.00134679    2.315    0.568
       242 -10.9833      8.1479     33.8228   9.6350454731e+01   7.0197829718e+01    0.4266555    0.3604446 -61.59  0.002660005    1.420    0.296
       243 -11.5967     17.4887     31.4581   8.9721662516e+01   6.9865107831e+01     0.490925    0.2758506  13.67  0.002383402    1.787    0.440
       244 -10.6669     22.5981     25.7557   8.4164535344e+01   7.0350272283e+01    0.3410515     0.272047  10.55  0.001395389    1.160    0.138
       245  -9.5976    134.5270     35.5077   4.8159456830e+01   4.6667403372e+01     0.137536    0.1268212  75.58  0.000264705    1.020    0.020
       246 -10.1175     95.5057     34.9912   5.7117021223e+01   5.5944917187e+01    0.2493941    0.1397538 -25.43 0.0008446366    2.024    0.506
       247 -10.9998     97.8070     31.4643   5.5111934490e+01   5.5885228048e+01    0.4522027    0.2292461  61.22  0.001971342    2.021    0.505
       248 -11.7099    101.9461     28.5816   5.2914198956e+01   5.5290885527e+01    0.4352693    0.2933177  74.64 0.0006918562    1.739    0.425
       249 -11.2473    221.7481     32.2080   3.6025969641e+01   2.7202831508e+01    0.2246952     0.167804 -54.49 0.0002693211    1.121    0.108
       250  -9.5079    201.7803     34.3746   3.8392518729e+01   3.1118678215e+01    0.1624882    0.1083696  63.34 0.0003138527    1.545    0.353
       251 -10.2101    107.9283     34.6032   5.3653188342e+01   5.3140857235e+01    0.3958031    0.1317579  59.82  0.001369765    3.010    0.668
       252 -10.3590    205.8505     32.5490   3.7557467063e+01   3.0464362965e+01    0.1893186    0.1589208 -36.04 0.0004240423    1.280    0.219
       253  -9.4513    185.3104     33.3174   3.9934544273e+01   3.4897181000e+01    0.1231944   0.09784264  35.45 0.0007033348    1.639    0.390
       254 -10.0969    166.5021     32.9789   4.2223187472e+01   3.9295855704e+01    0.1929441    0.1304114 -30.62  0.001027839    1.588    0.370
       255  -9.6755    145.7056     31.5963   4.4949640156e+01   4.4440892466e+01    0.2293142    0.1443943 -53.57 0.0008579195    1.718    0.418
       256 -10.0518     89.5632     31.7632   5.7585440095e+01   5.7700590727e+01    0.2423162    0.1654859  52.76 0.0005148387    1.360    0.265
       257 -10.8386     48.3296     31.7799   7.3240928215e+01   6.5760759871e+01    0.2372571    0.1871075  13.43  0.001406548    1.155    0.134
       258 -10.2381     50.0212     27.9606   7.0704880584e+01   6.6067903557e+01    0.2853647    0.1982019  10.70  0.001105301    1.505    0.336
       259 -10.7597    236.1185     30.3601   3.4477515218e+01   2.4598431684e+01    0.2178891    0.1953315 -87.47    0.0008996    1.233    0.189
       260 -10.3515    111.2413     28.8451   5.0758175627e+01   5.3077425675e+01     0.286008    0.1894986 -11.94  0.000874778    1.887    0.470
       261 -11.2491     69.7141     26.7022   6.2023050109e+01   6.2573539973e+01     0.460793    0.3073158  28.14  0.001780957    1.488    0.328
       262 -10.9871    152.6751     39.0227   4.6030597502e+01   4.1839270279e+01    0.2488304    0.2413808  17.32 0.0005154375    1.181    0.153
       263  -9.2969     50.3153    240.3148   1.1365279807e+02   1.7358754506e+01    0.1100156   0.09166258 -20.20 0.0007035667    1.644    0.392
       264  -9.8455    195.2036    238.8142   8.2502721319e+01  -1.1391542500e+00    0.1748982    0.1185016  -3.84  0.001077765    1.353    0.261
       265 -11.1817    127.9832     26.7150   4.6517649630e+01   4.9306158654e+01    0.5872152    0.3036695  66.98  0.002590593    1.834    0.455
       266 -10.8228    243.8731    237.1823   7.3575293056e+01  -6.5090409938e+00    0.2117485    0.1377625 -36.93  0.001358396    1.751    0.429
       267 -10.1649    214.4907     25.9205   3.5264425574e+01   2.9422363918e+01    0.1744909    0.1440187 -80.23 0.0004522744    1.092    0.085
       268  -9.8491    203.8568     25.5120   3.6112368573e+01   3.1713967957e+01    0.2391239    0.1006397 -51.74 0.0008874794    2.207    0.547
       269 -10.9308    193.1479     25.4417   3.7126338558e+01   3.4060860413e+01    0.2506075    0.1458368 -50.41 0.0008145315    1.572    0.364
       270 -10.5425    169.0091     25.9992   3.9979018175e+01   3.9520811204e+01    0.1920016     0.169709 -82.31            0    1.011    0.011
       271 -11.8897    164.9573     23.1330   3.9700942018e+01   4.0795081633e+01    0.2532011    0.2097414  73.11 -0.0009232552    1.123    0.110
       272  -9.4719    144.3065     26.6219   4.3652518909e+01   4.5358429341e+01    0.1443501   0.09318931 -65.18 0.0007027271    1.780    0.438
       273 -10.1617    119.0564     25.8895   4.7997860849e+01   5.1554900351e+01    0.1982291    0.1754481  50.41 0.0002769147    1.071    0.066
       274 -12.0210     30.7081    234.0467   1.1746153556e+02   2.0706148064e+01    0.5011314    0.2103617 -82.28  0.002446605    2.591    0.614
       275 -10.2422     14.9862     13.9754   8.3188887878e+01   7.3148499415e+01     0.183351    0.1438254 -11.74 0.0004652565    1.037    0.035
       276  -9.7178    159.6912    236.2984   8.9244006803e+01   3.8803109753e+00    0.1167675   0.09315652  49.02 0.0002826968    1.596    0.373
       277  -9.7510    177.3253    235.3256   8.5482927812e+01   1.6766335266e+00    0.1305099   0.08307178  -2.94 0.0007049106    1.692    0.409
       278 -10.4570     88.8289    241.3251   1.0529517835e+02   1.2524424298e+01     0.230979    0.1489366 -31.18  0.001230288    2.197    0.545
       279 -10.1231     38.2371    232.8055   1.1575099184e+02   2.0178995798e+01    0.1762114     0.135126  58.66  0.000606757    1.107    0.097
       280 -10.3951      1.6695     25.9901   9.7613930752e+01   7.2160556634e+01    0.1671562    0.1532644 -20.12 0.0006898764    1.235    0.190
       281 -11.2829      7.8405     25.1383   9.3179962364e+01   7.1887006494e+01    0.5008404    0.1765247  17.72  0.002216374    2.909    0.656
       282 -10.1010     23.9943    232.5112   1.1880992055e+02   2.1685850726e+01    0.1927159    0.1513434 -64.53 0.0006564827    1.477    0.323
       283 -10.7254     24.9774     20.2319   8.0096839029e+01   7.0980779557e+01    0.2733569    0.2182513  -5.89  0.001049696    1.035    0.034
       284 -10.1660    109.4690    242.8656   1.0091604150e+02   9.5475985019e+00    0.2438215    0.1392658  44.04 0.0008692978    1.615    0.381
       285  -9.4337    170.0069    229.0383   8.6020652692e+01   3.6621566328e+00    0.1535427    0.1293135   0.46 0.0006051593    1.062    0.058
       286 -11.2647      4.5957    226.6497   1.2262480750e+02   2.4660445847e+01     0.304361    0.1701781  52.45  0.001857707    1.441    0.306
       287 -10.6403    154.9956    227.0023   8.8874070553e+01   6.0895128161e+00    0.2001337    0.1565136  56.55  0.001152101    1.759    0.432
       288 -10.5790    120.5867    226.7514   9.6452178553e+01   1.1007345569e+01    0.1628125    0.1302041 -74.47 0.0008106256    1.625    0.384
       289 -10.0552    106.5209     22.7674   4.9602484256e+01   5.4893442758e+01    0.3118209    0.2087104 -56.44 0.0008118651    1.882    0.469
       290 -10.1865    103.3593     19.6007   4.9134577010e+01   5.5980998918e+01    0.2258878    0.1721753 -83.30  0.001155529    1.618    0.382
       291 -11.4558    108.4214     17.6047   4.7245261545e+01   5.4991618059e+01    0.3410772    0.2182515  45.96 0.0009907443    1.451    0.311
       292 -10.2318     62.0000     23.9881   6.3729773937e+01   6.4453085935e+01    0.1938185    0.1361436  -6.45  0.001050353    1.569    0.363
       293 -11.2457     58.9684     21.8625   6.3951420129e+01   6.5311307515e+01    0.3177022    0.2294146  -7.50  0.001130403    1.467    0.318
       294 -10.1397    186.0169     22.9588   3.7242431623e+01   3.5936945508e+01    0.1961557    0.1623157 -76.36 0.0005370886    1.057    0.054
       295 -10.4774     67.7050     21.8001   6.0547755554e+01   6.3607510518e+01    0.3731272    0.1678985  55.38   0.00119527    2.370    0.578
       296  -9.4555    120.4058     21.2694   4.6112753515e+01   5.1738177671e+01    0.1672478    0.1248229 -41.45 0.0004850562    1.463    0.316
       297 -10.0608     66.0662    226.3085   1.0897128570e+02   1.8349936245e+01    0.1918894    0.1730249 -56.00 0.0006564775    1.288    0.224
       298 -11.4315     21.2267    222.4691   1.1884053088e+02   2.4039161802e+01     0.233403    0.1858418  65.58 0.0008392695    1.054    0.052
       299 -10.2572    126.7289    222.0183   9.4410611419e+01   1.1031401635e+01    0.2160117    0.1633776  38.45  0.000404431    1.230    0.187
       300  -9.9229     37.9808    217.6960   1.1474008754e+02   2.3383185186e+01    0.1787616    0.1425716  44.11 0.0008183691    1.125    0.111
       301 -11.9353      9.8211    217.2978   1.2107298546e+02   2.6177860132e+01    0.3680498    0.2063054  44.82  0.001784968    1.494    0.331
       302 -11.2134     29.6855    215.9704   1.1652886719e+02   2.4610712702e+01    0.3399113    0.2573726  13.28  0.001486197    1.601    0.375
       303  -9.8105    172.6815     20.2930   3.8004611502e+01   3.9289699069e+01    0.1342434   0.08511358 -67.86 0.0007011794    1.605    0.377
       304 -10.2435    139.5954     20.0040   4.2339880140e+01   4.7220620390e+01    0.2634818    0.1518268  52.83 0.0006590239    1.639    0.390
       305 -10.3555     23.4549    216.5248   1.1798661330e+02   2.5100157210e+01    0.1953759    0.1173494  10.56  0.001025653    2.251    0.556
       306 -12.0681    237.6144    212.6197   7.0601640939e+01  -2.5600379639e+00    0.5326459    0.2967977  -4.85  0.001904012    1.999    0.500
       307  -9.5217    190.4993    226.4818   8.1489949892e+01   1.3105337704e+00    0.1272054    0.1006295   2.26 -5.051121e-05    1.032    0.031
       308 -10.4463     21.5310    212.6581   1.1818480460e+02   2.6126199745e+01    0.3018494    0.1079586  52.63  0.001321916    2.540    0.606
       309  -9.8495    226.4857     22.0459   3.3473465441e+01   2.7426698928e+01    0.1698806    0.1338645 -84.30 0.0004572788    1.170    0.145
       310  -9.7186     54.8143     19.0386   6.4316971682e+01   6.6454251543e+01    0.1811219    0.1695609  48.76  0.001179006    1.321    0.243
       311  -9.9133    151.4784     18.5115   4.0147486078e+01   4.4504047833e+01    0.1316375    0.1150971 -89.83 2.789709e-05    1.035    0.034
       312 -10.4720     84.0022     18.5662   5.3769939494e+01   6.0522809941e+01    0.4193614     0.172233  67.34  0.001461419    3.678    0.728
       313  -9.8549    208.8174    211.9535   7.5574808361e+01   1.1345860635e+00    0.1966148    0.1379152  -8.57  0.000664406    1.289    0.224
       314 -12.1827      5.4865    208.9133   1.2162042679e+02   2.8363520481e+01    0.4356598    0.2878865 -86.05  0.002498716    1.388    0.279
       315  -9.9221     74.8842     16.0941   5.5479275561e+01   6.2778065732e+01    0.3719497    0.1791878  58.12  0.001215475    2.042    0.510
       316 -10.4143     10.7861    208.5139   1.2040037512e+02   2.8006150218e+01    0.2240338    0.1754687 -44.81 0.0005141665    1.633    0.388
       317  -9.2214    188.2575    205.3432   7.8410927606e+01   5.0375381484e+00     0.133263   0.08853944 -10.85 0.0003495789    1.588    0.370
       318  -9.6114    137.1709    215.6193   9.1103153048e+01   1.0726655454e+01    0.2010276    0.1161764  21.10 0.0009499067    1.771    0.435
       319  -8.8476     96.5597     13.4783   4.8337052729e+01   5.8191640216e+01    0.1955419    0.1216745  72.74 0.0001423303    1.715    0.417
       320 -10.5642     20.8283    199.6379   1.1750405953e+02   2.9113292775e+01    0.3781727    0.1752773 -42.36  0.001609607    3.297    0.697
       321 -10.2696    175.3385    202.8251   8.0625518615e+01   7.3709252022e+00    0.2100917    0.1696503  31.09 0.0005209379    1.254    0.202
       322  -9.5710     30.8866     12.8850   7.2827696577e+01   7.1266763606e+01    0.1879852    0.1375535   1.73 0.0005992313    1.237    0.191
       323 -10.8679     16.9331    193.1669   1.1801564399e+02   3.0958310290e+01    0.3148147    0.2319275  22.01   0.00190351    1.513    0.339
       324 -11.1007     16.5133    184.5179   1.1751954552e+02   3.3034419948e+01    0.3966256    0.2075729 -80.45  0.001674616    1.775    0.437
       325 -10.1139     14.6991    180.6630   1.1770861997e+02   3.4110728224e+01    0.2624025    0.1880945 -26.73  0.001474996    1.878    0.467
       326 -10.2534    168.0007    183.7522   7.8748053416e+01   1.2039756328e+01    0.1854401     0.113347  33.55 0.0006068246    1.594    0.372
       327  -9.7006     58.8049    182.1947   1.0609955960e+02   2.9194018324e+01    0.1867995    0.1619536 -31.86 0.0007454436    1.340    0.254
       328  -9.3061      1.5421    180.5343   1.2105378900e+02   3.5158782777e+01    0.1237876    0.1043877  79.61 0.0001618739    1.014    0.014
       329  -9.8798    244.4543    178.5000   6.3452166509e+01   1.5422450945e+00    0.2224733   0.09255202 -28.80  0.001023669    2.294    0.564
       330 -10.7282     46.4518    177.8434   1.0896270072e+02   3.1709289686e+01    0.3091912    0.2482134 -88.18  0.001153195    1.211    0.174
       331  -9.5349     69.5814    178.2265   1.0264537019e+02   2.8779877567e+01    0.1889415    0.1259078 -51.72 0.0005409509    1.560    0.359
       332  -9.2489    200.6633    176.3281   7.0625929807e+01   8.1661985901e+00    0.1230271    0.1094331 -81.62  0.000705188    1.727    0.421
       333 -10.8138     34.1285    174.1233   1.1195656739e+02   3.3934306169e+01    0.2590874    0.1919558 -64.31 0.0004400787    1.319    0.242
       334 -10.6896     18.0927    173.1163   1.1623644777e+02   3.5660946474e+01    0.3537174    0.2009575  59.18  0.001792029    1.733    0.423
       335 -12.2299     36.9019    164.7296   1.1018357548e+02   3.6003486535e+01    0.9220389    0.5627617 -70.12  0.004615564    1.536    0.349
       336 -12.5382     50.0228    161.7133   1.0599479957e+02   3.5338373073e+01    0.4964315    0.3504017  67.18 0.0006423886    1.526    0.345
       337  -9.2507    177.2738    168.6903   7.3819434502e+01   1.3380848732e+01    0.1281115    0.1141578 -80.99 0.0002004683    1.551    0.355
       338  -9.5530      4.6690    168.7149   1.1951271247e+02   3.7780929319e+01    0.1239213   0.08806758 -45.44 0.0003684518    1.615    0.381
       339 -11.3353     44.5674    162.7041   1.0772108174e+02   3.5703456780e+01    0.3751687     0.239663 -76.79  0.001474632    1.545    0.353
       340  -9.6980     99.2679    164.9771   9.2308091676e+01   2.7630699143e+01     0.200666    0.1894666 -52.28 0.0003260489    1.082    0.075
       341 -10.4047     10.1725    162.8422   1.1758820799e+02   3.8829196784e+01    0.3301056    0.1371109  37.89  0.001017919    2.267    0.559
