#   1 NUMBER                 Running object number                                     
#   2 MAG_AUTO               Kron-like elliptical aperture magnitude                    [mag]
#   3 X_IMAGE                Object position along x                                    [pixel]
#   4 Y_IMAGE                Object position along y                                    [pixel]
#   5 X_WORLD                Barycenter position along world x axis                     [deg]
#   6 Y_WORLD                Barycenter position along world y axis                     [deg]
#   7 A_WORLD                Profile RMS along major axis (world units)                 [deg]
#   8 B_WORLD                Profile RMS along minor axis (world units)                 [deg]
#   9 THETA_WORLD            Position angle (CCW/world-x)                               [deg]
#  10 FWHM_WORLD             FWHM assuming a gaussian core                              [deg]
#  11 ELONGATION             A_IMAGE/B_IMAGE                                           
#  12 ELLIPTICITY            1 - B_IMAGE/A_IMAGE                                       
         1 -13.8583    244.8616    158.0270   9.0956234899e+01   1.6499296177e-01     2.773411     0.882722 -45.84   0.00928827    3.437    0.709
         2 -14.0335    202.9152     17.5741   6.4342631363e+01   3.2561401140e+01     1.762259    0.9905348  58.38  0.007124619    1.672    0.402
         3 -13.9378    207.7419     10.7329   6.2177961751e+01   3.2160300408e+01     3.239979     1.718638  28.80  0.001554372    4.618    0.783
         4 -13.2389      2.3432      4.7144   1.1377504221e+02   7.1777486893e+01    0.9422592    0.6844063   0.05  0.007697968    1.253    0.202
         5 -10.5906    152.6969    243.6189   1.2469240073e+02   2.3890729168e+00    0.2234542    0.1646127 -59.28  0.001330198    1.634    0.388
         6  -9.3014    205.3106    250.3189   1.1571526372e+02  -7.5911107374e+00    0.1246595   0.08470771  12.36 0.0007034867    1.643    0.391
         7  -9.5853    189.0011    250.5432   1.1878765339e+02  -4.9271538319e+00    0.1960354    0.1032686  40.83 0.0004770983    1.570    0.363
         8  -9.8762    184.1133    250.2555   1.1966217646e+02  -4.0629910093e+00     0.191948    0.1501147  21.09 0.0005298666    1.277    0.217
         9 -10.4873    169.5679    248.6340   1.2217410454e+02  -1.3392920931e+00    0.3101529    0.2189969  11.73 0.0008719664    1.933    0.483
        10 -11.3421    133.6831    249.0444   1.2903233023e+02   4.7323771643e+00    0.6171963    0.3790862  65.27  0.003322147    1.796    0.443
        11 -12.6882    124.4326    233.2528   1.2879683867e+02   9.1291552321e+00    0.9771174    0.4265174  47.37  0.003631137    1.950    0.487
        12 -10.1389    136.4908    227.9157   1.2567415182e+02   8.0227482669e+00    0.2611702    0.2351875 -25.22  0.001617933    1.449    0.310
        13 -11.8181    150.1396    248.8027   1.2588696794e+02   1.9710033357e+00    0.6422938    0.3620023  59.90   0.00322727    2.002    0.501
        14 -11.3341    143.2392    249.0752   1.2723084951e+02   3.1057901669e+00    0.5471397    0.3151603 -72.29  0.001448104    2.661    0.624
        15 -11.4548    135.6887    241.0446   1.2762509726e+02   5.7779652869e+00    0.3321272    0.2547033  52.36 0.0009466102    1.086    0.079
        16 -12.3191    135.3770    235.5325   1.2695047351e+02   6.8170872210e+00    0.5323508    0.4651985 -74.57  0.001463905    1.275    0.216
        17 -10.1577    126.3652    248.8579   1.3038623769e+02   5.9927626067e+00    0.2682414    0.1976428  66.74 0.0009309538    1.290    0.225
        18 -11.2798    122.1084    244.9744   1.3071953583e+02   7.3851018916e+00    0.5629393    0.1990488  49.01  0.002388175    2.412    0.585
        19 -11.5547    126.4054    240.4881   1.2934367218e+02   7.4648786146e+00     0.411604    0.3743474  73.88  0.002007196    1.139    0.122
        20 -11.1682    115.3207    250.2572   1.3261030664e+02   7.5708944756e+00    0.6662848    0.3347176  42.49  0.003473428    1.716    0.417
        21 -11.7904    109.6472    246.9420   1.3328954576e+02   9.0813019738e+00    0.6226249    0.4601624 -62.36  0.003429089    1.560    0.359
        22 -11.6954     99.5812    246.8722   1.3514550375e+02   1.0700116239e+01    0.6430553    0.4269468  42.33  0.003798238    1.441    0.306
        23 -11.2835     96.7029    239.2464   1.3485873732e+02   1.2570491112e+01     0.441734    0.3064829  88.63  0.001797302    1.467    0.319
        24 -10.3157    101.2294    240.0154   1.3409103043e+02   1.1707746968e+01    0.2028555    0.1478493 -69.61 0.0004236987    1.476    0.323
        25 -10.5062    104.3077    237.8925   1.3326656358e+02   1.1612771859e+01    0.2342305     0.188452  49.52 0.0007185969    1.191    0.161
        26 -10.0103     89.0068    250.5538   1.3744230663e+02   1.1662824221e+01     0.421842    0.1113142  38.84  0.001529462    4.023    0.751
        27 -10.7161     88.3382    247.3682   1.3724915852e+02   1.2346817904e+01    0.4134644    0.2601272  43.43  0.001939584    1.493    0.330
        28 -10.0953     83.7801    242.1985   1.3756532292e+02   1.3999547209e+01    0.1822472    0.1420645 -53.50 0.0008678663    1.723    0.420
        29 -10.1118     81.5319    247.0708   1.3844658447e+02   1.3422255343e+01    0.3468067    0.1964367 -76.80  0.001993337    1.851    0.460
        30  -9.3107     79.4185    243.4264   1.3847900042e+02   1.4416363041e+01    0.2198183    0.1176598  69.08  0.001164552    1.874    0.466
        31  -8.7683     74.7498    250.5597   1.3997040257e+02   1.3768938798e+01    0.2219617    0.1017192  40.57  0.001151609    2.098    0.523
        32  -9.7059     68.6715    247.2333   1.4074253145e+02   1.5250826639e+01    0.2149993   0.08349212  39.72 0.0008750384    2.530    0.605
        33  -9.6445     63.3030    249.6270   1.4187882536e+02   1.5553064507e+01    0.1878805    0.1649994 -64.87  0.001095847    1.594    0.373
        34 -11.1457     59.9206    245.1636   1.4209400429e+02   1.6850151067e+01    0.3778574    0.2717882  86.99 0.0005682254    1.199    0.166
        35 -10.7543     67.1362    244.1370   1.4074166177e+02   1.6048541323e+01     0.403629    0.2291304  32.32  0.002171302    2.414    0.586
        36 -11.8716     51.0756    238.3782   1.4307969367e+02   1.9325021858e+01    0.9940454    0.4848683  89.94  0.004076192    2.107    0.525
        37 -14.8971     20.0895    153.6949   1.4121524095e+02   4.1071720498e+01     2.874088     2.230829 -82.83   0.01945902    1.024    0.024
        38  -9.9472     83.6487    238.3060   1.3719810377e+02   1.4761146553e+01    0.3232154    0.1256929  44.96  0.001521539    2.168    0.539
        39 -12.1578    246.7967    241.2081   1.0670024492e+02  -1.2839714601e+01    0.4555868    0.2955468  38.84   0.00281248    1.522    0.343
        40 -10.5638    165.5225    235.2531   1.2098650409e+02   1.5374966395e+00     0.246044    0.2314301  16.36  0.001179972    1.171    0.146
        41 -10.0072    161.7979    232.5981   1.2131825463e+02   2.6550694541e+00    0.2226174    0.1390777  63.13 0.0006781353    1.984    0.496
        42  -9.0842    156.3069    236.6888   1.2300637357e+02   2.9299716313e+00    0.1302227   0.09395178  68.27 0.0003288327    1.618    0.382
        43  -9.7389     55.6420    235.6236   1.4204474807e+02   1.9260015897e+01    0.3038492    0.1445398  77.29  0.001124135    2.348    0.574
        44 -11.1648     98.4671    231.6380   1.3366632405e+02   1.3752149443e+01    0.3776191    0.2733415 -81.39  0.000630682    1.403    0.287
        45 -11.2273    112.7312    230.1037   1.3069581975e+02   1.1712568480e+01     0.410239    0.3496608 -19.78  0.001942401    1.826    0.452
        46 -11.4717    106.0737    229.2299   1.3189708864e+02   1.2987889445e+01    0.5678632    0.2857046  45.32  0.001467404    1.726    0.421
        47  -9.6601     77.9352    233.2082   1.3774503298e+02   1.6604135913e+01    0.2200236    0.1512705 -84.25 0.0009917105    1.385    0.278
        48 -11.2527    156.5184    231.8082   1.2224475317e+02   3.7388012338e+00    0.2501585    0.2265534  26.09 0.0007631268    1.187    0.158
        49  -8.9725     62.7069    233.3479   1.4057095704e+02   1.8750280269e+01     0.147387    0.1016231  44.16 0.0003302711    1.493    0.330
        50  -8.9164     92.2231    232.5852   1.3497474588e+02   1.4554616595e+01    0.1585993    0.1111035  40.04 0.0002687132    1.500    0.334
        51 -11.2251    141.8821    229.4685   1.2481647592e+02   6.7769349557e+00    0.4279713    0.2486086 -48.85  0.001706271    2.005    0.501
        52 -10.7771    164.9132    241.9032   1.2209241936e+02   5.4150785668e-01    0.3245058    0.2215604  55.15  0.001772236    1.440    0.306
        53 -10.6409     84.7446    229.5778   1.3607661240e+02   1.6301292585e+01    0.2878813    0.2158048  41.17 0.0007053413    1.448    0.309
        54 -10.8230     77.6028    221.0368   1.3653052884e+02   1.9103644688e+01    0.3167565    0.1863991  63.23  0.001245467    1.563    0.360
        55 -10.8864     80.4564    227.4236   1.3666678475e+02   1.7379290209e+01    0.3018375    0.2639664 -28.31 0.0008317765    1.867    0.464
        56 -10.1161     78.7011    224.6933   1.3671252477e+02   1.8192819267e+01    0.2267869     0.200926 -58.49 0.0005640195    1.476    0.323
        57  -9.3547    179.5790    228.2721   1.1712373628e+02   1.9153721596e-01    0.2685327    0.1805305  77.97 0.0009219916    2.724    0.633
        58 -10.5769    165.7598    226.8542   1.1964290852e+02   2.9377509719e+00    0.4271936    0.2554836 -67.79  0.001946476    2.636    0.621
        59 -11.2707    160.4781    223.6714   1.2020231406e+02   4.4674885027e+00    0.4780366    0.2584482  39.66 0.0006024911    1.668    0.401
        60  -9.1579    164.5175    220.4901   1.1887531931e+02   4.2978917987e+00    0.2264844    0.1273996 -35.19 0.0007328838    2.342    0.573
        61  -9.0371    190.8383    228.1388   1.1489093612e+02  -1.8029380128e+00     0.174682    0.1420306  14.78 0.0002664459    1.265    0.209
        62  -9.8030    197.4725    226.6737   1.1335259197e+02  -2.7439823443e+00    0.2667202    0.2093414  81.63   0.00144995    2.013    0.503
        63 -11.6769     99.2270    223.5875   1.3256107049e+02   1.5224633604e+01     0.493998     0.355243  54.96  0.001071382    1.196    0.164
        64 -10.8136    132.2133    224.7752   1.2609009047e+02   9.3745265864e+00    0.2539908    0.2414149 -18.38  0.001238565    1.348    0.258
        65 -10.1818    129.5652    221.2797   1.2613008949e+02   1.0518456901e+01    0.2984618    0.1993145  80.96  0.001486621    1.910    0.477
        66 -10.2362    147.9812    224.2911   1.2282657618e+02   6.6349228237e+00    0.4287005    0.2859266   1.59  0.001651386    3.289    0.696
        67 -10.8935    117.3904    224.3404   1.2902161364e+02   1.2044311642e+01    0.2447117    0.2076055  65.97 0.0002322007    1.022    0.021
        68 -11.5898    141.9799    221.7825   1.2366927473e+02   8.1937117304e+00    0.3955505     0.321603  43.84 0.0003731434    1.129    0.114
        69 -11.3384    138.0244    214.2573   1.2334228004e+02   1.0370030056e+01    0.5243417    0.3603242  34.10  0.001335244    1.533    0.347
        70 -10.4445    110.4615    221.7426   1.3007577517e+02   1.3737463488e+01    0.3969952     0.227284 -49.82  0.001607548    2.091    0.522
        71 -10.4519    105.1904    219.1862   1.3081034224e+02   1.5136235586e+01    0.4144945    0.2340525  78.92 0.0005039953    2.471    0.595
        72 -10.7388     73.0990    209.8385   1.3617837731e+02   2.2116635053e+01      0.49997    0.3033471  29.27  0.002182433    2.272    0.560
        73 -11.0482     70.7402    220.3547   1.3779225544e+02   2.0245911485e+01    0.4486108    0.2740545 -75.14  0.002425243    1.561    0.359
        74  -9.3451    177.1888    220.3840   1.1629796370e+02   1.9755212937e+00     0.204052    0.1140215  50.31 0.0009515503    1.757    0.431
        75 -10.5652     23.4331    217.7372   1.4635598532e+02   2.6760430798e+01     0.218863   0.09115797 -75.16 0.0006618322    2.024    0.506
        76 -13.8816     27.3390    247.1890   1.4769181749e+02   2.0569603467e+01     1.621786     0.767308  47.47   0.01009203    1.806    0.446
        77 -13.0641     38.1622    244.7643   1.4576276356e+02   1.9734627137e+01     1.241104     0.540661 -76.59  0.007023187    2.108    0.526
        78  -9.2190     93.9549    216.9959   1.3280971240e+02   1.7418875649e+01    0.2196801    0.1351717  73.65 0.0009273847    1.751    0.429
        79 -10.6658     92.6255    226.0210   1.3415287631e+02   1.5790596813e+01    0.3254068    0.1987448  55.71 0.0009915673    1.416    0.294
        80  -9.8306     88.1711    212.9486   1.3348652878e+02   1.9179278332e+01    0.2327971    0.1733299 -81.55 0.0004964941    1.281    0.219
        81 -10.7414     68.0655    214.6674   1.3771407638e+02   2.1814116421e+01    0.2421466    0.1681766 -85.65  0.000560984    1.301    0.231
        82 -10.1353    102.1077    212.0555   1.3050745422e+02   1.7120168699e+01    0.3975548    0.2000839  62.36  0.001721753    2.294    0.564
        83  -8.9307    152.1754    211.9954   1.2003181417e+02   8.1867580591e+00    0.2230568     0.156743  86.01  0.001064407    2.015    0.504
        84  -9.4436     33.7298    211.4000   1.4398993318e+02   2.6915893277e+01    0.1325428    0.1092388  42.99 0.0004908813    1.517    0.341
        85  -9.3967    134.6631    208.3468   1.2312953372e+02   1.2169553512e+01    0.2613992    0.2041403  -2.27    0.0011441    2.027    0.507
        86  -9.3694    119.9895    208.7367   1.2629568187e+02   1.4742411348e+01    0.1956735    0.1609993  54.82 -0.000430966    1.093    0.085
        87 -10.0739    109.0808    207.5722   1.2843310863e+02   1.6887594445e+01    0.3068988    0.1910586 -69.35  0.001006637    1.713    0.416
        88 -12.3751     93.5749    202.7348   1.3105015103e+02   2.0507067181e+01     0.559064     0.453171 -78.72  0.003325187    1.180    0.153
        89 -10.4443    102.6700    202.8117   1.2912258936e+02   1.8991748050e+01    0.4506931    0.2608176  63.87  0.002078636    1.874    0.466
        90 -10.8431     98.7819    196.8262   1.2910844048e+02   2.0947020570e+01    0.5494555    0.2941748  43.93  0.002218664    1.772    0.436
        91 -11.2721    247.3216    205.8130   1.0020287358e+02  -8.0364859831e+00    0.4644687    0.2317244  26.06  0.002123591    2.335    0.572
        92 -10.2710    175.1790    205.3931   1.1411026658e+02   5.0633836354e+00    0.3189223    0.2585486 -19.27  0.001520793    1.470    0.320
        93  -9.5863    178.2971    204.7056   1.1334188461e+02   4.5920983339e+00     0.258889    0.1831969  52.54 0.0002420079    1.420    0.296
        94  -9.9294    125.7957    205.2560   1.2453521775e+02   1.4425451600e+01    0.2788424     0.188662 -73.38 0.0009357275    1.690    0.408
        95  -9.0785    149.3359    204.8306   1.1944187003e+02   1.0129596714e+01    0.2938048    0.1784998 -24.72  0.001160148    3.062    0.673
        96  -9.4633    166.9925    203.2525   1.1543555256e+02   7.0478543889e+00    0.1958152     0.165373  46.70            0    1.089    0.082
        97  -9.2450    132.9653    202.7660   1.2260434688e+02   1.3628708867e+01    0.1956558    0.1733828  66.15 0.0004420667    1.033    0.032
        98 -10.8564     32.8291    201.9607   1.4334922534e+02   2.9020727983e+01    0.1890068    0.1633048 -89.40 0.0002966951    1.233    0.189
        99  -9.5475    137.9928    201.6750   1.2134391855e+02   1.2916143212e+01    0.1987182    0.1656116  51.58 0.0003729815    1.095    0.087
       100  -9.8696     64.1031    202.1329   1.3713686881e+02   2.5060469983e+01    0.2408252    0.1710959  37.39 0.0005161814    1.624    0.384
       101 -10.0811    197.2046    200.9195   1.0878443746e+02   1.6587796043e+00    0.2578371    0.1923354  39.11  0.001227763    1.249    0.199
       102 -10.4707    115.1112    200.2855   1.2607318516e+02   1.7390787842e+01    0.2430634    0.2137047  74.38 0.0002561882    1.025    0.025
       103 -10.2387    119.9341    199.1860   1.2485636848e+02   1.6766631047e+01    0.3764808     0.223666  61.91  0.001400079    1.842    0.457
       104  -9.2750    169.6659    200.1384   1.1431425304e+02   7.1292180294e+00    0.1849327    0.1810697   0.42 0.0003912097    1.093    0.085
       105 -10.8415     54.0638    198.2210   1.3876210994e+02   2.7263061269e+01    0.6186308    0.1926429  44.20  0.002609769    2.881    0.653
       106 -10.3154     56.3630    194.2008   1.3784457085e+02   2.7853139840e+01    0.3016483     0.250855  88.77  0.001198813    1.062    0.059
       107  -9.9311     44.2075    199.1931   1.4085585309e+02   2.8286941660e+01    0.2816211    0.1935696  48.70  0.001259173    1.451    0.311
       108 -10.8713    249.3237    194.3405   9.7626576072e+01  -6.6190882359e+00    0.3143053    0.2606635  20.57  0.001949128    1.154    0.134
       109  -8.3818     86.2584    199.2945   1.3214892471e+02   2.2422161227e+01    0.1941556    0.1491102 -66.31 0.0002192307    1.303    0.233
       110  -9.5672     85.9783    195.7592   1.3173686537e+02   2.3248260696e+01    0.2059357    0.1742847  82.05 0.0003161319    1.019    0.019
       111  -9.6728    134.0970    197.8676   1.2155765400e+02   1.4441655535e+01    0.2173489    0.1782971  74.52 0.0003261023    1.242    0.195
       112 -11.5939     66.3398    195.0416   1.3584649736e+02   2.6315308767e+01    0.4494194    0.2684159 -52.40  0.001441124    1.915    0.478
       113 -11.9381     71.9077    187.4924   1.3370018756e+02   2.7224071823e+01    0.3647812    0.3465943 -36.67 0.0007595569    1.424    0.298
       114 -10.8578     76.4775    186.4277   1.3255117312e+02   2.6797806775e+01    0.4081278    0.2089234 -75.56  0.001834087    2.092    0.522
       115 -10.3620    113.0472    193.7670   1.2551849837e+02   1.9171535498e+01     0.502147    0.2662055 -64.53   0.00117241    2.042    0.510
       116  -9.2785     31.0893    194.8734   1.4305133198e+02   3.0747059056e+01    0.2472351   0.08972271  53.17  0.001133293    2.678    0.627
       117  -9.6270    159.3243    193.8870   1.1537997720e+02   1.0395725729e+01     0.311305    0.1971126  57.63  0.001416709    1.712    0.416
       118  -9.2499    133.4528    194.2583   1.2109326687e+02   1.5327421963e+01    0.2450353     0.167611  33.94 0.0006326821    1.590    0.371
       119 -10.3807    120.7059    191.7043   1.2348920115e+02   1.8246924823e+01    0.5274981    0.3914719 -32.53  0.002014687    1.856    0.461
       120  -9.9852    118.0142    190.0139   1.2381264591e+02   1.9107787899e+01    0.2122495    0.1891643  74.34  0.001208156    1.022    0.021
       121  -8.6873     82.2384    194.3473   1.3235612689e+02   2.4141624475e+01     0.185947    0.1296712  41.98 0.0002005399    1.486    0.327
       122  -8.7484     84.6902    192.3205   1.3154898785e+02   2.4217239934e+01    0.1391795    0.1239644  85.39 0.0004310546    1.080    0.074
       123 -10.4652     38.7586    192.3261   1.4127192280e+02   3.0440464510e+01    0.2455882    0.1738541 -59.34 0.0001814374    1.531    0.347
       124  -9.0709     41.6631    188.0405   1.4023714448e+02   3.1053402278e+01     0.303715     0.166235  83.78  0.001566972    1.864    0.464
       125  -9.9074     20.3665    192.1926   1.4491769121e+02   3.2458535419e+01    0.3207381    0.1450736  89.00  0.001610361    2.151    0.535
       126  -9.0735     26.0784    192.8074   1.4385321805e+02   3.1736417391e+01    0.1667845    0.1246779 -87.96 0.0008702578    1.054    0.051
       127 -10.1984    191.3600    191.4790   1.0815929600e+02   4.5166741934e+00    0.2605999    0.2463822  12.60 0.0006453953    1.039    0.038
       128  -9.4096    172.9450    192.2411   1.1215624174e+02   8.0233940144e+00    0.2323295    0.1650089  14.66 0.0007690664    1.911    0.477
       129  -9.3309    158.3439    241.7652   1.2334194516e+02   1.7136336369e+00    0.1600598    0.1204764 -37.35 0.0004288837    1.658    0.397
       130  -9.2749    135.3039    190.0957   1.1996855432e+02   1.5867103190e+01    0.1956109    0.1782671 -83.27 0.0003984818    1.103    0.094
       131  -9.8245     32.4472    189.5718   1.4228256585e+02   3.1760033893e+01    0.3220996    0.2273948  30.42  0.002014002    1.863    0.463
       132 -11.0155    249.7593    187.6889   9.6232326885e+01  -5.6493725163e+00    0.3775722    0.2458299 -22.60   0.00201145    1.519    0.341
       133  -9.7319     72.9286    193.0592   1.3419676714e+02   2.5819724455e+01    0.1961143    0.1662754  83.40            0    1.025    0.024
       134 -10.1898    140.0438    183.2698   1.1768550962e+02   1.6425291196e+01    0.5066097    0.2651312  61.99  0.001532809    2.656    0.623
       135 -11.1738     24.6926    184.0079   1.4332943160e+02   3.3810128032e+01     0.336564    0.1971479  83.91  0.001960615    1.526    0.345
       136  -9.1300     36.8632    184.1253   1.4082948971e+02   3.2480329617e+01    0.2328226     0.143263  45.84 0.0007020625    1.659    0.397
       137 -10.1907     30.2825    183.1631   1.4210122884e+02   3.3415128223e+01    0.2392059     0.137527  87.34 0.0006953423    1.587    0.370
       138 -11.0482    172.9114    240.1567   1.2028794147e+02  -5.7557088876e-01    0.3172788    0.2394439  79.33  0.001346027    1.884    0.469
       139 -10.7140    236.4321    145.8748   8.9788472800e+01   3.9533994012e+00    0.3834645     0.209664  42.50 0.0009520304    1.975    0.494
       140 -12.5716    247.9489    172.1053   9.3379793948e+01  -2.7982714469e+00    0.7570854    0.5369171 -31.43  0.004142481    1.301    0.231
       141 -10.5116    193.8890    245.1841   1.1704999318e+02  -4.9649444077e+00    0.2309724    0.1766753 -34.54  0.000947185    1.520    0.342
       142 -11.6732    248.2328    142.0470   8.6939559692e+01   2.3169648560e+00    0.6464584    0.4634388 -19.60  0.003321345    1.531    0.347
       143 -12.9512    248.3415    134.2659   8.5221137803e+01   3.6653008542e+00       1.5152    0.6316424 -38.53  0.006097674    2.172    0.540
       144  -9.2283     48.0653    179.7369   1.3795270189e+02   3.2163285441e+01    0.1654707    0.1415986  65.76 0.0004731601    1.186    0.157
       145 -12.9400    248.1045    101.3276   7.7939649334e+01   9.4892406024e+00     1.070175    0.5841719 -39.22  0.004938842    1.663    0.399
       146 -10.0396    143.2963    181.3700   1.1659996905e+02   1.6196898100e+01    0.3930035    0.2408994 -48.76  0.001668975    1.710    0.415
       147 -10.1971    108.9610    178.2142   1.2390835265e+02   2.3385452582e+01    0.3146579    0.2273514  64.82  0.001119373    1.415    0.293
       148  -8.2764    207.3033    178.7185   1.0235869256e+02   3.7393539337e+00    0.1357968    0.1157778  86.98 0.0002858432    1.553    0.356
       149 -11.2251     80.9437    175.6343   1.2999801204e+02   2.8612419502e+01     0.398308    0.2657341  72.81 0.0003930539    1.615    0.381
       150  -9.7890     77.4666    175.5280   1.3078593795e+02   2.9161433783e+01    0.2060426     0.174485 -86.57 0.0005670689    1.036    0.035
       151  -9.5793    115.0024    176.9440   1.2228645811e+02   2.2589128922e+01    0.2409594    0.1676877  81.25 0.0009844442    1.737    0.424
       152 -11.7027     68.3644    173.4556   1.3258669619e+02   3.0960643193e+01    0.5407924    0.2753856 -52.42  0.001208999    2.025    0.506
       153 -10.6707     68.8523    166.7654   1.3150318760e+02   3.2459040193e+01     0.256482    0.2030431 -59.00 0.0003345551    1.260    0.206
       154  -9.4510    107.5232    173.0757   1.2336202609e+02   2.4822173949e+01      0.20581    0.1377793 -62.99  0.000503292    1.476    0.323
       155  -9.6380     95.4909    172.9060   1.2616900463e+02   2.6928704837e+01    0.2476284    0.1802279  66.27 0.0007069971    1.401    0.286
       156  -9.2900     90.8892    172.8273   1.2723940713e+02   2.7702748143e+01    0.2708082    0.1802835 -48.33 0.0006581381    1.648    0.393
       157  -9.9715     89.6224    160.6950   1.2551082615e+02   3.0762770794e+01       0.2608     0.186714 -80.56  0.001310124    1.447    0.309
       158  -9.6864     93.3902    169.2526   1.2605976943e+02   2.8130295920e+01    0.2277265    0.2034638 -13.03  0.001269296    1.515    0.340
       159 -12.6160     87.4883    166.7038   1.2704751060e+02   2.9685020259e+01    0.9178342    0.5977032 -49.64  0.004544348    1.618    0.382
       160  -8.9775    167.1989    170.0574   1.0900250087e+02   1.3732173247e+01    0.2055051    0.1198471 -45.67 0.0008624935    1.769    0.435
       161  -9.1582    100.5371    170.4985   1.2456985824e+02   2.6637976698e+01    0.1441693    0.1310043  88.61 -2.968757e-05    1.013    0.013
       162 -10.7381     43.5767    169.1230   1.3767749545e+02   3.5131024651e+01    0.3971066    0.3032654 -77.99  0.001752274    1.091    0.083
       163 -10.1801     47.4960    168.5094   1.3671162614e+02   3.4814354201e+01    0.2810446    0.2045413  67.10  0.001673253    1.336    0.251
       164  -9.3375    126.3688    167.6506   1.1790805323e+02   2.2577766377e+01    0.2318967    0.1710407  81.34  0.001079689    1.624    0.384
       165  -9.1911    107.3155    168.1360   1.2253894634e+02   2.6005557755e+01    0.1995863    0.1745685 -81.21 0.0003613473    1.083    0.077
       166  -9.2048     58.4917    167.5160   1.3404462683e+02   3.3680017771e+01    0.1340685       0.1123 -86.80 -2.224156e-05    1.010    0.010
       167  -9.3587     53.9430    164.7403   1.3472573156e+02   3.4907639264e+01    0.1775781     0.149214 -87.86 0.0003689493    1.022    0.022
       168 -11.1405     28.9790    170.9870   1.4112665862e+02   3.6288834767e+01    0.4008756    0.2865337 -79.83  0.001765908    1.120    0.107
       169 -12.3129     13.5352    185.8637   1.4572240128e+02   3.4493973666e+01    0.6388718    0.2479066  33.13 0.0008069352    2.966    0.663
       170 -10.5824    249.6979    117.9410   8.1403014108e+01   6.2679505714e+00    0.5138351    0.2909212 -28.61  0.001626804    1.947    0.486
       171 -14.9638      6.9175    212.1487   1.4886653701e+02   2.9594478501e+01      3.67201     1.341098 -76.27   0.01959551    2.182    0.542
       172  -8.7334    154.5095    161.5569   1.1008333129e+02   1.8238284997e+01    0.1545933    0.1449805  75.28  0.000118662    1.061    0.058
       173 -10.9947     95.9930    157.1042   1.2329691053e+02   3.0563013638e+01    0.5305609      0.20375 -59.81  0.001921934    2.608    0.616
       174 -11.0420    100.2757    151.1327   1.2109658299e+02   3.1247288174e+01    0.5018223    0.4401585  24.04  0.002439623    1.360    0.265
       175 -10.1134    103.2299    145.9513   1.1931602899e+02   3.1957270248e+01    0.3360425    0.2567188 -35.59 0.0009284814    1.535    0.349
       176 -10.9903     73.7900    158.1280   1.2896745835e+02   3.3798155359e+01    0.4502116    0.3011851 -69.36  0.002114602    1.376    0.273
       177  -9.4793     79.0800    158.8301   1.2778255935e+02   3.2850463108e+01     0.211448    0.1721553  82.92 0.0004772777    1.198    0.165
       178  -9.0905     52.4734    158.4548   1.3419964762e+02   3.6563108255e+01    0.1318675    0.1115046 -78.27  0.000211224    1.036    0.034
       179  -9.2945    228.4065    155.3225   9.3305037562e+01   3.8405489758e+00    0.2582344    0.1333736 -35.91 0.0005272278    1.887    0.470
       180  -9.5057    134.4679    155.5273   1.1352951599e+02   2.3749024246e+01    0.1516517    0.1468247  85.12 -4.284503e-05    1.028    0.027
       181  -9.7378     52.9932    146.2861   1.3226224368e+02   3.9369940839e+01    0.1976712     0.166083 -55.05 0.0001755298    1.209    0.173
       182 -10.2036     60.2693    150.9949   1.3117363434e+02   3.7345819252e+01    0.5090209    0.2665606  87.67  0.001989742    3.018    0.669
       183 -10.8640     56.0322    150.1715   1.3210271508e+02   3.8078646381e+01    0.3226069    0.2752076  89.88   0.00129871    1.082    0.076
       184 -10.5001    113.9227    150.8233   1.1760191383e+02   2.8857239987e+01    0.3741679    0.2473377 -57.28 0.0007037427    1.480    0.324
       185  -8.6551     90.6431    150.3021   1.2337862622e+02   3.3067228791e+01    0.1518154    0.1060534  75.61 0.0007038334    1.713    0.416
       186 -12.7123     14.0522    238.9384   1.4932140019e+02   2.3600216149e+01     0.453635    0.3055561  52.50  0.001912447    1.420    0.296
       187 -13.0213     67.4485    144.1932   1.2822147400e+02   3.8007487417e+01    0.7902249    0.5578052  85.54  0.004104863    1.592    0.372
       188 -11.1554     60.8311    137.3271   1.2875008352e+02   4.0515801838e+01     0.288074    0.2332324  50.60 0.0004428813    1.343    0.255
       189  -9.8407    138.8334    138.7849   1.0877094324e+02   2.6667791844e+01    0.2529191     0.214001  33.20 0.0005254915    1.279    0.218
       190 -13.9922      6.0101    245.9266   1.5096158545e+02   2.3138005167e+01     1.008013    0.5355937  68.95  0.007001561    1.384    0.277
       191 -12.7906     41.1096    228.5531   1.4404680889e+02   2.2521847885e+01    0.3354375    0.2930171 -73.54 0.0007856701    1.468    0.319
       192  -8.7966     93.1657    145.3515   1.2178359414e+02   3.3830105023e+01    0.2028262    0.1271098  51.69 0.0006933941    1.696    0.411
       193 -12.1838     73.4878    139.6727   1.2583300076e+02   3.8236929857e+01    0.7333675    0.5147436  81.77   0.00298028    1.710    0.415
       194  -9.7679    158.9867    145.0787   1.0541066624e+02   2.0901492054e+01    0.2247436    0.2189567  82.45            0    1.006    0.006
       195 -14.6268     47.2154    219.2000   1.4215143640e+02   2.3661194661e+01     1.711802     1.458923  42.82    0.0120279    1.503    0.335
       196  -9.7836    122.8971    250.1238   1.3118637633e+02   6.3498161359e+00    0.2685171    0.1781568  53.40  0.001596109    1.235    0.190
       197  -9.6962     41.7412    140.4230   1.3422015870e+02   4.2030225374e+01     0.148992     0.128482   3.01 0.0006479268    1.557    0.358
       198 -11.3846     47.1620    138.4882   1.3252583826e+02   4.1888640842e+01    0.4084908    0.2138449  24.58  0.001949685    2.532    0.605
       199 -12.0137     45.3890    131.5181   1.3185826953e+02   4.3720297624e+01    0.5739566    0.3563611 -88.79  0.002253907    1.887    0.470
       200 -10.6777    115.7855    239.7818   1.3129600935e+02   9.3782848156e+00    0.2308828    0.1934419  57.16 0.0006881668    1.068    0.064
       201 -10.4365    111.2966    136.1864   1.1515936844e+02   3.2786633070e+01    0.4006547    0.3165807  19.80  0.001217504    1.589    0.371
       202 -11.2104     90.0171    237.6042   1.3593755082e+02   1.3925595098e+01    0.3596919    0.2519584  81.30  0.002197778    1.354    0.262
       203 -10.8716    133.4253    141.3649   1.1069503140e+02   2.7210093003e+01    0.9541599    0.3118673 -52.30  0.002908391    3.239    0.691
       204  -9.5077     65.9414    181.9780   1.3429475116e+02   2.9326807580e+01    0.1953398    0.1666743  89.53 0.0003221836    1.034    0.033
       205 -11.8968     67.7234    128.1879   1.2519208038e+02   4.1764335066e+01    0.4420157    0.4024948  69.41 0.0004210428    1.171    0.146
       206  -9.9438    117.1271    128.7463   1.1194059745e+02   3.3399985463e+01    0.2973562    0.1985826 -25.29  0.001229333    2.125    0.529
       207  -9.4514    122.8821    128.1548   1.1030206598e+02   3.2394438135e+01    0.2255023    0.2019088 -88.08  0.000263268    1.176    0.149
       208 -11.9837     31.3662    127.2024   1.3490638423e+02   4.6139792640e+01    0.5512772     0.187797  39.14  0.002394401    3.217    0.689
       209 -13.5752     20.8571    121.9182   1.3691488409e+02   4.8256804052e+01    0.7241629     0.521661 -24.71  0.004310908    1.795    0.443
       210 -11.7677     36.9916    125.1333   1.3306211059e+02   4.6078817301e+01    0.3724333    0.2235995  77.67  0.001833797    2.262    0.558
       211  -9.3442     86.0874    126.1356   1.1970845913e+02   3.9533104846e+01     0.312264    0.2050638  -2.99  0.001250398    2.917    0.657
       212  -9.8685    174.7316    179.8454   1.0935526922e+02   1.0140048333e+01    0.3828079    0.1674891  47.84  0.001434785    2.255    0.557
       213 -10.2218     58.8314    125.0084   1.2703260018e+02   4.3671439411e+01    0.3412688    0.1807996  21.39  0.001393285    2.667    0.625
       214 -10.6060     54.7452    120.8275   1.2737270256e+02   4.5145293509e+01    0.2581341    0.2055591  25.93  0.001146519    1.493    0.330
       215 -10.5357    209.8005    125.8080   9.0054216573e+01   1.3409183856e+01    0.3123692    0.2569654 -34.25 0.0005073766    1.213    0.175
       216 -11.5773      7.4808    120.4912   1.4025818487e+02   4.9558508896e+01    0.2385947    0.1730703  -7.06  0.001570076    1.938    0.484
       217  -9.9050     38.4435    121.5178   1.3205607576e+02   4.6769137007e+01    0.1979087    0.1295426 -45.97 5.782098e-05    1.475    0.322
       218  -9.6278     86.2743    116.3775   1.1746684374e+02   4.1770286780e+01    0.2982646    0.1907623 -60.30 0.0009486806    1.545    0.353
       219 -12.4916    248.3285    112.7986   8.0468855662e+01   7.4487083294e+00     1.449541    0.9295971  -3.18  0.005737879    3.147    0.682
       220 -11.9254     15.6215    114.6141   1.3724499409e+02   5.0303044525e+01     0.294503    0.1911566 -59.00 0.0009448546    1.220    0.181
       221 -10.9257    168.0528    113.2145   9.5548380462e+01   2.5675282170e+01    0.3649912    0.3008834 -84.26 0.0008034862    1.412    0.292
       222 -10.2802     50.0764    112.9503   1.2716329279e+02   4.7503348929e+01    0.1977639    0.1712087 -59.49 0.0004705946    1.014    0.014
       223  -9.4200    131.6516    180.7159   1.1912211008e+02   1.8615645849e+01    0.1424464     0.118977   2.58 0.0002210458    1.651    0.394
       224  -9.5788    203.7561    111.4395   8.7727239862e+01   1.7579053436e+01    0.2134561    0.1437191  41.64 0.0009437886    1.635    0.388
       225  -8.8527     83.7992    111.1515   1.1694611578e+02   4.3358437462e+01    0.1893762    0.1592929 -26.08 0.0003197468    1.295    0.228
       226 -11.5349     57.2975    110.2889   1.2450082253e+02   4.7262597870e+01    0.4285168     0.242922  18.63  0.002006646    2.428    0.588
       227 -10.9621     31.3678    110.8326   1.3218497081e+02   4.9875826175e+01    0.2522663    0.1750314  35.86 0.0006224135    1.713    0.416
       228 -10.9886     27.1720    106.3743   1.3260648815e+02   5.1240201980e+01    0.2632946    0.1929488  48.41  0.001643149    1.661    0.398
       229 -11.4331     19.2810    104.1339   1.3452256156e+02   5.2363207663e+01    0.3291617    0.1912099 -42.50  0.001898701    1.643    0.391
       230  -8.3850     77.7137    103.3072   1.1683000568e+02   4.6058732430e+01    0.1347746    0.1086034  89.24 0.0002607052    1.569    0.363
       231  -8.9763     33.2066    100.0077   1.2959983013e+02   5.2127332967e+01    0.1695699   0.08392329 -60.09 0.0003349021    1.659    0.397
       232  -8.9220     85.9856     97.0099   1.1275442157e+02   4.6144834749e+01    0.1622822    0.1546135 -31.30 0.0009481099    1.034    0.033
       233  -9.3868     72.0857     90.1694   1.1518813903e+02   4.9741050191e+01     0.197355     0.166542 -25.36 0.0002568115    1.172    0.147
       234  -9.8240     30.9887     90.3014   1.2828763133e+02   5.4437779348e+01    0.1645771    0.1434269 -44.86 0.0004119487    1.081    0.075
       235  -9.7171     24.1174     87.9861   1.2999280959e+02   5.5500954139e+01    0.1841306    0.1463146 -50.61 0.0004410697    1.015    0.015
       236 -11.0845    249.5745    150.9418   8.8637843705e+01   5.0997811036e-01    0.5495616    0.3235652 -40.98   0.00266813    1.561    0.359
       237  -9.7592    199.7653    245.7593   1.1603454446e+02  -6.0345350062e+00    0.1575046    0.1374674  52.23 0.0004962618    1.317    0.241
       238 -10.5552    222.5843    244.8857   1.1166602668e+02  -9.6239013745e+00     0.220903    0.1420417  26.95  0.000904644    1.357    0.263
