#   1 NUMBER                 Running object number                                     
#   2 MAG_AUTO               Kron-like elliptical aperture magnitude                    [mag]
#   3 X_IMAGE                Object position along x                                    [pixel]
#   4 Y_IMAGE                Object position along y                                    [pixel]
#   5 X_WORLD                Barycenter position along world x axis                     [deg]
#   6 Y_WORLD                Barycenter position along world y axis                     [deg]
#   7 A_WORLD                Profile RMS along major axis (world units)                 [deg]
#   8 B_WORLD                Profile RMS along minor axis (world units)                 [deg]
#   9 THETA_WORLD            Position angle (CCW/world-x)                               [deg]
#  10 FWHM_WORLD             FWHM assuming a gaussian core                              [deg]
#  11 ELONGATION             A_IMAGE/B_IMAGE                                           
#  12 ELLIPTICITY            1 - B_IMAGE/A_IMAGE                                       
         1  -9.9761     13.0000     47.5286   1.0852443353e+02   6.5254489178e+01    0.5441027   0.05364196 -60.52  0.001350592    8.036    0.876
         2 -11.1989    211.5594     22.9688   4.5775356796e+01   2.9161174537e+01    0.7098885    0.4554847  43.46  0.002329823    1.871    0.466
         3 -11.9245    203.1978     31.0865   4.8986446342e+01   3.0292243608e+01    0.8626419    0.8503838  54.05  0.005184574    1.137    0.121
         4 -11.7823    219.5624     13.9928   4.2601781757e+01   2.8199070685e+01    0.7561768    0.6293574 -60.31  0.002816699    1.094    0.086
         5 -10.5410      6.9074     14.9036   1.0027029842e+02   7.1793451228e+01    0.2187728    0.1486095 -29.62  0.001545871    1.125    0.111
         6  -9.2262     67.0499    238.5057   1.2137044774e+02   1.8016659216e+01    0.1826465    0.1157654  65.03 0.0006446515    1.248    0.199
         7 -11.2635     98.5379    248.1567   1.1669650827e+02   1.1979852950e+01    0.8938755    0.3324082  60.17  0.003710687    3.433    0.709
         8  -9.8560     88.7975    248.9535   1.1845620811e+02   1.3252506516e+01    0.2523494    0.1724055  86.62  0.001731462    1.498    0.332
         9  -8.8592     83.1561    250.1557   1.1952311968e+02   1.3847726509e+01    0.1606911    0.1015106  66.74 0.0006903969    1.343    0.255
        10  -9.0382     53.0013    250.5444   1.2458099892e+02   1.7754982278e+01    0.1568515    0.0817949  46.48 0.0004350072    1.546    0.353
        11 -12.7116     31.0236    218.6451   1.2627206992e+02   2.6076346198e+01     1.282516    0.5726396 -84.51  0.006790281    2.039    0.510
        12 -11.5594     39.3331    210.3219   1.2420729068e+02   2.6746037985e+01    0.5067142      0.36053 -67.79  0.001463711    1.551    0.355
        13 -13.6071     48.7601    199.9121   1.2158435548e+02   2.7716223886e+01     2.171646     1.208498  74.61   0.01238793    1.679    0.404
        14  -8.8905     59.5454    229.2177   1.2197030446e+02   2.0665328306e+01    0.1957322   0.09837913 -80.25  0.001125069    2.008    0.502
        15 -10.1399    103.2697    228.5359   1.1390190691e+02   1.4589142826e+01    0.4042054    0.1576721  49.16  0.001918921    2.111    0.526
        16 -11.1140     96.3261    225.9424   1.1493210415e+02   1.6107617957e+01     0.563311    0.2117834  43.20  0.002268802    2.195    0.545
        17  -9.4485    164.1952    224.3146   1.0179296038e+02   5.2602150545e+00    0.1682025    0.1515018  24.09 0.0007862485    1.153    0.133
        18  -8.4912    127.5084    224.5005   1.0883468011e+02   1.1431827425e+01    0.1271355    0.1027086  55.45 -0.0001440472    1.035    0.034
        19 -14.5240      2.4849    180.8979   1.2919733929e+02   3.6434355475e+01     14.62275    0.5318006 -76.44   0.03214455   12.729    0.921
        20  -9.7390     83.4053    222.1611   1.1698260871e+02   1.8707088054e+01    0.3212408    0.1577541 -88.29  0.001513383    2.807    0.644
        21 -11.4025    114.4862    229.5622   1.1190982467e+02   1.2662894699e+01    0.5586488     0.281453  56.86  0.002877521    1.891    0.471
        22 -13.6160      8.6164    207.4752   1.2955310285e+02   3.0534778843e+01     2.771893     1.153757 -59.43   0.01520679    2.934    0.659
        23 -11.0426    118.4714    240.7523   1.1240884781e+02   1.0169372404e+01    0.4478376    0.2489135  57.74  0.002543188    1.654    0.396
        24  -8.6496    193.9606    194.2401   9.1100708707e+01   4.7054705822e+00    0.1887034    0.1033391  42.43 0.0004612961    1.652    0.395
        25  -9.4752     53.5534    230.8320   1.2314836190e+02   2.1133406896e+01    0.1812931    0.1428873  84.82 0.0007688981    1.194    0.162
        26  -7.9933     97.5076    191.4572   1.1064416394e+02   2.2611319698e+01     0.131237    0.1141865  68.96 0.0008087885    1.037    0.036
        27  -9.5337     79.4097    243.2812   1.1960457744e+02   1.5514845387e+01    0.2343062    0.1300882  32.81  0.001317585    2.238    0.553
        28 -10.2617     65.1703    182.0108   1.1642165909e+02   2.9394885952e+01    0.3999859    0.2594047 -42.38  0.002101962    2.295    0.564
        29 -10.0609     70.1879    176.4094   1.1465795705e+02   2.9935348219e+01    0.2573673    0.2301913 -58.57 0.0007009421    1.350    0.259
        30  -8.4907    101.4114    171.1813   1.0685531999e+02   2.6308880541e+01    0.2001688    0.1259187 -75.13  0.000958454    1.757    0.431
        31  -9.6820     79.4049    166.3295   1.1121998984e+02   3.0866216624e+01    0.2405434    0.2176946 -82.92 0.0005206123    1.121    0.108
        32 -11.5339     66.7852    162.7072   1.1366774702e+02   3.3484089157e+01     0.437207    0.2818603 -46.48  0.001244251    1.909    0.476
        33 -11.2157     85.2893    159.8088   1.0885671842e+02   3.1460398391e+01    0.5948099    0.5109729 -27.55   0.00150497    1.587    0.370
        34 -10.6204     77.8984    158.7720   1.1047044875e+02   3.2813282687e+01    0.4549783      0.25471 -77.69  0.002110937    1.940    0.484
        35  -9.9152     22.1550    156.3619   1.2325696682e+02   4.0018338736e+01    0.2320903    0.1250066 -58.98  0.001305112    1.808    0.447
        36 -11.5672     68.5385    144.1308   1.1052408466e+02   3.7564095287e+01    0.7258556      0.44871  77.70  0.003112388    1.944    0.486
        37  -9.7227    142.2907    242.4231   1.0826925819e+02   6.1267305957e+00    0.2406921   0.09671924  39.09    0.0011385    2.120    0.528
        38  -9.2460     33.0000    144.5167   1.1947120019e+02   4.1682131197e+01    0.4175761   0.05948517 -69.64   0.00114783    5.850    0.829
        39  -9.0628    102.2286    140.7812   1.0130458187e+02   3.3075879616e+01    0.3555152    0.1869019 -40.60  0.001418034    2.381    0.580
        40 -10.4943     87.7775    143.1947   1.0545366781e+02   3.4927793288e+01     0.323761    0.2848645  17.32 0.0005041542    1.442    0.306
        41  -8.3442     34.0024    139.1638   1.1857981536e+02   4.2826906807e+01    0.2061685    0.1149241  60.88 0.0007969181    1.929    0.482
        42  -8.7467    106.2761    131.0106   9.8241889849e+01   3.4627041299e+01     0.281785    0.2069981  69.56  0.001346551    1.576    0.366
        43  -9.9030     57.6926    129.8996   1.1105478265e+02   4.2368601515e+01    0.2900499    0.1840052  77.73  0.001428181    1.879    0.468
        44  -9.1326     97.6399    128.7426   1.0004200871e+02   3.6691285539e+01    0.2740515    0.2497704 -11.00 0.0008710596    1.342    0.255
        45 -14.2919      8.4854    241.4152   1.3115985826e+02   2.4310983396e+01      2.44848     1.605356  86.34   0.01969381    1.246    0.197
        46  -7.6775    107.4283    120.5266   9.5581113740e+01   3.6850009179e+01    0.1497249    0.1399253 -72.33 0.0001278932    1.021    0.021
        47  -9.9597     32.5513    117.2197   1.1597104495e+02   4.8124138973e+01    0.4471669   0.07606833 -63.33   0.00146944    3.836    0.739
        48  -7.8852    167.6803    112.3623   7.8512094604e+01   2.5657649823e+01    0.1659948    0.1251037 -77.05 0.0007041821    1.773    0.436
        49 -11.2590    117.1385    248.4825   1.1345809775e+02   9.1463145046e+00    0.7883852    0.2047582  38.94  0.003017775    3.630    0.725
        50 -10.4990     49.7526    234.3063   1.2405239726e+02   2.0977041396e+01    0.2385851    0.1706194 -83.96  0.001599998    1.350    0.259
        51  -9.9807     47.1045    229.1982   1.2415824724e+02   2.2229110693e+01    0.2815669    0.1335224  72.10  0.001580407    2.007    0.502
        52  -8.5944     24.9805     82.4868   1.1225378279e+02   5.6845824089e+01    0.1555079    0.1253801  20.34 0.0005593179    1.537    0.349
        53  -7.9919    248.5143     77.5080   5.5205582870e+01   1.2783560348e+01    0.1402821    0.1255957 -40.26 0.0002090213    1.025    0.024
        54 -10.8726     12.7712     60.5310   1.1191479778e+02   6.2550003316e+01    0.4124085    0.1595417 -40.92  0.001985025    2.355    0.575
        55  -9.4004     84.0729    233.1086   1.1789340754e+02   1.6624054426e+01    0.2663429    0.1348514  47.04  0.001518212    1.587    0.370
        56  -9.9040    144.7558     49.5072   6.4722894326e+01   4.2869745860e+01    0.4842753    0.3195341 -83.07  0.001939011    2.415    0.586
        57 -10.9863    127.2262    246.9814   1.1150641793e+02   7.8211432345e+00    0.3486082    0.3164595  80.51  0.002635514    1.248    0.199
        58 -10.4933     58.7343    242.8744   1.2311773026e+02   1.8338731823e+01    0.5235627    0.1938507  89.71  0.002127099    4.635    0.784
        59 -11.3174    195.3720     37.1968   5.1767696729e+01   3.1518619137e+01    0.4967421    0.4428428 -79.08  0.001545129    1.081    0.075
        60  -9.7670    135.5040    244.5072   1.0974334469e+02   6.8960478310e+00    0.2215557   0.09434268  42.41  0.001114309    1.858    0.462
        61 -10.9552     65.6829    242.6628   1.2192188040e+02   1.7474497760e+01    0.4364801    0.1926637  48.67 0.0004215034    1.728    0.421
        62 -10.7942    134.6067    230.3019   1.0820906901e+02   9.2895879469e+00    0.3040734    0.2371905 -81.81  0.001951704    1.544    0.352
