#   1 NUMBER                 Running object number                                     
#   2 MAG_AUTO               Kron-like elliptical aperture magnitude                    [mag]
#   3 X_IMAGE                Object position along x                                    [pixel]
#   4 Y_IMAGE                Object position along y                                    [pixel]
#   5 X_WORLD                Barycenter position along world x axis                     [deg]
#   6 Y_WORLD                Barycenter position along world y axis                     [deg]
#   7 A_WORLD                Profile RMS along major axis (world units)                 [deg]
#   8 B_WORLD                Profile RMS along minor axis (world units)                 [deg]
#   9 THETA_WORLD            Position angle (CCW/world-x)                               [deg]
#  10 FWHM_WORLD             FWHM assuming a gaussian core                              [deg]
#  11 ELONGATION             A_IMAGE/B_IMAGE                                           
#  12 ELLIPTICITY            1 - B_IMAGE/A_IMAGE                                       
         1 -13.7655     44.1030    111.6201   1.0215246839e+02   4.8846576031e+01     2.565325     1.541988  62.66   0.01156503    2.364    0.577
         2 -13.1982    197.0548     42.1693   4.3340407282e+01   3.0852497793e+01     1.051916    0.9019602 -70.95  0.003278995    1.060    0.057
         3 -13.7708    205.6107     33.4211   4.0140093995e+01   2.9987151627e+01     1.465966    0.9874496 -14.59  0.001271334    2.094    0.522
         4 -11.8343    220.0616     17.0349   3.4897602184e+01   2.8667813425e+01    0.4705956     0.319444  75.30  0.002839188    1.386    0.278
         5 -13.0530    230.2307      6.8948   3.1905538813e+01   2.7571726105e+01    0.8486679    0.6720548 -82.40  0.004621217    1.082    0.075
         6 -12.6248     41.7733      7.8321   6.7958321342e+01   6.9053333158e+01    0.6274831    0.3933206 -20.05  0.003870761    1.509    0.337
         7 -11.4816     58.9383      3.1292   5.8818965667e+01   6.6653418471e+01    0.3011995    0.2547965  30.66  0.002091831    1.137    0.120
         8 -10.0439    163.8321    211.4738   8.9081772200e+01   6.3794366191e+00    0.2239294    0.1613362 -38.19  0.001204773    1.491    0.329
         9 -11.5577    139.8260    246.9320   9.9365438032e+01   4.0059064545e+00    0.7580481    0.3493946 -51.97  0.003714277    2.590    0.614
        10 -16.5798     48.6053    200.0688   1.1345541655e+02   2.6720834344e+01     19.92263     7.816396  89.96   0.06660711    4.431    0.774
        11  -9.9938     66.0098    194.4786   1.0883945936e+02   2.5761191419e+01    0.2880952    0.2448596  64.40 0.0006932433    1.065    0.061
        12  -9.1762     82.2375    194.9736   1.0507261325e+02   2.3340847649e+01    0.2456441    0.1915779  43.39  0.001073981    1.237    0.192
        13 -11.4397    107.5154    203.9218   1.0041513435e+02   1.7411664304e+01    0.4101669    0.2853761  78.77  0.001576689    1.787    0.441
        14 -10.0184    147.6139    186.6784   8.8276544134e+01   1.4139141771e+01    0.3553737    0.2407459 -37.24  0.001397987    1.613    0.380
        15 -10.3462    120.1387    186.1628   9.4641488942e+01   1.9190531737e+01    0.2119225    0.1984744  -6.23 0.0003157243    1.201    0.167
        16 -17.6005     10.2261    245.9022   1.2434405967e+02   2.1383741590e+01     4.852167     2.353195  26.42   0.02232168    2.790    0.642
        17 -10.3131     99.3255    180.8181   9.8832975754e+01   2.3950174004e+01    0.2665581    0.2479025 -46.16 0.0006682311    1.180    0.153
        18  -8.5426     90.5155    181.9184   1.0119317110e+02   2.5107622633e+01    0.2064651     0.136748 -64.79 0.0006802884    1.514    0.340
        19  -8.5361     93.4807    179.4964   1.0007672739e+02   2.5208095534e+01    0.1450123    0.1312377  74.50 6.537473e-05    1.048    0.046
        20 -10.2760    187.2974    175.5572   7.7373308226e+01   8.9982798106e+00     0.377602    0.3217082 -53.01  0.001116424    1.323    0.244
        21 -12.2644    121.3832    196.7890   9.6111428839e+01   1.6641969324e+01    0.6405461    0.4286455  69.01  0.001277359    1.946    0.486
        22  -9.6113    148.0853    175.0344   8.5943196615e+01   1.6528459839e+01    0.2305576    0.1824919  79.95 0.0009544468    1.664    0.399
        23 -10.5900    104.5514    208.7876   1.0178095151e+02   1.6844436930e+01     0.278541    0.2379512   5.28  0.001324932    1.481    0.325
        24 -13.1521     72.6135    153.5192   1.0128289878e+02   3.4734857738e+01    0.7534515     0.562495 -59.38  0.001008699    1.263    0.208
        25 -14.7969     68.7057    144.0660   1.0072984239e+02   3.7657222344e+01     4.775817     2.268871  59.60  0.006480214    3.342    0.701
        26 -11.4803     75.9847    166.9859   1.0257906443e+02   3.0912782019e+01    0.3875488    0.3441044 -41.11 0.0008476818    1.279    0.218
        27 -11.6861     72.0384    171.4988   1.0429254239e+02   3.0381442104e+01    0.4361678    0.3401752 -35.44  0.001395415    1.593    0.372
        28  -8.5912     77.5881    174.7625   1.0335731652e+02   2.8785466656e+01    0.1975354    0.1292571 -79.31 0.0007494126    1.631    0.387
        29  -8.7246    193.4804    170.5142   7.5058902330e+01   8.8116957818e+00    0.1434393     0.133237  -8.99 3.833303e-05    1.012    0.012
        30 -10.0156    240.2171    169.5683   6.6179805026e+01   8.0887673747e-01     0.173949    0.1189151  23.52 0.0004249695    1.612    0.380
        31 -12.6552    111.3479    204.0200   9.9548822397e+01   1.6766320068e+01    0.9379802    0.3712652 -59.93  0.003635868    2.837    0.648
        32  -8.8735    135.3506    164.7829   8.6940749990e+01   2.1224646945e+01    0.2894147    0.1727044  48.84  0.001228776    1.736    0.424
        33  -9.2965    185.1386    168.2454   7.6307628329e+01   1.0825431246e+01    0.2635483    0.1940055 -69.46 0.0007858694    1.974    0.493
        34 -10.9411    193.2337    195.4372   8.0071769976e+01   4.2488405097e+00     1.009522    0.5236391 -62.77  0.003001581    5.944    0.832
        35 -16.3475      2.3259    223.2414   1.2466371829e+02   2.6611686567e+01     13.87555          nan -74.27    0.0130757   14.365    0.930
        36 -11.5736     91.0790    151.6178   9.5852485366e+01   3.2348344656e+01    0.7229484    0.5028206 -28.48  0.003259385    1.920    0.479
        37  -8.9080    111.3950    149.6392   8.9949945412e+01   2.9284088790e+01    0.3910669    0.2219568  68.69  0.001306321    3.279    0.695
        38 -10.7421    133.8709    145.5042   8.3189190228e+01   2.5925008703e+01     1.250951    0.3330587 -54.72  0.002924838    5.616    0.822
        39  -9.3650    174.8460    149.1817   7.4350963856e+01   1.6715548529e+01    0.2249588     0.210698 -80.01 0.0005318638    1.206    0.171
        40 -11.0564     40.9762    147.0375   1.0908029769e+02   4.0369862627e+01    0.4058205    0.2880774 -66.07  0.001375113    1.235    0.190
        41 -10.3417    103.9348    138.1440   8.9522314088e+01   3.3424239278e+01    0.5744637    0.3394497 -27.80  0.002135775    2.622    0.619
        42 -10.2033    105.9476    130.8283   8.7305292854e+01   3.4820714561e+01    0.3694168    0.3309179 -69.63   0.00116159    1.135    0.119
        43 -11.5674     91.5879    137.6044   9.2895077701e+01   3.5719520762e+01    0.2872108    0.2666006 -37.27  0.001557089    1.126    0.112
        44 -12.5120     44.1407    138.9016   1.0696766172e+02   4.2057612379e+01    0.7617889    0.4377945 -59.80  0.003061825    1.518    0.341
        45 -12.2996     44.5489    129.6923   1.0534539658e+02   4.4318271282e+01    0.5808362    0.5012244 -88.89  0.003137297    1.143    0.125
        46 -10.1406    135.6324    128.0961   7.8636847096e+01   2.9543453972e+01    0.5773875    0.1482649 -47.38  0.001561018    3.868    0.741
        47 -10.3563    112.8545    129.0883   8.4963493288e+01   3.3925542954e+01    0.3819655    0.3114596  -3.83 0.0008645336    1.543    0.352
        48  -9.0690    160.5930    127.8018   7.2493221475e+01   2.4239355266e+01    0.2353118    0.1437117 -53.75  0.000959239    1.775    0.437
        49 -10.3351     99.9170    124.9215   8.7645590906e+01   3.7349727753e+01    0.3136269    0.2615754  -8.89 0.0009614944    1.450    0.310
        50 -10.9141    119.1309    122.9972   8.1746368023e+01   3.4115016765e+01    0.6189633    0.3915853   8.20  0.002150306    3.098    0.677
        51  -8.9816    135.0000    119.9811   7.6759664120e+01   3.1500635223e+01    0.2627137   0.08848265 -45.68  0.000798776    2.917    0.657
        52  -9.2997    108.5246    118.2000   8.3514110369e+01   3.7327880965e+01    0.2500865    0.2132788  40.36 0.0003687625    1.208    0.172
        53  -9.8635    231.4873    113.7576   5.5630397962e+01   1.1906564589e+01    0.2560227    0.2476382  59.14 0.0008415325    1.174    0.148
        54  -8.5343    167.6394    112.3077   6.6997487201e+01   2.5895465286e+01    0.1606113    0.1228293 -83.39  0.000704032    1.736    0.424
        55 -11.4772    118.7836    109.3975   7.8320515440e+01   3.7287264629e+01    0.4793362    0.3626612 -79.39  0.002134109    1.770    0.435
        56  -9.3347    205.4669    110.1785   5.9051495818e+01   1.7896674440e+01    0.2452603    0.2105481  52.10 0.0006619491    1.257    0.204
        57  -9.7431    134.0437    100.8603   7.1886336140e+01   3.5858647432e+01    0.4298673    0.1934557 -54.03  0.001423759    2.803    0.643
        58  -8.8303    129.0394     96.4875   7.1955921257e+01   3.7881221852e+01    0.2350441    0.1532799  46.94 0.0006177563    1.551    0.355
        59 -12.2330     83.8492    159.0315   9.9171307090e+01   3.1678653138e+01     1.166663    0.7790898  87.65   0.00112297    1.893    0.472
        60 -11.5518     53.5859     93.3823   9.4781591721e+01   5.2090271423e+01    0.5931277    0.4506399  78.72  0.003041085    1.835    0.455
        61  -8.4201    157.5016     89.5246   6.3096459587e+01   3.2728058050e+01    0.1560038    0.1445179 -75.76 0.0002463583    1.115    0.103
        62 -10.0834     40.5195     88.4892   9.8297164454e+01   5.4745807487e+01    0.2946585    0.1198901 -58.49   0.00121435    2.190    0.543
        63 -10.0196    142.4344    209.1705   9.3337698834e+01   1.0473971918e+01    0.2576139    0.1319686 -45.88  0.001146515    2.131    0.531
        64  -8.6018    157.5518     82.5291   6.1112922434e+01   3.4018511256e+01    0.1494833    0.1471703 -72.36 0.0002276716    1.011    0.011
        65  -9.2818     60.1443     68.0517   8.5080183029e+01   5.6730825786e+01    0.2059114    0.1837231 -26.07 0.0004894434    1.030    0.029
        66 -12.8949    185.4568     51.2592   4.7320576943e+01   3.2361015464e+01    0.9279466    0.7929003  28.83 0.0008874784    1.449    0.310
        67 -15.4233     58.1094    184.9105   1.0957256798e+02   2.9046720120e+01     16.91556     7.931767 -80.22   0.07073703    2.464    0.594
        68  -8.4061     74.3377     55.2978   7.5441329788e+01   5.6877290666e+01    0.1430342     0.101538   1.75 0.0007032715    1.657    0.396
        69  -8.7403    168.7775    233.7622   9.1641997004e+01   1.6787938021e+00    0.1638588    0.1397936  49.39 0.0003799832    1.308    0.236
        70  -9.5977     89.5664    211.6633   1.0553800352e+02   1.8544835718e+01    0.2529917    0.2014945  87.26 0.0008752467    1.276    0.217
        71 -10.6475    150.4457    220.5618   9.3407507539e+01   6.9529025057e+00    0.2364207    0.1704782  28.92  0.001295722    1.302    0.232
        72  -9.2411    189.6979     14.9651   3.7313531240e+01   3.5859959648e+01    0.1792957    0.1533791 -65.11 0.0005226801    1.109    0.098
        73 -11.2540     61.7588    199.1137   1.1036343214e+02   2.5268196785e+01    0.3804255    0.2351269 -60.44  0.001009073    1.638    0.389
        74 -10.0911    184.4805    212.0069   8.4874265977e+01   2.8145393307e+00    0.1970099    0.1292403 -39.18  0.001003958    1.599    0.374
