#   1 NUMBER                 Running object number                                     
#   2 MAG_AUTO               Kron-like elliptical aperture magnitude                    [mag]
#   3 X_IMAGE                Object position along x                                    [pixel]
#   4 Y_IMAGE                Object position along y                                    [pixel]
#   5 X_WORLD                Barycenter position along world x axis                     [deg]
#   6 Y_WORLD                Barycenter position along world y axis                     [deg]
#   7 A_WORLD                Profile RMS along major axis (world units)                 [deg]
#   8 B_WORLD                Profile RMS along minor axis (world units)                 [deg]
#   9 THETA_WORLD            Position angle (CCW/world-x)                               [deg]
#  10 FWHM_WORLD             FWHM assuming a gaussian core                              [deg]
#  11 ELONGATION             A_IMAGE/B_IMAGE                                           
#  12 ELLIPTICITY            1 - B_IMAGE/A_IMAGE                                       
         1 -14.9239     68.5350    144.4241   1.0633161070e+02   3.7113264772e+01     6.189594     2.305305  58.67  0.004831063    7.771    0.871
         2 -14.1893    204.2836     34.4160   4.5347013242e+01   2.9943027808e+01     1.772642     1.424287  16.46  0.008262343    1.664    0.399
         3 -12.4717    212.9126     26.3470   4.2256953327e+01   2.8875912456e+01    0.4834723    0.4072863  38.95  0.001079655    1.458    0.314
         4 -14.0935    219.6280     19.0174   3.9750582709e+01   2.8160985755e+01     1.074686    0.9207454  33.09  0.002702995    1.514    0.339
         5  -9.2100    134.5644     11.8129   4.8853069730e+01   4.9817880913e+01    0.1747506    0.1217063 -39.78  0.000436569    1.580    0.367
         6 -12.0326      2.7210      5.2491   9.3054369077e+01   7.3600059472e+01    0.6770593    0.2035138 -43.25  0.003358632    2.491    0.599
         7 -11.0880    242.3547      1.6420   3.3927056052e+01   2.4963403386e+01    0.5224391    0.1402401  75.19  0.002042245    3.591    0.722
         8 -10.7127     57.1044      1.8474   6.4769926052e+01   6.7238921425e+01    0.1729521    0.1584382  -2.80   0.00122224    1.305    0.234
         9 -10.9541     47.5959      2.4879   6.8821788339e+01   6.8734406107e+01    0.2312965    0.1054749  42.61 0.0009923587    2.117    0.528
        10 -12.1239     64.7209    178.9911   1.1227844027e+02   2.9393021451e+01    0.4296991    0.2967992 -39.46  0.001929375    1.993    0.498
        11 -15.4055    209.3551    244.3441   9.1799089080e+01  -5.6375745898e+00     1.108733    0.7616866  19.76  0.004336403    1.242    0.195
        12 -14.1140     47.7980    221.0237   1.2001065518e+02   2.2492674019e+01     1.495813    0.9172901  68.67  0.004203788    1.405    0.288
        13 -14.4653     86.7813    227.6856   1.1309814023e+02   1.6034047952e+01     2.280609     1.068319  43.39   0.00569987    1.807    0.447
        14 -15.7942     71.2485    247.7741   1.1783419074e+02   1.4486047262e+01     9.002742     2.764792  30.42   0.01377778    8.379    0.881
        15 -13.3944      6.8753    189.0238   1.2564588468e+02   3.3447319117e+01    0.9098231    0.4591679 -56.10  0.001194039    2.292    0.564
        16 -15.7180      5.0420    158.5797   1.2387135218e+02   4.0361977657e+01     5.568726     1.198881 -74.46   0.02101703    3.494    0.714
        17 -10.7143    142.0455    174.6932   9.3554742784e+01   1.7710575559e+01    0.2103814     0.185445  45.55  0.001022952    1.094    0.086
        18 -13.5862     66.3982    159.6846   1.0927578520e+02   3.3704869802e+01    0.6007664    0.5062173 -43.45  0.001711558    1.391    0.281
        19 -13.5177     57.4828    129.6824   1.0683068509e+02   4.2175754317e+01     2.611665    0.8359932 -72.43   0.00655045    6.196    0.839
        20 -12.2041     78.8771    163.7950   1.0679296825e+02   3.0970647231e+01     0.472178    0.3449077 -85.68 0.0003745506    1.385    0.278
        21 -13.3388     85.5039    157.6818   1.0415225966e+02   3.1432270071e+01     1.337558    0.8326473 -67.42  0.001472102    1.574    0.365
        22 -11.9676    183.4577    214.2896   9.1837120763e+01   2.8110211516e+00    0.3447954    0.3321929  80.90  0.002262087    1.329    0.247
        23 -10.2022    174.8439    148.9435   8.0770846193e+01   1.6560466253e+01    0.2845017    0.2186423 -63.47  0.001074201    1.587    0.370
        24  -9.9777    137.9302    171.1899   9.3836474795e+01   1.9232504194e+01    0.2959616    0.1893936 -79.92  0.001184374    2.564    0.610
        25 -11.7505     29.7920    144.6172   1.1652768624e+02   4.1539529545e+01    0.3233723     0.285667  87.71  0.002160596    1.113    0.101
        26 -10.4120     48.3917    145.4082   1.1181424460e+02   3.9403926668e+01    0.2331835    0.1315353   6.89 0.0009562404    3.462    0.711
        27 -10.9043    100.7227    141.3527   9.7162878243e+01   3.2874013380e+01    0.5892736    0.3575488 -26.17  0.002250067    2.790    0.642
        28 -12.1712     87.7575    141.6405   1.0068059830e+02   3.4951634570e+01     0.287415    0.2418401 -52.10  0.000413441    1.171    0.146
        29 -10.2483     81.4948    141.3362   1.0230742460e+02   3.5997728424e+01    0.2899434      0.21542  70.32 0.0005482432    1.515    0.340
        30 -12.1587     70.3816    134.7945   1.0413457756e+02   3.9219060366e+01    0.5783442    0.3842538  42.62  0.002915654    1.608    0.378
        31 -10.7638     30.2143    137.0587   1.1547030746e+02   4.3322688309e+01    0.2003024    0.1816048  59.80 0.0005554113    1.238    0.193
        32 -13.4709     38.6354    206.7908   1.2065046151e+02   2.6474701479e+01    0.5750445    0.4204187  50.13  0.001579136    1.303    0.233
        33 -10.1637    110.1551    131.3243   9.2479269327e+01   3.3583635447e+01    0.3269407    0.2548013   3.21  0.001022299    1.753    0.429
        34 -10.1931    106.1158    130.8894   9.3471390789e+01   3.4426559513e+01    0.3469556    0.2891346 -66.00  0.001515812    1.194    0.162
        35 -11.0709     34.1959    131.1103   1.1358148343e+02   4.4388365800e+01     0.315129    0.2016831 -73.61  0.000865917    1.325    0.245
        36 -11.1802    135.6028    123.7832   8.3998110328e+01   3.0290219171e+01    0.7003338     0.165993 -49.72  0.001729386    4.696    0.787
        37 -10.6545     66.8971    124.8810   1.0323804666e+02   4.2134295676e+01    0.2793642    0.1950871 -62.60  0.001313568    1.283    0.220
        38 -16.4615     12.1369    240.5534   1.2751803194e+02   2.2682354780e+01     2.642651     1.947834  48.34   0.02083022    1.400    0.286
        39  -9.5954    126.1132    127.9132   8.7455102907e+01   3.1299017748e+01    0.2643002    0.1824078 -78.84 0.0008213624    2.097    0.523
        40 -10.7074     97.5698    127.5567   9.5071271829e+01   3.6737964223e+01    0.2899109    0.2433664 -22.28 0.0008647412    1.405    0.288
        41 -10.4706    116.6236    125.7788   8.9448863689e+01   3.3666134555e+01    0.3526384    0.2848884 -61.93  0.001584981    1.257    0.204
        42  -8.8851     90.4756    123.4627   9.6151769437e+01   3.8925942202e+01    0.1496688    0.1369943 -77.66  0.000224725    1.085    0.079
        43 -10.2577    230.0000    166.0036   7.3608022727e+01   2.6357542792e+00    0.2260407   0.07201681 -37.09 0.0005196084    2.922    0.658
        44  -9.7389    107.0773    119.9370   9.0646258044e+01   3.6849827350e+01    0.2172504    0.2076043 -53.08 0.0003287239    1.013    0.012
        45  -9.7316    168.3236    113.2875   7.3458715282e+01   2.5327694034e+01    0.3130764    0.2253568 -78.40  0.001292707    2.059    0.514
        46 -15.6205     45.5442    196.2643   1.1834371309e+02   2.7923261769e+01     4.421471     1.669816  57.79   0.01897584    2.844    0.648
        47  -9.7044    135.0000    112.4278   8.1220125707e+01   3.2952668444e+01    0.3530433   0.08787353 -44.79 0.0009299856    3.896    0.743
        48 -11.7670     33.4855    156.6508   1.1701251696e+02   3.8302287855e+01    0.3488628    0.2597508 -83.42  0.001234629    1.114    0.102
        49  -9.9277    205.5528    110.2257   6.5130168714e+01   1.7458837433e+01    0.2600068    0.2135541  49.76 0.0006013997    1.303    0.232
        50 -11.1520    133.5050    141.9882   8.8849992811e+01   2.6591130308e+01    0.7439502    0.2405488 -55.19  0.002074127    4.018    0.751
        51  -9.9111    134.5939    105.7356   7.9512815309e+01   3.4507235618e+01    0.3183585    0.1488038 -39.94  0.001144774    2.145    0.534
        52 -10.2382     41.2240    103.1269   1.0674192989e+02   5.0493226896e+01    0.2383814    0.1554559  60.07 0.0008120019    1.988    0.497
        53  -8.9840    127.9939     95.0000   7.8206793117e+01   3.8249136186e+01    0.2504747   0.08988236  46.06 0.0007931384    2.878    0.653
        54 -10.5704     11.6937     93.0758   1.1449106149e+02   5.5307683067e+01    0.1832529    0.1635466  59.04 0.0006573533    1.354    0.261
        55  -9.8591     41.6727     91.9996   1.0423710632e+02   5.3092046662e+01    0.1920287    0.1477974 -55.83 0.0003817443    1.089    0.082
        56 -10.1491     52.9543     90.4940   1.0005463985e+02   5.2189797731e+01    0.2266835    0.1652076 -54.06 0.0006092458    1.184    0.155
        57  -9.4840    113.5206     82.8475   7.8552713493e+01   4.3869540720e+01    0.2790472    0.2017016  88.11  0.001156579    2.299    0.565
        58  -9.0970    159.3113     81.3118   6.6508758140e+01   3.3742510901e+01    0.1579491    0.1229261  12.54 0.0003417291    1.629    0.386
        59  -9.0929     98.6742     71.2958   7.9263729115e+01   4.9188021419e+01    0.1424506    0.1196595 -85.22 0.0003952762    1.626    0.385
        60 -10.1158     50.9856     63.8417   9.3309906656e+01   5.8329395364e+01    0.3344065    0.1929746  48.95  0.001562399    2.505    0.601
        61  -8.9145     62.6930     63.3349   8.8765133275e+01   5.6874743267e+01    0.1291298    0.1096103 -83.22 0.0003091038    1.671    0.402
        62 -10.6214     13.4800     60.0459   1.0709039170e+02   6.2638785557e+01    0.2362403    0.1756751 -55.74 0.0004548049    1.117    0.105
        63  -9.0330     98.2394     57.3699   7.4606793812e+01   5.1893169530e+01    0.1855729    0.1371454  53.85 0.0003468075    1.549    0.355
        64 -13.4840    196.3711     40.4955   4.8019918373e+01   3.1079057795e+01     1.313173    0.7697496  36.76  0.004009892    2.331    0.571
        65 -12.1391     69.5515    173.5210   1.1044651749e+02   3.0005896192e+01    0.3606734     0.298169 -33.11  0.001482824    1.615    0.381
        66 -15.0474      9.0633    207.6870   1.2634994030e+02   2.9338933341e+01     1.169911     1.031191 -55.20  0.004439603    1.639    0.390
        67 -11.4092    193.1980    194.7289   8.6416097952e+01   4.3809308582e+00     0.908383     0.473727 -62.55  0.002709292    6.126    0.837
        68 -11.1764    140.0571     45.7198   5.9490321321e+01   4.4390552383e+01    0.3663868    0.2749969 -73.68  0.001156419    1.743    0.426
        69 -10.1480    143.6546     40.8901   5.7096641939e+01   4.4196873306e+01     0.199605    0.1857843 -35.97 0.0007983358    1.113    0.102
        70  -9.8960      8.1784     39.3947   1.0361310092e+02   6.7216830759e+01    0.1374283    0.1054919  24.67 0.0006381894    1.635    0.388
        71 -10.1052    189.5081     15.0452   4.1900937028e+01   3.5847920881e+01     0.191773    0.1312893 -29.45 0.0005430297    1.552    0.356
        72 -11.1643     41.2578    178.8196   1.1757765113e+02   3.2304461707e+01    0.3042301    0.1949171  51.39   0.00152671    1.490    0.329
        73 -11.1608     44.9839    176.5090   1.1649984871e+02   3.2410182231e+01     0.272487    0.2332899  42.59  0.001133252    1.339    0.253
        74  -9.7317    147.2031    184.4047   9.4190519080e+01   1.4735755159e+01    0.2031881    0.1268528  49.67 0.0007340952    1.606    0.377
        75 -10.0325     99.4888    180.9151   1.0448451049e+02   2.3829799184e+01    0.2382722    0.1949291  23.18 0.0007091863    1.477    0.323
