#   1 NUMBER                 Running object number                                     
#   2 MAG_AUTO               Kron-like elliptical aperture magnitude                    [mag]
#   3 X_IMAGE                Object position along x                                    [pixel]
#   4 Y_IMAGE                Object position along y                                    [pixel]
#   5 X_WORLD                Barycenter position along world x axis                     [deg]
#   6 Y_WORLD                Barycenter position along world y axis                     [deg]
#   7 A_WORLD                Profile RMS along major axis (world units)                 [deg]
#   8 B_WORLD                Profile RMS along minor axis (world units)                 [deg]
#   9 THETA_WORLD            Position angle (CCW/world-x)                               [deg]
#  10 FWHM_WORLD             FWHM assuming a gaussian core                              [deg]
#  11 ELONGATION             A_IMAGE/B_IMAGE                                           
#  12 ELLIPTICITY            1 - B_IMAGE/A_IMAGE                                       
         1 -16.6277    195.1730     52.4269   8.0692616991e+01   2.9466041829e+01     3.022115     1.764728  72.53   0.01137677    2.076    0.518
         2 -16.1048    238.5082     51.3313   7.4343567388e+01   1.8973149402e+01     2.283862     1.796107 -27.82  0.009628558    1.171    0.146
         3 -13.3830    249.2855      7.9422   6.1518569863e+01   2.1008718285e+01    0.7643308    0.3173046 -20.32  0.003192463    2.264    0.558
         4 -12.0951      3.9400      3.1598   1.2052170369e+02   7.3683039003e+01    0.2718002    0.1193627 -52.10  0.001563996    1.634    0.388
         5 -12.7739    137.9886    236.3534   1.2691879728e+02   1.3223354124e+01    0.2696283    0.1949987  74.00  0.001640934    1.588    0.370
         6 -14.2733    249.3343    102.0726   8.5807077475e+01   1.0490817562e+01     1.385261    0.3249144 -26.61  0.004421905    4.026    0.752
         7 -14.9209    238.3192    156.1093   9.9076854249e+01   6.3029816649e+00     1.977905    0.9526002 -41.87  0.009457178    2.773    0.639
         8 -15.6770    237.3167    238.6216   1.1242144530e+02  -1.3479665960e+00     1.329442    0.9192056  13.40   0.01076329    1.341    0.254
         9 -15.8115    241.9163    199.3149   1.0610157282e+02   1.3081276873e+00     2.800021     2.056627 -49.32   0.01859705    2.368    0.578
        10 -14.9425    239.4619    132.9323   9.4198611947e+01   8.7600156344e+00     1.087335    0.8659444  13.33  0.004580877    1.134    0.118
        11 -17.1906    221.7811     96.1452   8.8467890365e+01   1.7095861545e+01     3.647652     2.673398 -59.21   0.01829482    1.832    0.454
        12 -14.6886    209.5101    234.5796   1.1589809854e+02   2.9726156441e+00     1.182907    0.5898299 -14.71  0.006559476    3.682    0.728
        13 -14.5820    206.6096    225.9579   1.1522891186e+02   4.2110034691e+00     1.196184    0.6904732  -7.69  0.007235386    2.785    0.641
        14 -13.9098    152.4081    247.6718   1.2582396982e+02   9.9002748626e+00     0.576364    0.3349972  31.41  0.004018585    1.828    0.453
        15 -15.8502     90.1407    200.3456   1.3133652789e+02   2.4922489208e+01      4.29533     2.614873  60.66    0.0292568    1.368    0.269
        16 -11.6096     13.2585    248.4834   1.4608522713e+02   2.6445134367e+01    0.2314442   0.08682847  80.15  0.001641254    2.384    0.581
        17 -12.7508    102.0028    234.3105   1.3230555912e+02   1.8410338319e+01    0.1612957    0.1256519  77.06 0.0003808381    1.275    0.216
        18 -13.3782    176.7520    249.0412   1.2237218392e+02   6.3270363565e+00    0.5791916    0.1986386  41.62   0.00329789    2.093    0.522
        19 -12.5045     10.6757    206.3352   1.4501155987e+02   3.2900480174e+01    0.2732206    0.1658856  56.32  0.001968928    1.229    0.186
        20 -12.7937     44.3475    193.6358   1.3877160509e+02   3.1627730804e+01    0.1950837    0.1660963  60.85  0.001256049    1.323    0.244
        21 -15.2507     26.5380    177.0396   1.4087766362e+02   3.6350352580e+01       1.2076    0.6113725  88.11  0.007355339    1.706    0.414
        22 -14.1336     22.2802    165.5160   1.4095067345e+02   3.8847583186e+01     0.495105    0.2554199  50.71  0.002618258    1.627    0.386
        23 -12.3854     98.4824    174.4896   1.2710166103e+02   2.8031965424e+01    0.2950114    0.1732133 -44.66  0.001288768    2.449    0.592
        24 -11.8893    100.4161    169.8253   1.2616340162e+02   2.8560469697e+01    0.1944746    0.1728858 -32.39 0.0009642862    1.623    0.384
        25 -13.4499    172.2468    161.3889   1.1121018943e+02   1.7805873941e+01    0.4645326    0.3964838  58.10  0.001616299    1.184    0.155
        26 -13.8459    220.9293    151.1194   1.0085904522e+02   1.0072451902e+01    0.8655798    0.3607742 -31.93  0.003954568    2.535    0.605
        27 -11.5395    219.8933    141.6852   9.9134637005e+01   1.1452412638e+01     0.653451    0.3436961 -27.02  0.003220166    2.008    0.502
        28 -13.0332     80.1333    157.6179   1.2871891898e+02   3.3685255406e+01    0.1994312    0.1444737 -89.64 0.0006015624    1.301    0.232
        29 -12.8474     94.2273    155.7940   1.2559343916e+02   3.2017648563e+01    0.2491462    0.2333238 -38.15 0.0008519014    1.448    0.310
        30 -18.4626     62.7102    243.6603   1.3886998486e+02   2.1981886933e+01     3.172651     1.180224  49.26   0.02127525    1.810    0.447
        31 -11.0857     25.9862    232.0834   1.4370697274e+02   2.7525805806e+01    0.1061476   0.06872369  64.10 0.0009324949    1.006    0.006
        32 -19.1761     57.7927    106.8563   1.2678960536e+02   4.6903693049e+01     15.94369    0.6225411 -62.78   0.02310433   22.799    0.956
        33 -12.3105     41.5829    183.0105   1.3854104263e+02   3.3749954269e+01    0.1783611    0.1231746  53.80 0.0004776882    1.252    0.201
        34  99.0000    196.9913    247.6977   1.1928247840e+02   3.5838007715e+00    0.8744482    0.3774896  38.33  0.005575635    1.704    0.413
        35 -11.9594    105.4420    139.4827   1.2081523142e+02   3.3371741015e+01    0.2158582    0.1873963  69.07 0.0001338626    1.035    0.034
        36 -11.9314     36.9148    133.9942   1.3536843356e+02   4.3537576243e+01    0.1691727    0.1347828  81.90 0.0004642052    1.033    0.032
        37 -10.7859    108.6799    125.6995   1.1771089240e+02   3.5520674606e+01    0.1216729    0.1055325  -6.95 0.0007024292    1.624    0.384
        38 -12.7029    179.7840    115.5408   1.0052614536e+02   2.3445481057e+01    0.4236811    0.3587313  71.47  0.001559598    1.352    0.261
        39 -13.3066    170.4305    103.0656   9.9359703321e+01   2.7529125910e+01    0.6071818    0.2804664  48.14  0.002465826    2.094    0.522
        40 -12.7229    162.1528     99.8519   1.0023330257e+02   2.9898273918e+01    0.3421029    0.2752897 -80.61  0.001747182    1.571    0.364
        41 -14.0660     10.0772     94.0306   1.3778545745e+02   5.4252792827e+01     0.808368    0.3039968 -69.20   0.00398465    1.996    0.499
        42 -12.3784    169.3555     94.8758   9.7495978112e+01   2.9146608362e+01    0.3028686    0.2125102  43.22  0.001476229    1.421    0.296
        43 -14.0364    186.2856     87.9644   9.2410874775e+01   2.6385263840e+01    0.9084489    0.6651179 -15.28  0.003248163    1.506    0.336
        44 -12.0910    116.5925    247.4849   1.3114120096e+02   1.4814315691e+01    0.1604189    0.1245668  58.21 0.0006381187    1.130    0.115
        45 -11.3413     22.3804    242.6103   1.4462694029e+02   2.6385480481e+01    0.1025275   0.06558048  46.87 0.0005974295    1.435    0.303
        46 -13.5557    171.6345     27.7904   7.6554481651e+01   3.8776520141e+01       0.7379    0.3408799  -7.58  0.001926414    3.293    0.696
        47 -11.1383     19.4821    239.5739   1.4492804542e+02   2.7089293143e+01   0.08859176   0.05813155  63.59 0.0002025224    1.049    0.047
