#   1 NUMBER                 Running object number                                     
#   2 MAG_AUTO               Kron-like elliptical aperture magnitude                    [mag]
#   3 X_IMAGE                Object position along x                                    [pixel]
#   4 Y_IMAGE                Object position along y                                    [pixel]
#   5 X_WORLD                Barycenter position along world x axis                     [deg]
#   6 Y_WORLD                Barycenter position along world y axis                     [deg]
#   7 A_WORLD                Profile RMS along major axis (world units)                 [deg]
#   8 B_WORLD                Profile RMS along minor axis (world units)                 [deg]
#   9 THETA_WORLD            Position angle (CCW/world-x)                               [deg]
#  10 FWHM_WORLD             FWHM assuming a gaussian core                              [deg]
#  11 ELONGATION             A_IMAGE/B_IMAGE                                           
#  12 ELLIPTICITY            1 - B_IMAGE/A_IMAGE                                       
         1 -10.8890     25.5702     20.0627   1.2213672867e+02   7.0594925022e+01    0.5262785     0.248886 -26.20  0.002255947    2.659    0.624
         2 -11.5746     20.0906     18.9435   1.2498399077e+02   7.1325723328e+01    0.2358422    0.1993023 -24.11  0.000397767    1.133    0.117
         3 -10.3256     86.7726     18.9907   9.2749734356e+01   6.0903090584e+01    0.2878258    0.1993568 -19.10 0.0005184524    1.383    0.277
         4 -10.6258    103.9604     19.0121   8.7459836658e+01   5.7006261672e+01    0.5184223    0.2517523  -3.38  0.001695393    3.468    0.712
         5 -11.2645    216.3622     16.7383   6.8173481290e+01   2.9016146916e+01    0.7328171    0.2022647  48.62  0.002407156    4.181    0.761
         6 -11.4757    133.5667     11.2547   7.7163820518e+01   5.0512786072e+01     0.384624    0.2549213   9.25   0.00109169    1.680    0.405
         7  -9.8675     98.4903     11.3914   8.5296158239e+01   5.9246745872e+01    0.2195846    0.1949017 -14.18 -0.0001608548    1.108    0.098
         8 -10.6377     26.3353     13.5052   1.1851374843e+02   7.1863109650e+01    0.2359938    0.1725684 -28.22 0.0005181012    1.167    0.143
         9 -11.8584     80.7827      6.7274   8.8287463381e+01   6.3833423066e+01    0.5430976    0.2846744  20.84  0.000687322    2.518    0.603
        10  -9.2258      8.5379      8.6255   1.2810289874e+02   7.4377371147e+01    0.2224452   0.09720937  -6.81 0.0009502264    3.338    0.700
        11  -9.9631     75.3135      5.1129   8.9275348442e+01   6.5208714610e+01    0.2924017    0.1234555 -17.84  0.001105951    2.620    0.618
        12  -9.5823     59.4891      5.2720   9.5698574487e+01   6.8358580659e+01    0.3601181   0.09800025  43.38  0.001226868    3.649    0.726
        13  -9.9300     91.3854      3.8584   8.3415525258e+01   6.1758254112e+01    0.2067522    0.1944805  58.60 0.0004749587    1.224    0.183
        14 -11.2084     27.2609      3.1228   1.1198386151e+02   7.3721099664e+01    0.2494493    0.2088989   4.95 0.0005204602    1.216    0.178
        15  -9.4426     86.0396      1.1729   8.3512347438e+01   6.3276120391e+01    0.1777125    0.1003394  55.36 0.0002958158    1.753    0.430
        16 -10.4964     29.1074    232.8711   1.5015599204e+02   2.4349047171e+01    0.4305386   0.09768256  35.00  0.002248679    2.907    0.656
        17 -10.0478    243.0461    247.4928   1.1475405042e+02  -2.4721611843e+00    0.1500934    0.1135133  -0.25 0.0005731659    1.353    0.261
        18 -10.9870    247.3246    249.9464   1.1444439275e+02  -3.1518540201e+00    0.3975899    0.1130786  31.43  0.002134442    2.628    0.619
        19 -10.7710    250.2604    244.4933   1.1325804074e+02  -3.0435144854e+00    0.2897344    0.1363852 -17.96   0.00196097    2.098    0.523
        20 -11.3326    182.2525    247.0316   1.2440744384e+02   4.8736903829e+00    0.4590596    0.2383439 -13.87  0.002602922    3.085    0.676
        21 -10.3703    127.9391    249.6385   1.3396925733e+02   1.1292359478e+01    0.1486528    0.1315844   1.49  0.001015486    1.359    0.264
        22  -9.5052     72.5364    249.9638   1.4355023753e+02   1.7560315898e+01    0.1129299   0.07666587 -36.91 0.0008088617    2.485    0.598
        23  -9.2483     45.7168    250.6531   1.4809385503e+02   2.0161971568e+01   0.07703017   0.07121149  -5.69 0.0006098555    1.646    0.392
        24 -10.1668     32.6582    248.9957   1.5017565650e+02   2.1614100650e+01    0.2042939    0.1190578 -51.78  0.001487254    2.738    0.635
        25 -12.2864     21.3913    249.0270   1.5200489830e+02   2.2603580531e+01    0.3726697    0.1341415  42.92  0.002541353    1.796    0.443
        26 -11.6560     27.8988    246.0575   1.5084943232e+02   2.2467502432e+01    0.2875544    0.1656148  89.67  0.001973222    1.802    0.445
        27 -11.5603    156.3481    240.9049   1.2813577462e+02   8.8288612714e+00    0.2222825    0.1579136  40.38  0.001581768    1.282    0.220
        28 -11.5811     19.9230    238.0637   1.5189969984e+02   2.4354884769e+01    0.4002475    0.1753361  35.75  0.002782305    1.786    0.440
        29 -11.5345     73.9223    238.3924   1.4258116416e+02   1.9062957209e+01     0.313055    0.2202131  50.18   0.00118576    1.111    0.100
        30 -10.7248     73.6261    232.9299   1.4226830125e+02   1.9907033638e+01    0.2037634    0.1157968  42.79  0.000749885    1.326    0.246
        31 -10.6759    174.5128    238.5090   1.2470292142e+02   6.7823352984e+00    0.2573403    0.1558524  23.84  0.001596951    1.326    0.246
        32 -11.2688    177.5535    234.9814   1.2374424045e+02   6.7893182017e+00    0.2386554    0.1596323  14.08  0.001204238    1.360    0.265
        33  -9.5021     88.7759    240.9335   1.4012170386e+02   1.7051860000e+01    0.1084787   0.08337256 -70.67 0.0008317996    1.638    0.389
        34  -9.7297    135.3897    237.2773   1.3145614512e+02   1.1940499774e+01    0.1078405     0.070513  14.30 0.0006997734    1.733    0.423
        35 -10.5854    159.9047    235.8560   1.2693704061e+02   8.9774293267e+00    0.1706362    0.1186462  19.29  0.000764815    1.265    0.209
        36 -11.0991    153.2212    234.0600   1.2791611109e+02   1.0064019402e+01    0.1932737    0.1384372 -17.73  0.001376883    1.741    0.426
        37 -10.5076    167.1088    233.8625   1.2543073503e+02   8.2795092977e+00    0.1914722    0.1414693  26.45 0.0007888163    1.009    0.009
        38 -10.3803     86.1976    233.7359   1.4004587213e+02   1.8384318241e+01    0.1812552    0.1114611  81.30  0.001205208    2.141    0.533
        39  -9.6064     53.6684    234.6965   1.4594890070e+02   2.1731821272e+01   0.08575576   0.07477674   1.44 0.0005412296    1.656    0.396
        40  -9.3217     62.3322    233.3245   1.4432792280e+02   2.1053384378e+01   0.08902654    0.0759432  -2.62  0.000705072    1.707    0.414
        41  -9.8671    240.9208    231.4229   1.1281692372e+02  -8.4876925542e-01    0.1554837    0.1067277   1.11 0.0005666993    1.179    0.152
        42 -10.0374     79.5389    231.2740   1.4107617355e+02   1.9503019348e+01    0.1910559    0.1106609  37.86 0.0005679845    1.349    0.259
        43  -9.6964    235.8641    230.2474   1.1343377632e+02  -1.3143389933e-01     0.150649   0.08916371  11.65  0.000608895    1.329    0.247
        44 -10.0436    170.1351    228.8187   1.2427298506e+02   8.4844920348e+00    0.1547425    0.1052003  16.88  0.001019188    1.315    0.240
        45 -10.3560    144.6143    227.6932   1.2874348102e+02   1.2005501716e+01    0.2216363    0.1087683 -62.10  0.001116057    3.919    0.745
        46 -10.5111    116.3753    229.1838   1.3410730397e+02   1.5432274533e+01    0.1288823    0.1012517 -86.58 0.0009484854    1.723    0.420
        47  -9.3923    168.2319    250.6381   1.2717507997e+02   6.2295044102e+00    0.1437906   0.07220169  28.19 0.0002071315    1.548    0.354
        48 -10.4437    129.5298    226.6284   1.3140727062e+02   1.4117814621e+01    0.3435435    0.1499927  48.38  0.001477247    2.356    0.576
        49 -10.6040    190.4147    226.4395   1.2040310701e+02   6.0677326053e+00    0.1907294     0.145787   2.90  0.000680971    1.217    0.178
        50  -9.6586     50.0102    240.3112   1.4688113643e+02   2.1249869867e+01     0.138613   0.09706975  46.23 0.0006052686    1.074    0.069
        51 -10.3438     88.1172    227.1079   1.3917399853e+02   1.9154840045e+01    0.1543847    0.1319012  23.53  0.001226472    1.295    0.228
        52 -10.4786     66.5033    226.4211   1.4313119917e+02   2.1678514915e+01    0.2264707    0.1253417  38.55  0.000823168    1.419    0.295
        53  -9.6654      6.6793    227.3073   1.5381144400e+02   2.7118156495e+01    0.1032508   0.04513574  55.96 0.0004613126    1.639    0.390
        54 -10.6501     81.4394    224.9396   1.4024893873e+02   2.0256368808e+01    0.2044273    0.1666275  71.07  0.000889238    1.257    0.205
        55  -9.8278     24.9629    226.0155   1.5061119730e+02   2.5798869438e+01    0.1209881   0.08671787  53.17  0.000564019    1.040    0.039
        56  -9.3655     93.6754    229.3340   1.3832484623e+02   1.8170066342e+01    0.1110792    0.0644473  56.46 0.0007051021    1.711    0.416
        57  -9.2073    109.3513    223.2950   1.3484873179e+02   1.7165434781e+01    0.1050555   0.07809035   8.61 0.0007032612    1.682    0.405
        58 -10.6897     13.1811    222.2191   1.5254449879e+02   2.7412249031e+01    0.1545145    0.1368435  66.01 0.0004214084    1.278    0.217
        59 -11.4366    141.4839    221.4052   1.2859367719e+02   1.3268435267e+01    0.4113027    0.2334783  11.88  0.002168267    2.597    0.615
        60 -11.0203    123.5839    221.3559   1.3195764307e+02   1.5636003195e+01    0.2552795    0.1735936  32.72  0.001141947    1.194    0.162
        61  -9.2093     51.6717    222.6867   1.4563513264e+02   2.3817276207e+01   0.08866688   0.07812292 -10.47 0.0004527335    1.671    0.401
        62 -10.4765    174.2033    219.9387   1.2238879224e+02   9.0210808688e+00    0.2066398    0.1354091  23.53 0.0006678836    1.244    0.196
        63  -9.9503    165.6479    220.2529   1.2398257206e+02   1.0150573569e+01    0.1354736   0.09842978 -20.50 0.0003585219    1.587    0.370
        64 -10.0186     21.8846    220.1452   1.5093259503e+02   2.7019770075e+01    0.1163595    0.1021252  53.09 0.0004037928    1.255    0.203
        65  -9.8055    250.3017    219.0671   1.0951126541e+02  -8.6942126152e-01    0.1504188     0.102167   2.67  0.000714506    1.111    0.100
        66 -11.1208    192.5897    216.4195   1.1862049299e+02   6.9259747466e+00    0.3399356     0.194754   7.58  0.001950552    2.020    0.505
        67  -9.7618     50.4891    218.4420   1.4560706818e+02   2.4628803471e+01    0.1038119   0.07984954  53.16 0.0001410514    1.008    0.007
        68 -10.9195     10.1292    216.9702   1.5291836733e+02   2.8522622628e+01    0.2580719    0.1446558  52.01   0.00129041    1.304    0.233
        69 -10.5824    201.6079    215.9438   1.1697808719e+02   5.7496748688e+00    0.2128949    0.1313818  24.22   0.00138882    1.266    0.210
        70  -9.4314    137.1951    215.6385   1.2872101431e+02   1.4655284880e+01    0.1662213   0.08900905  28.20 0.0009409441    1.686    0.407
        71  -9.6202     30.9768    215.0000   1.4906159564e+02   2.7071445775e+01    0.1605095   0.04795748  30.44 0.0008020964    2.940    0.660
        72 -11.1466    209.4052    211.7257   1.1500258115e+02   5.1615859020e+00    0.3157738    0.1830604   4.28  0.001292792    1.835    0.455
        73 -10.2071    170.0881    213.2660   1.2222995952e+02   1.0436112864e+01    0.1686052    0.1242006  28.70  0.001155583    1.084    0.077
        74  -9.5064    142.5618    213.4607   1.2743042994e+02   1.4235115412e+01    0.1150321   0.09210627  26.95 0.0001657608    1.044    0.042
        75 -11.1140     20.6315    211.5563   1.5082696776e+02   2.8565936081e+01    0.2473883    0.1243269  62.88  0.000705395    1.635    0.389
        76 -11.6041      5.2694    207.6337   1.5351128495e+02   3.0483955853e+01    0.3682851    0.1627893  81.61  0.002366895    2.036    0.509
        77  -9.1011     32.2865    209.6911   1.4856424327e+02   2.7855861964e+01    0.1081781   0.05673002  58.77 0.0005319978    1.573    0.364
        78 -10.3064     10.6487    208.6684   1.5255963428e+02   2.9884642006e+01    0.1864406    0.1143407 -46.45  0.001053947    2.611    0.617
        79  -9.5966    247.5144    207.5307   1.0810585628e+02   5.5678287814e-01    0.1108332   0.08007485   9.13  0.000111032    1.077    0.072
        80 -10.4647    218.4834    206.6596   1.1266944949e+02   4.4823176346e+00    0.2302362    0.1239753   2.13  0.001158227    2.159    0.537
        81  -9.4871     27.5620    205.4978   1.4926273311e+02   2.9010603567e+01    0.1048576   0.07756067  60.17 0.0004150159    1.043    0.041
        82 -10.2434    193.4540    202.5142   1.1637955918e+02   8.4826013319e+00    0.1205694   0.09115742  15.22 0.0001455995    1.051    0.048
        83  -9.5915    238.7743    201.2094   1.0844383362e+02   2.3229485658e+00    0.1609819   0.09911117   9.79 0.0005274276    1.334    0.251
        84  -9.9770    218.2832    201.3453   1.1184636101e+02   5.0999683366e+00    0.1205357   0.07165457   6.22 0.0007015817    1.642    0.391
        85 -10.6614    210.4860    201.0072   1.1312849813e+02   6.2329489619e+00    0.1612488    0.1050651 -25.12 0.0007206787    1.593    0.372
        86  -9.9473    196.6203    201.2220   1.1560751089e+02   8.1869074630e+00    0.1545049   0.09880653 -16.39 0.0006202598    1.644    0.392
        87 -10.2388    186.1533    200.8256   1.1744528592e+02   9.7524943079e+00    0.1725511    0.1174663  13.92 0.0009047114    1.337    0.252
        88 -11.7247    227.3837    196.6564   1.0953922405e+02   4.3555614819e+00    0.3916259    0.1954718   7.30  0.001816175    2.526    0.604
        89 -11.9368    231.9784    191.7548   1.0794214394e+02   4.2549220942e+00    0.3716871     0.171932  18.76  0.001841562    2.367    0.578
        90 -11.6768    192.0198    194.5999   1.1537991838e+02   9.6948004181e+00    0.2936309     0.244859  40.03  0.002004064    1.444    0.308
        91  -9.8843    203.0320    195.9598   1.1361358002e+02   7.9056052314e+00    0.1860427    0.1430524  11.98 0.0006933304    1.025    0.024
        92 -10.2426      1.5607    207.2321   1.5417428089e+02   3.0834337090e+01    0.1709034   0.07855552  86.89  0.001089915    1.954    0.488
        93 -11.3593    215.5714    194.8797   1.1123859990e+02   6.2233652436e+00    0.2087867    0.1516307  -2.19 0.0003813274    1.194    0.163
        94  -9.2899     59.8312    192.6216   1.4197799486e+02   2.8154082017e+01    0.1611943   0.08069263  44.09 0.0005236167    1.652    0.395
        95 -10.4558    250.2645    190.2766   1.0476104568e+02   1.9126565710e+00       0.2067    0.1316644 -25.15 0.0008815271    1.596    0.373
        96  -9.8532    198.6187    191.2579   1.1362588682e+02   9.1433723310e+00    0.1602334    0.1021901 -17.60 0.0009166457    1.616    0.381
        97 -10.0234    163.4928    190.5199   1.2015453999e+02   1.4544258209e+01    0.1982002    0.1094534 -28.59 0.0007792207    2.211    0.548
        98 -10.3524    246.3742    189.9464   1.0531090293e+02   2.4691342877e+00    0.2252762    0.1168425  -9.60 0.0009066051    1.883    0.469
        99 -10.6267    224.7244    189.9836   1.0884266529e+02   5.4788830395e+00    0.1421143   0.09115215 -20.17 0.0004746761    1.484    0.326
       100  -9.2181    205.6177    190.1992   1.1219010850e+02   8.2369369101e+00    0.1586549   0.09990551 -15.40 0.0007053057    1.603    0.376
       101 -11.4255    187.8977    189.0678   1.1523340432e+02   1.1042091505e+01    0.3045635    0.2142395 -17.01  0.001895039    1.459    0.315
       102  -9.5089    179.3326    189.3291   1.1689371874e+02   1.2308116621e+01    0.1290712   0.08321012   7.35  0.000705186    1.719    0.418
       103 -10.5519    218.1436    187.6110   1.0955018107e+02   6.7070249277e+00    0.2385289    0.1234694 -42.09  0.001222576    2.727    0.633
       104  -9.4887    200.5192    185.5285   1.1230585061e+02   9.5930491968e+00    0.1239076   0.09838643  13.47 0.0002548312    1.021    0.021
       105 -10.1657    166.9202    183.2987   1.1832294182e+02   1.5090097552e+01    0.1811655    0.1418156  25.48 0.0005452353    1.079    0.074
       106 -11.6480     16.1166    183.2015   1.5050359093e+02   3.4068223204e+01    0.3285827    0.1792905  80.10  0.001876108    1.629    0.386
       107 -11.8499    248.9435    182.4350   1.0357043225e+02   2.9065812370e+00     0.408734    0.2122623  10.57  0.002231602    1.979    0.495
       108 -10.3673    236.1994    182.3912   1.0559494330e+02   4.6974759974e+00    0.1526678    0.1007693  38.94  0.000943595    1.680    0.405
       109 -10.9808    188.2976    180.9929   1.1378407386e+02   1.2082894283e+01    0.1761139    0.1435685   1.49 0.0004565825    1.105    0.095
       110  -9.9317     22.7788    180.8202   1.4899700004e+02   3.3977538868e+01    0.1731751   0.09827706 -40.40 0.0009643327    2.902    0.655
       111 -11.9978    224.0992    178.3264   1.0686979645e+02   6.9342789275e+00    0.2870785    0.2189218  14.48 0.0005745639    1.073    0.068
       112 -12.2671    244.5323    177.8433   1.0342560761e+02   4.0160923845e+00     0.329259    0.1772761  -0.19  0.001756328    1.932    0.483
       113 -11.2422    200.5395    176.4084   1.1068551809e+02   1.0789155555e+01    0.2535616    0.1846809   9.38 0.0009208329    1.207    0.172
       114  -9.2886     70.4116    177.5310   1.3832397938e+02   2.9815996956e+01    0.1149297    0.1027716  60.51 0.0001163953    1.036    0.035
       115 -10.0351    101.0014    176.0180   1.3126839103e+02   2.6193660059e+01    0.1711496    0.1541136  46.30  0.001153065    1.010    0.010
       116 -10.1793    211.3736    174.8524   1.0844265242e+02   9.3018077197e+00     0.176296    0.1018807 -16.64 0.0009451678    1.772    0.436
       117  -9.4712     61.6113    184.8175   1.4094796824e+02   2.9418425449e+01    0.1569715   0.09940877  88.31 0.0009503145    1.701    0.412
       118 -10.5211      2.2200    180.1038   1.5322763580e+02   3.5711748036e+01     0.180196    0.1240259  50.12 0.0005357623    1.227    0.185
       119  -9.9646    183.5019    173.0070   1.1328637348e+02   1.3978929451e+01    0.1795232    0.1005495 -11.58  0.000810237    2.520    0.603
       120 -10.5052     18.2549    173.3731   1.4957447663e+02   3.5810697649e+01    0.2568613    0.1088403  39.61   0.00146996    1.974    0.493
       121  -9.7880    193.3328    172.3288   1.1128135932e+02   1.2491642819e+01    0.1355331   0.08603483   7.25 0.0007051853    1.719    0.418
       122  -9.3949     59.7729    172.0190   1.4019508528e+02   3.2119874378e+01    0.1484913   0.09218584 -73.96 0.0008717006    1.635    0.388
       123  -9.7231     74.4821    171.4904   1.3676199487e+02   3.0516078659e+01    0.1187571    0.1069579  58.16  0.000135173    1.026    0.025
       124 -10.4605    197.2016    169.3802   1.1000674330e+02   1.2279063711e+01    0.1727639    0.1102092  42.42 0.0006547814    1.632    0.387
       125  -9.7598      4.6353    167.8297   1.5226654300e+02   3.7942108560e+01    0.1599678   0.07917112  81.41 0.0009560984    1.743    0.426
       126  -9.9957    209.9897    166.3127   1.0707910773e+02   1.0633763135e+01    0.1822564    0.1395905  15.30 0.0004843314    1.087    0.080
       127 -10.4962     51.5509    164.5683   1.4140504686e+02   3.4524255958e+01    0.3151606    0.1643416 -39.76  0.001497144    3.043    0.671
       128 -10.6832     40.9043    165.0062   1.4393510804e+02   3.5507049503e+01    0.1696666    0.1412381  69.96 0.0002709235    1.021    0.020
       129  -9.2912    229.5033    164.5459   1.0335220019e+02   7.7802971726e+00    0.1280129   0.09707902   5.34 0.0001512453    1.036    0.035
       130 -11.5157    247.9096    158.5246   9.9197884489e+01   5.6902794770e+00    0.3274446    0.2430502 -16.36  0.002076362    1.228    0.186
       131 -10.8554     36.1543    160.6461   1.4470253167e+02   3.6864027181e+01    0.2490038    0.1612629 -81.38 0.0009327342    1.437    0.304
       132  -9.2215    224.3272    161.2777   1.0358498109e+02   8.9966260933e+00    0.1309185   0.08106086  10.03 0.0003771955    1.593    0.372
       133  -9.6160    200.0595    162.9725   1.0824868438e+02   1.2705938906e+01    0.1601083    0.1275064  18.10 0.0004476027    1.078    0.072
       134 -10.0006     48.2535    158.9888   1.4167198662e+02   3.6032033585e+01    0.1634541     0.140069  87.38 0.0004739454    1.081    0.075
       135 -10.5795     22.2287    156.1962   1.4767670445e+02   3.9011169781e+01    0.3686455    0.1609077  36.55  0.002015904    2.068    0.516
       136  -9.1025     23.7045    152.6714   1.4708740243e+02   3.9640998050e+01    0.1858575    0.1001397 -74.01 0.0005809217    1.679    0.404
       137 -10.3687    217.7413    154.6046   1.0338355641e+02   1.0924489740e+01    0.2453161     0.108138  36.61   0.00113435    2.142    0.533
       138 -10.1928    205.4344    152.3054   1.0511892074e+02   1.3302714704e+01    0.2468379     0.117936 -26.77  0.001131149    2.112    0.527
       139  -9.8811    197.0404    153.5156   1.0693274221e+02   1.4565765962e+01    0.2024396    0.1195725  38.05  0.001036863    1.604    0.377
       140  -9.2032    151.6449    153.3045   1.1620291771e+02   2.2476433197e+01    0.1316996    0.1066455  68.69  0.000595683    1.714    0.417
       141 -10.3398     11.0180    152.9147   1.5012913143e+02   4.0561054304e+01    0.3263527    0.1257421  38.99  0.001747747    2.241    0.554
       142 -10.5952    178.3325    151.3620   1.1016533219e+02   1.8148615761e+01    0.2730147    0.2316541  44.67  0.001617409    1.350    0.259
       143  -9.2374    154.5199    150.5531   1.1503732465e+02   2.2462134490e+01     0.136409    0.1219721  16.09 0.0001753904    1.005    0.005
       144  -9.5975     92.8083    148.1624   1.2926693609e+02   3.2884015926e+01    0.1768421    0.1556359 -12.34  0.001069502    1.342    0.255
       145  -9.5512    213.3106    162.3405   1.0571322411e+02   1.0624594711e+01    0.1360899   0.08443466   6.00 0.0004207018    1.693    0.409
       146 -10.7069     18.1922    146.5267   1.4801628997e+02   4.1401895265e+01    0.2388815     0.167156   4.75 0.0009485427    1.987    0.497
       147 -10.4013    206.8679    145.9671   1.0353255557e+02   1.3952088183e+01    0.2244347    0.1743967  26.83 0.0006895198    1.202    0.168
       148 -10.7603      7.1590    144.1784   1.5058599478e+02   4.2697920706e+01    0.2849177    0.1481494  79.58 0.0009354431    1.690    0.408
       149 -10.6528      2.9287    143.8832   1.5160079608e+02   4.3035647250e+01    0.2063945    0.1612564 -14.37  0.001215174    1.830    0.454
       150  -9.5873     52.5012    144.5843   1.3913102646e+02   3.8700711658e+01    0.1218746     0.109282  75.83 0.0008045275    1.016    0.015
       151 -10.6584    212.0848    142.0265   1.0174714019e+02   1.3597326035e+01    0.3925522    0.2276938  25.06  0.001956041    1.750    0.429
       152 -10.8560     12.2843    140.4728   1.4909918937e+02   4.3157288370e+01     0.235936    0.1761099 -81.13 0.0006709009    1.182    0.154
       153 -10.9265     17.4276    137.9017   1.4761595125e+02   4.3357189018e+01    0.3136781    0.1694262 -50.08  0.001727184    2.138    0.532
       154  -9.8284     22.8634    136.3821   1.4608619045e+02   4.3283487429e+01    0.3262828    0.1106349  25.17  0.001464884    3.113    0.679
       155 -10.6523      2.8209    136.4248   1.5125334465e+02   4.4666484109e+01    0.2638984    0.1314666 -88.96  0.001173925    1.687    0.407
       156 -10.6020      5.9545    133.8050   1.5031042564e+02   4.5052399587e+01    0.2103752    0.1692165 -59.87 0.0005023431    1.361    0.265
       157 -11.6368     57.5434    138.3704   1.3706057093e+02   3.9533630291e+01     0.390606    0.2246315  62.84  0.001178314    1.961    0.490
       158  -9.9781     44.2270    138.2711   1.4060696369e+02   4.0962956128e+01    0.2843515    0.1616399 -85.40  0.001258239    1.773    0.436
       159  -9.6253     41.5012    135.4930   1.4103721660e+02   4.1857809003e+01    0.1746084    0.1041501  43.70 -7.135668e-05    1.626    0.385
       160 -11.3979      9.2372    136.7545   1.4964308697e+02   4.4185756731e+01    0.2152443    0.1882599 -63.35 0.0002375969    1.288    0.223
       161  -9.4323    235.9872    139.0000   9.7045522606e+01   9.9198144399e+00    0.1903733   0.06903772  44.47 0.0007924268    2.874    0.652
       162  -9.9219    138.3520    135.2784   1.1563359530e+02   2.8133902984e+01    0.2638226    0.1629858  28.16 0.0008289476    1.721    0.419
       163 -10.0388     67.6128    133.8997   1.3372776182e+02   3.9357130982e+01    0.1913561    0.1812755   7.60 0.0004292364    1.213    0.176
       164 -11.9600     36.4594    130.8894   1.4192014008e+02   4.3381527038e+01    0.3667182    0.2423218 -76.33  0.001399381    1.357    0.263
       165 -10.2262    249.5087    130.2877   9.3071203900e+01   8.7671806910e+00    0.2520717    0.2007428  -6.03  0.001591161    1.053    0.051
       166 -10.0980    126.5113    129.4780   1.1730106754e+02   3.1386148979e+01    0.1402703    0.1335556   9.32 0.0001277277    1.013    0.013
       167 -10.1692     74.1409    129.2844   1.3122011400e+02   3.9573635264e+01    0.2260387    0.1722897 -49.89 0.0008109722    1.342    0.255
       168 -11.0646     44.7912    125.6691   1.3898675445e+02   4.3794788616e+01    0.2181362    0.1872681  79.86 0.0003839539    1.077    0.072
       169 -10.5580    219.4857    124.4993   9.6538825774e+01   1.4716529263e+01    0.2498515     0.196592   2.46 0.0005168212    1.115    0.103
       170  -9.4712     16.2416    125.4084   1.4699135455e+02   4.6269793851e+01    0.1551354   0.09943763  43.41 0.0009367119    1.557    0.358
       171 -11.9883     10.3497    122.4631   1.4839798243e+02   4.7340492209e+01    0.4512877    0.2922954 -12.40  0.002639052    2.274    0.560
       172 -11.4071     17.7390    116.4950   1.4580949002e+02   4.8235151781e+01    0.3614631    0.2607201 -47.21  0.001372112    1.538    0.350
       173 -12.3698     16.6414    108.8077   1.4541615386e+02   5.0126042624e+01    0.4954993    0.3716312 -80.25 0.0009815748    1.113    0.102
       174 -10.7991     21.2609    121.3140   1.4523319544e+02   4.6855201297e+01    0.3019491    0.1929017 -45.44 0.0008306867    1.793    0.442
       175  -9.5221     41.2104    120.4018   1.3936124205e+02   4.5377715137e+01    0.1651769    0.1089851  45.01 0.0002781936    1.537    0.350
       176  -9.8404    166.5010    119.0535   1.0548574765e+02   2.5800187215e+01    0.2106302    0.1381687 -33.27 0.0005110016    1.499    0.333
       177 -10.2192    179.1582    116.1627   1.0209437471e+02   2.3767690333e+01    0.2199875    0.1806862   6.88 0.0003816965    1.175    0.149
       178 -10.9139     35.3822    113.7970   1.4026693421e+02   4.7479975853e+01    0.2838223    0.1102728 -70.41  0.001234457    2.244    0.554
       179  -9.8931     66.7122    113.0021   1.3061254290e+02   4.4299563149e+01    0.1838671    0.1586864 -69.95 0.0002190181    1.086    0.079
       180 -10.2741     42.3368    110.4799   1.3769108448e+02   4.7627070185e+01    0.2193505    0.1754872 -70.20 0.0002948149    1.113    0.102
       181  -9.8594    167.1876    109.1264   1.0285851690e+02   2.7409503894e+01    0.2296011    0.1887244   0.85 0.0005590774    1.221    0.181
       182 -11.2373     23.3262    106.7339   1.4313473078e+02   5.0151026033e+01    0.3011848     0.182127 -71.32 0.0006006946    1.396    0.284
       183  -9.7748    133.2153    107.5595   1.1049825277e+02   3.4578584655e+01    0.2086336    0.1379737  27.86 0.0004358308    1.671    0.402
       184  -9.3899     61.2922    107.3288   1.3126034655e+02   4.6316096992e+01    0.1380879   0.09714697 -36.31 0.0002412782    1.625    0.385
       185  -9.1613     49.4512    107.4307   1.3500314417e+02   4.7637031340e+01    0.1318362     0.116851 -88.68 5.100619e-05    1.069    0.064
       186 -11.0194      4.4486    101.0814   1.4849462578e+02   5.2685341422e+01    0.2879192    0.2113256  54.26  0.001875807    1.398    0.285
       187 -10.7815      5.8028    106.2386   1.4849009961e+02   5.1392109120e+01    0.2630173    0.1695709 -64.15 0.0008979669    1.383    0.277
       188 -10.4894      2.6792    105.2973   1.4936571104e+02   5.1778905487e+01    0.2045452    0.1723085 -87.28  0.000520324    1.056    0.053
       189  -9.7427    223.3294    103.9437   9.0994311449e+01   1.6830329818e+01    0.1982616    0.1527247 -17.64 0.0004767271    1.124    0.110
       190 -10.0970     93.1644    103.4848   1.2063600166e+02   4.2692147463e+01    0.3652987    0.2021624 -70.47  0.001401703    2.693    0.629
       191 -11.7790     70.0504    102.6015   1.2758351127e+02   4.6324376563e+01    0.4771199    0.2204396  34.07  0.001599028    2.264    0.558
       192 -10.4229    247.9827    102.0075   8.6865230204e+01   1.2487607100e+01    0.1659949     0.131983 -11.22 0.0005680703    1.014    0.013
       193 -10.0613     10.2353    102.5266   1.4680590744e+02   5.2023504256e+01    0.2026874    0.1141896  26.72  0.001137643    2.009    0.502
       194 -10.0594    120.4153    101.2568   1.1226025939e+02   3.8350933518e+01    0.2628138    0.1821087  25.21 0.0005190606    1.635    0.389
       195  -9.7119     36.4379    101.5189   1.3826888599e+02   5.0339805650e+01     0.262658    0.1110495  32.88  0.001189158    2.446    0.591
       196 -10.2854     28.2588    101.0166   1.4086595735e+02   5.1152206418e+01    0.2148614    0.1672794  41.26 0.0006987551    1.400    0.286
       197 -11.7090     20.2383     99.1944   1.4325529637e+02   5.2188522178e+01    0.4266833    0.1708938 -60.80  0.001334561    2.046    0.511
       198 -10.3537     62.0296     98.4799   1.2933240405e+02   4.8343027976e+01    0.4869473    0.2801785 -18.34  0.001909804    3.220    0.689
       199  -9.9902     92.2843     97.0462   1.1935467212e+02   4.4298050105e+01     0.211979    0.1899185 -49.88  0.001174129    1.068    0.063
       200 -10.3793     15.5128     93.9637   1.4421430018e+02   5.3766765264e+01    0.2538811    0.1071339 -81.11  0.001149648    2.138    0.532
       201 -11.2887      8.2322     94.8901   1.4673174345e+02   5.3966499191e+01    0.2159244    0.1948871  84.98 0.0004159845    1.130    0.115
       202 -10.5019     10.2938     91.3481   1.4568550450e+02   5.4708605803e+01    0.2548029    0.1442425 -54.94 0.0005710888    1.613    0.380
       203 -10.6576      2.2341     92.7398   1.4851052479e+02   5.4784409004e+01    0.4091739    0.1179651 -59.43  0.001751158    2.718    0.632
       204 -10.8420     65.8245     98.3449   1.2806333196e+02   4.7893617307e+01    0.3060178    0.2231828 -24.63  0.001125142    1.699    0.411
       205  -9.8767    185.0116     90.8706   9.4306501347e+01   2.6684972635e+01    0.2113202    0.1917039 -45.37 0.0003674186    1.260    0.206
       206 -10.5660     78.2886     90.4893   1.2218467610e+02   4.8012337167e+01    0.3266259     0.225206  70.53  0.001492123    2.077    0.519
       207  -9.2702     25.5138     91.5567   1.4049896582e+02   5.3667455914e+01    0.1283126    0.1090503 -76.53 6.081454e-06    1.013    0.012
       208 -10.6538     96.7730     90.1133   1.1617928069e+02   4.5100309600e+01     0.287689    0.1994147   1.36   0.00125369    2.116    0.527
       209  -9.5169    103.5352     88.5497   1.1368359701e+02   4.4237996846e+01    0.1471871    0.1410279 -34.16 0.0001963456    1.025    0.025
       210 -11.1762     47.2126     83.6274   1.3139308022e+02   5.3652676791e+01    0.6887319    0.3659284 -80.29  0.002718915    2.366    0.577
       211 -11.2767     67.5001     84.8245   1.2443931999e+02   5.0894333055e+01    0.2551002    0.2340139 -20.39 0.0005605876    1.158    0.137
       212 -10.3872     23.9361     85.1607   1.4012427107e+02   5.5350334207e+01    0.1967823    0.1604885  81.47   0.00080436    1.222    0.182
       213 -11.4167    118.2952     82.8577   1.0770415384e+02   4.2597656689e+01    0.3659908    0.2721872 -17.75  0.001139304    1.527    0.345
       214 -11.2364     78.1681     71.9244   1.1715858279e+02   5.2314908698e+01    0.3424067    0.3122388  44.41 0.0008867264    1.214    0.176
       215 -11.2686     75.2201     81.2827   1.2085217500e+02   5.0620132167e+01    0.4351357    0.1894322 -56.17  0.001694651    2.219    0.549
       216 -11.0498     71.8457     79.1175   1.2144800216e+02   5.1624686455e+01    0.2969918    0.2411982 -19.03 0.0002485099    1.379    0.275
       217 -10.7160     74.3372     76.3025   1.1979202620e+02   5.1908576197e+01    0.2702793    0.2096159 -21.92  0.000572486    1.448    0.309
       218  -9.5758     20.3202     82.3181   1.4101708122e+02   5.6299684995e+01    0.1343675   0.08002602 -45.64 0.0003368992    1.663    0.399
       219 -10.2808      7.4562     79.9272   1.4541631097e+02   5.7632309054e+01    0.3018333    0.1633671  68.73  0.001195351    2.048    0.512
       220 -12.2126      5.5270     74.1403   1.4545014475e+02   5.9134123945e+01    0.5755275    0.4851295 -20.92  0.002906733    1.430    0.301
       221 -11.5651     23.8167     78.2963   1.3908939690e+02   5.7044974915e+01    0.2980482    0.1514684 -60.13  0.000730173    1.595    0.373
       222 -11.9184     49.4665     69.8882   1.2735642265e+02   5.6732678258e+01    0.4559329    0.4331866   8.01  0.001984795    1.181    0.153
       223 -11.1366     58.8365     76.7943   1.2554254555e+02   5.3949836786e+01    0.4554792    0.2835965 -72.94  0.001845615    1.853    0.460
       224 -10.6867     54.8183     72.1501   1.2586257032e+02   5.5559125215e+01    0.2585406    0.2091829 -70.16 0.0002961306    1.244    0.196
       225  -9.8007     36.5460     78.3423   1.3427256198e+02   5.5998747034e+01    0.2414016    0.1194812 -70.95 0.0009815963    1.892    0.471
       226 -10.2263     18.7310     79.4549   1.4118323244e+02   5.7106880502e+01    0.1574068    0.1182954 -19.63 0.0009371054    1.619    0.382
       227 -10.1183    150.1937     77.8578   9.7909374786e+01   3.6670088458e+01    0.2289287    0.2052419 -48.40 0.0007045566    1.224    0.183
       228 -10.2524     85.7584     82.7918   1.1770087607e+02   4.8615878674e+01    0.2026353    0.1754539  82.82  0.001073254    1.398    0.285
       229 -10.4498     88.2201     77.2031   1.1528095542e+02   4.9462989578e+01    0.2446467    0.1806897  60.56 0.0004137677    1.735    0.424
       230  -9.0674     12.3177     78.3005   1.4341713572e+02   5.7774682037e+01    0.1302148   0.07735921 -47.53 0.0004192292    1.619    0.382
       231 -10.7278    107.8607     76.0389   1.0867192761e+02   4.6093662410e+01    0.2678748    0.2343205  -0.08  0.000391499    1.200    0.167
       232 -11.2303     62.8977     72.4871   1.2289151416e+02   5.4439388981e+01    0.4286492     0.325462  68.90  0.001564522    1.735    0.424
       233  -9.8840     64.0089     68.2393   1.2126715935e+02   5.5280780078e+01    0.1832757    0.1751995 -32.66            0    1.073    0.068
       234 -10.2233     40.8113     73.4029   1.3159204315e+02   5.6802038621e+01    0.2967095    0.2015367  85.25  0.001498303    1.833    0.454
       235 -11.1905    151.4752     72.3521   9.5892750276e+01   3.7344523703e+01    0.3767153    0.1343936  47.14  0.001250066    2.809    0.644
       236 -10.5952    115.8538     71.0236   1.0469167453e+02   4.5494825619e+01     0.359212    0.2110229 -40.26  0.001206499    1.630    0.387
       237 -10.4352    136.8580     70.3205   9.8763051968e+01   4.1047457780e+01    0.2613242    0.2051751 -42.11 0.0005255578    1.290    0.225
       238  -9.3246    175.2600     70.6900   9.0347794036e+01   3.2077945753e+01    0.1466443    0.1141555 -54.28 0.0001670642    1.528    0.346
       239 -10.6868    127.0914     70.1161   1.0124745590e+02   4.3261809614e+01    0.3917313     0.158668  36.15  0.001244171    3.195    0.687
       240 -12.3469     96.0356     66.9677   1.0946701226e+02   5.0279375402e+01    0.5923007    0.4067848 -21.90  0.002692811    1.688    0.408
       241 -10.8477     68.5787     67.8272   1.1941880051e+02   5.4721838275e+01    0.3964816    0.2441809 -40.03  0.001048806    1.559    0.358
       242 -10.2024    131.0641     67.8865   9.9451820396e+01   4.2797818162e+01     0.384833    0.1987973 -51.46  0.001399887    2.492    0.599
       243 -11.2988     37.3956     67.4950   1.3160566199e+02   5.8568984730e+01    0.5724444    0.2137779 -48.88   0.00234308    2.309    0.567
       244 -10.6544     41.4816     64.4897   1.2919545969e+02   5.8894041186e+01    0.3281352    0.1711114 -77.31  0.001355238    2.519    0.603
       245 -10.4419    122.7903     67.7474   1.0163611762e+02   4.4652837173e+01    0.2491907    0.1912093 -66.14  0.001137659    1.749    0.428
       246 -10.1863    119.0230     65.9148   1.0207369396e+02   4.5820435883e+01    0.2898328    0.2173647  35.44 0.0004610462    1.380    0.276
       247 -10.8486     42.8568     68.1144   1.2954169479e+02   5.7878725313e+01    0.2064369    0.1754045 -82.03  0.001071811    1.241    0.194
       248 -10.7382     31.1184     66.5041   1.3395593779e+02   5.9370176988e+01    0.3004736    0.1852952 -66.96 0.0008980844    1.406    0.289
       249  -9.8815      6.6530     67.9424   1.4421404419e+02   6.0594737917e+01    0.1886297    0.1520165 -40.08 0.0006479464    1.316    0.240
       250 -10.5018     13.9370     66.6883   1.4107261152e+02   6.0528830789e+01    0.3195061     0.153386 -28.48 0.0009916188    2.669    0.625
       251 -10.6958      3.0226     63.5195   1.4509283345e+02   6.1828793925e+01    0.2057533    0.1481789  83.79 0.0009305955    1.350    0.259
       252 -10.1054    156.4844     66.5002   9.2899308002e+01   3.7165022334e+01    0.1546847    0.1441084  -8.07 0.0005221455    1.008    0.008
       253 -10.1347    138.2109     65.6445   9.6878029303e+01   4.1579731095e+01    0.2287522    0.1984213  71.67   0.00055221    1.398    0.285
       254 -11.6241     84.9930     64.1662   1.1227977408e+02   5.2890201862e+01    0.5755268    0.3713539 -61.65  0.002538743    1.923    0.480
       255 -10.9710     21.2087     66.0464   1.3796245136e+02   6.0234229992e+01    0.1976742    0.1640699  60.72 0.0008944665    1.379    0.275
       256 -10.4751     76.9862     65.5010   1.1558407459e+02   5.3948621254e+01    0.3234338    0.1346055  43.59  0.001207834    2.729    0.634
       257 -11.1805    174.3566     63.8941   8.8426370581e+01   3.3334182584e+01    0.2602885    0.2543786  79.24 0.0004155382    1.172    0.147
       258 -10.4297     51.8061     62.6060   1.2443999774e+02   5.8189704400e+01    0.2833911     0.185207 -36.12 0.0009948551    1.537    0.349
       259 -11.2000     11.2229     61.8645   1.4140866679e+02   6.1855783078e+01    0.3351152    0.2183447 -51.10  0.001285631    1.341    0.254
       260 -10.3638    121.9438     61.7975   9.9832775110e+01   4.5958511405e+01     0.244948    0.2036073  12.27  0.001034417    1.276    0.216
       261 -10.7309     64.9351     60.2990   1.1846654303e+02   5.6972324950e+01    0.3271155     0.198053  45.57  0.001516551    1.961    0.490
       262 -10.1855     70.6818     61.4648   1.1662223427e+02   5.5847845559e+01    0.4173662    0.2048687  42.10 0.0005645512    2.289    0.563
       263 -10.1958     70.5430     58.4611   1.1567302853e+02   5.6537396204e+01    0.3032165    0.1945294 -27.90 0.0005031839    1.747    0.428
       264 -11.1310     57.8031     60.8055   1.2146863990e+02   5.7848603471e+01    0.3366202    0.2053663 -23.45  0.001493198    2.148    0.535
       265 -10.7767     27.2835     61.2304   1.3440479815e+02   6.0965945905e+01    0.4697055    0.1933429  18.29   0.00203118    2.975    0.664
       266 -10.2108     32.6567     60.6645   1.3196224189e+02   6.0656110374e+01    0.3103774     0.171505 -39.14  0.001373996    1.816    0.449
       267  -9.3696    151.0226     60.5016   9.2132231087e+01   3.9446274661e+01     0.217107    0.1519513  50.39 0.0009921957    1.472    0.320
       268 -10.6086     18.0787     59.3166   1.3798976817e+02   6.2083284806e+01    0.2443013     0.162163 -78.96 0.0003367801    1.409    0.290
       269 -11.4563    137.3241     56.1076   9.3817122657e+01   4.3433077119e+01    0.5314146    0.2810947 -24.51   0.00206225    2.027    0.507
       270 -12.4104    128.0136     51.5124   9.4501831978e+01   4.6398225890e+01    0.3802685    0.3091462 -30.00  0.001900296    1.181    0.153
       271 -11.7632    134.7247     49.7783   9.2175111368e+01   4.5095293635e+01    0.6744733    0.3989248  77.22  0.002383188    3.123    0.680
       272 -10.4997    114.8064     57.3423   1.0027278700e+02   4.8356991917e+01    0.2778366    0.1369441  36.79 0.0006288165    2.309    0.567
       273 -10.8508     86.0410     58.0174   1.0978442268e+02   5.4011334707e+01    0.3752976    0.2512125 -53.86  0.001060005    1.610    0.379
       274 -10.9925    122.0393     56.0234   9.7749305762e+01   4.6989235824e+01    0.2310184    0.2140027 -12.10 0.0003404334    1.009    0.009
       275 -10.0901     96.2484     52.9940   1.0443068564e+02   5.3078786774e+01    0.2280122    0.2073044 -12.86 0.0003093971    1.033    0.032
       276 -10.9525     98.7489     56.1818   1.0479620216e+02   5.1952056199e+01    0.3623267    0.2226582  32.11 0.0007870403    1.820    0.451
       277 -11.2322    157.2403     53.2698   8.8353974088e+01   3.9080557882e+01    0.2935448    0.2473687  -5.08 0.0003909712    1.180    0.152
       278  -9.4270    108.2946     54.3346   1.0110316543e+02   5.0326301335e+01    0.1574864    0.1159569   0.65 0.0003327523    1.643    0.391
       279 -11.2509     38.3740     51.5415   1.2696879766e+02   6.2290358602e+01    0.5857871    0.2955105 -45.45  0.002751055    1.722    0.419
       280 -10.1590     18.0280     46.4651   1.3516607326e+02   6.5190472378e+01    0.2255962    0.1288739   2.51  0.001159825    2.220    0.550
       281 -11.1667     13.1632     50.2527   1.3836089344e+02   6.4573149959e+01    0.4189771    0.1760351 -62.35   0.00199209    1.789    0.441
       282 -12.5969      7.8364     44.2596   1.3966845902e+02   6.6286272001e+01    0.8830345    0.3787975 -57.26  0.004379896    1.721    0.419
       283 -10.7996     73.5152     52.3071   1.1234741123e+02   5.7393658885e+01    0.3499087    0.2619207  86.43  0.001595232    2.283    0.562
       284  -9.8440     86.9407     52.5296   1.0745163409e+02   5.4974592704e+01    0.2157245    0.1470257  39.54   0.00102102    1.560    0.359
       285 -10.5252     45.2890     50.9962   1.2368777926e+02   6.1666968364e+01    0.3070241    0.2326484 -12.15  0.001687802    1.496    0.332
       286 -11.6030    114.5942     49.6339   9.7462113607e+01   4.9800569651e+01    0.4027722    0.2826065  18.28  0.001802721    1.710    0.415
       287 -10.1590     83.1526     51.1277   1.0828281252e+02   5.5959211259e+01    0.2343126    0.1878119 -15.21  0.001104465    1.286    0.223
       288 -11.2449     51.9684     49.6289   1.2027983093e+02   6.1163609881e+01    0.3770494    0.2976415 -11.47  0.001553279    1.387    0.279
       289 -10.9187     49.4068     44.9368   1.1976499954e+02   6.2541274599e+01    0.3266451    0.2232018  40.49 0.0005997243    1.727    0.421
       290 -10.0933     52.0345     42.0345   1.1749019888e+02   6.2835242563e+01    0.2598008    0.1609371 -43.43 0.0006097857    1.399    0.285
       291 -12.0718    142.0612     46.3340   8.9190048013e+01   4.3858047337e+01    0.5919471    0.3445782 -35.20  0.002250893    1.657    0.396
       292 -10.7693    162.8204     47.6759   8.5340883824e+01   3.8527424028e+01    0.2649382    0.2284171 -27.02 0.0003367654    1.115    0.103
       293 -10.9887    152.5514     46.4477   8.6960029949e+01   4.1252888174e+01    0.6884209    0.3325776 -59.65  0.001856646    5.176    0.807
       294 -10.7468     91.8788     45.7827   1.0309504575e+02   5.5338507904e+01    0.3250954    0.1937926 -42.24 0.0006995538    1.622    0.383
       295 -10.4382    123.5783     38.2395   9.0545175918e+01   4.9587816086e+01     0.283834    0.1522695 -23.19 0.0004463564    1.933    0.483
       296 -10.7655    122.0108     45.1821   9.3689384368e+01   4.8858399422e+01    0.3113053    0.2866411   2.41  0.001663217    1.028    0.027
       297 -10.3429    121.6803     41.6866   9.2409898151e+01   4.9502016536e+01    0.2454695    0.1837074  33.24 0.0007191708    1.369    0.270
       298 -10.1689    119.7102     39.3066   9.1984315178e+01   5.0344166833e+01    0.2833326       0.2033 -28.68 0.0003987046    1.338    0.252
       299 -10.1998    104.4461     46.4347   9.9249302123e+01   5.2603177777e+01    0.1534546    0.1376942  -4.13 0.0002777367    1.061    0.057
       300  -9.8454    233.1568     45.1434   7.4332890121e+01   2.2271545287e+01    0.1981966     0.164082  -2.50 0.0004509522    1.191    0.161
       301  -9.9327     86.0580     44.9788   1.0481468093e+02   5.6633208725e+01     0.177235    0.1620127 -13.93 0.0003784111    1.019    0.019
       302  -9.5505     74.9748     43.9921   1.0856741479e+02   5.8863987106e+01    0.1740412    0.1569157  16.52 0.0007583263    1.152    0.132
       303 -11.8514     64.7125     41.1549   1.1157899784e+02   6.1157386451e+01    0.4909633     0.332021  -2.69 0.0009199514    1.950    0.487
       304 -10.5444    163.0551     42.0749   8.3376123915e+01   3.9247428772e+01    0.2367306    0.1766078 -57.96 0.0005320009    1.605    0.377
       305  -9.7298     56.2657     41.4263   1.1535061829e+02   6.2378756568e+01     0.236848    0.1653291 -64.83 0.0008559776    1.807    0.447
       306 -10.5610     24.2312     41.6869   1.3079597070e+02   6.5876801220e+01    0.2514656    0.2211266 -28.68  0.001625154    1.163    0.140
       307  -9.9365    226.3279     40.8861   7.3928752824e+01   2.4233347562e+01    0.1956963     0.162802 -19.76 0.0008895822    1.074    0.069
       308 -10.0519    110.1909     41.3673   9.5478869404e+01   5.2212744797e+01    0.3104136    0.1983414  79.48  0.001139237    3.077    0.675
       309 -11.0001     95.4326     40.4548   9.9703840868e+01   5.5587923320e+01    0.4154693    0.2667877  57.43  0.001846761    1.936    0.483
       310 -10.6529     90.0359     40.3562   1.0149567500e+02   5.6715583511e+01    0.2654856    0.2489959  88.30  0.000672471    1.357    0.263
       311  -9.9948     44.1615     39.9812   1.2038193676e+02   6.4286970112e+01    0.2605633    0.1607645 -48.12 0.0009812793    1.381    0.276
       312 -11.6564     82.5523     36.4616   1.0250131757e+02   5.8907135916e+01    0.3660748    0.2939827 -30.89  0.000890766    1.150    0.131
       313 -10.3302     77.1225     49.8008   1.1002323679e+02   5.7306113102e+01    0.2057624    0.1626987 -14.36 0.0009067688    1.329    0.248
       314 -11.7015    104.3972     36.0106   9.4972694569e+01   5.4401130753e+01     0.553495    0.3648609  18.79  0.001407811    1.865    0.464
       315  -9.7577    164.2866     36.3389   8.1163861613e+01   3.9693665531e+01     0.157463    0.1101186  20.37 0.0007018085    1.635    0.388
       316 -11.2554     24.6242     35.3979   1.2861801553e+02   6.7300588954e+01    0.2402852    0.2295603 -44.47 0.0005225107    1.182    0.154
       317 -10.9499    110.9054     34.0132   9.2215009971e+01   5.3232959866e+01    0.4846042     0.251315 -33.51  0.001340532    1.840    0.457
       318 -10.5231     76.1062     33.7425   1.0374006672e+02   6.0629918086e+01    0.2941251    0.2362529  -2.84   0.00113476    1.268    0.211
       319 -10.3492     78.1733     30.0789   1.0125880661e+02   6.0893822216e+01    0.2706343    0.2140498 -21.32  0.000265772    1.163    0.140
       320 -10.5945     81.8162     29.5950   9.9663173192e+01   6.0262791830e+01    0.2726102    0.2521962   4.66 0.0009853642    1.079    0.073
       321 -10.6326      8.8536     33.3640   1.3656205039e+02   6.8819480819e+01    0.3675428     0.258992 -74.11  0.002216488    1.335    0.251
       322  -9.7306      1.5651     31.4796   1.4014183353e+02   6.9578164837e+01    0.2186179    0.1298095 -29.72 0.0007806995    1.713    0.416
       323 -11.6907      6.0468     29.9595   1.3722859238e+02   6.9749188463e+01    0.4190185    0.2300152 -41.75 0.0004458959    1.564    0.361
       324 -10.9993      8.5172     25.9886   1.3464839607e+02   7.0544738074e+01    0.4923994    0.1720027 -39.11  0.002129096    2.602    0.616
       325 -10.9601    150.6180     34.0249   8.2857846337e+01   4.3464821257e+01    0.4169842    0.2511183 -81.49  0.001517463    3.001    0.667
       326 -11.6763    145.2031     31.6758   8.3049280973e+01   4.5147909357e+01    0.4058039    0.2887129  24.68  0.000313197    1.538    0.350
       327 -10.5687     97.3788     32.6630   9.5704127844e+01   5.6498180295e+01    0.4306098    0.2390208 -12.04  0.001630685    2.501    0.600
       328 -10.5544     53.6805     33.8827   1.1341085373e+02   6.4325596747e+01    0.3950694    0.2081297  11.39  0.001466396    3.435    0.709
       329  -9.5037     31.1870     34.1378   1.2470924571e+02   6.6996136929e+01    0.1572175    0.1444025 -64.55 0.0002530642    1.233    0.189
       330  -9.5462     18.7918     32.0496   1.3067451447e+02   6.8516901733e+01    0.1768589   0.08745859 -61.29  0.000393526    1.693    0.409
       331  -9.0645     90.2591     31.3725   9.7481705053e+01   5.8235429414e+01    0.1534447    0.1079329  -0.50 0.0004841014    1.653    0.395
       332 -10.4715     57.5456     29.6543   1.0972960171e+02   6.4587178377e+01    0.3173428    0.2287821 -61.23  0.001260289    1.867    0.464
       333 -10.4232     49.9308     28.3642   1.1273664670e+02   6.5977847712e+01    0.3338487    0.1741062 -29.46  0.001178726    2.076    0.518
       334  -8.9575    124.3792     28.2829   8.6276842586e+01   5.0829265530e+01    0.1637928    0.1065167  27.04 0.0007011573    1.721    0.419
       335 -10.5400    172.3051     27.0464   7.6643411763e+01   3.8776732070e+01    0.2071322     0.179383 -26.67 0.0004492208    1.115    0.103
       336 -11.0276    152.4612     26.7376   7.9805580079e+01   4.3907686559e+01    0.2997391     0.205653 -89.39 0.0008777927    1.939    0.484
       337  -9.7466    130.8646     26.6730   8.4112061763e+01   4.9425908773e+01    0.3284204    0.1545634  60.07  0.001264278    2.191    0.544
       338  -9.7318    129.0476     23.6789   8.3281716244e+01   5.0264091850e+01    0.2097713    0.1931547  32.97 0.0005943507    1.058    0.055
       339 -10.6540    113.3859     25.2816   8.7756443681e+01   5.3919388515e+01    0.2459388    0.2396824 -11.11 0.0004256814    1.113    0.102
       340 -10.0134     89.7849     26.0707   9.5183344339e+01   5.9191193681e+01    0.2928782    0.2046584  86.78  0.001200428    2.823    0.646
       341 -11.2098     71.0152     26.0094   1.0214319883e+02   6.2955826840e+01    0.4360245    0.2264451  35.89  0.001900267    2.072    0.517
       342 -11.7528     67.1144     21.9574   1.0173993626e+02   6.4367499638e+01    0.3576184    0.3181003  12.95  0.002013622    1.123    0.109
       343 -10.3154     54.0371     23.4199   1.0837806197e+02   6.6320554062e+01    0.2556697    0.1667243 -25.70 0.0006147843    1.466    0.318
       344 -10.7195    100.1236     22.6833   9.0294997531e+01   5.7400327196e+01    0.3173442    0.2693427 -38.15  0.001141982    1.265    0.210
       345 -12.2905    226.1569    245.5812   1.1709524436e+02  -3.4896965186e-01      0.53452    0.2653855   6.99  0.003258111    2.222    0.550
       346 -12.1660    233.0617    246.1720   1.1610040691e+02  -1.2122223825e+00    0.2841433    0.2214067  -7.13  0.002420124    1.448    0.309
       347 -11.0640    123.9632     21.5754   8.3541214090e+01   5.1803201797e+01    0.3300645    0.2414233  49.78 0.0003528969    1.336    0.252
       348 -11.0078     81.5174     18.3436   9.4254077082e+01   6.2114825669e+01    0.3540051    0.2292698 -17.76 0.0009411301    1.529    0.346
       349 -10.2568     84.3292     22.2915   9.5241012233e+01   6.0932075447e+01    0.2328674    0.1982066  11.67 0.0008843171    1.113    0.102
       350  -9.6003    160.9376    250.0000   1.2833945564e+02   7.2027932839e+00    0.1729098     0.044114  35.82 0.0004195133    2.864    0.651
       351  -9.9780    137.2821    246.9652   1.3209515981e+02   1.0483798927e+01    0.1383844    0.1124789  28.15 0.0006388578    1.114    0.102
       352  -9.7438     45.0111     20.5325   1.1143698740e+02   6.8200195867e+01    0.1885132     0.130867  27.94 0.0005275878    1.565    0.361
       353 -11.0998    156.3442    245.9893   1.2869336078e+02   8.2318521595e+00    0.1436214    0.1126012  23.56 0.0006301606    1.096    0.088
       354  -9.6269     34.4611     19.5479   1.1669899230e+02   6.9751727456e+01    0.1356307    0.1084552 -28.72 0.0008070476    1.043    0.041
       355  -9.1109      5.2792     17.7007   1.3396700240e+02   7.2585677029e+01    0.1097147   0.09038318  83.81 0.0004748026    1.541    0.351
       356  -9.1902     76.3212     16.2956   9.5098211347e+01   6.3489014205e+01    0.1479721     0.101568  11.97 0.0007018572    1.616    0.381
       357 -10.6002     60.7019     15.2974   1.0100034151e+02   6.6625918320e+01    0.2667459    0.1558226 -42.48  0.001264609    1.780    0.438
       358  -9.3891      9.5247     16.5124   1.3074624234e+02   7.2616202172e+01    0.1253712    0.1005057 -48.39  0.000117895    1.055    0.052
       359 -10.8541    130.9923     15.2408   7.9337621537e+01   5.0757508478e+01    0.2641201    0.2127212  77.87 0.0009212668    1.407    0.289
       360 -11.7355     14.3575    244.6833   1.5301141052e+02   2.3832816396e+01    0.2163729    0.1101953  77.14  0.001652758    1.793    0.442
       361 -10.1049     35.5509     14.9329   1.1371865003e+02   7.0524045890e+01    0.1814124     0.151549 -20.36 5.150926e-05    1.047    0.045
       362  -9.6719    166.3143     14.6906   7.3200371117e+01   4.1635958666e+01    0.1512932    0.1045742 -55.85 0.0003744272    1.630    0.387
       363 -10.0228     99.6608     14.2763   8.6394451618e+01   5.8622108264e+01    0.2446692     0.188858   4.91 0.0006871541    1.284    0.221
       364 -10.8292      6.4903    245.0908   1.5428239647e+02   2.4413755634e+01    0.1871311    0.1107984  82.51 0.0009378258    1.569    0.363
       365 -11.8531      8.4908    241.6776   1.5387974063e+02   2.4759278400e+01    0.3040977    0.1325573  59.00  0.002218825    1.673    0.402
       366  -9.5537    115.1982     13.2239   8.1881916344e+01   5.4979426023e+01    0.1977963    0.1713206 -52.66 0.0006967315    1.343    0.255
       367 -10.0538    136.9373     20.1574   8.0182052082e+01   4.8678321594e+01    0.2221234    0.2017405 -61.49 0.0003266236    1.244    0.196
       368  -9.6667    108.1646     17.1644   8.5452949405e+01   5.6238409852e+01    0.2254617    0.1776214 -61.18 0.0004966433    1.647    0.393
       369 -11.1566    147.1372    244.0553   1.3008388089e+02   9.6141611140e+00    0.1979931    0.1177495  33.30 0.0008973594    1.246    0.197
       370  -9.7407    115.4471    244.2851   1.3567129463e+02   1.3480399003e+01    0.1169663   0.09591807  78.98  0.000942356    1.568    0.362
       371 -10.2587    109.7570    243.2283   1.3658482428e+02   1.4299868049e+01    0.2252725    0.1318064  56.42  0.001463971    1.836    0.455
       372 -10.1920     71.9644    244.0048   1.4328429726e+02   1.8460411063e+01    0.1542239    0.1173551  44.21 0.0006954325    1.059    0.056
       373 -11.7329     34.7729    241.6104   1.4953838609e+02   2.2504408781e+01    0.3357051    0.2060325  31.09  0.002598953    1.556    0.357
       374 -10.6716     31.7278    237.2100   1.4987809703e+02   2.3445299346e+01    0.2564572    0.1084086  63.53 0.0009436753    2.116    0.527
