#   1 NUMBER                 Running object number                                     
#   2 MAG_AUTO               Kron-like elliptical aperture magnitude                    [mag]
#   3 X_IMAGE                Object position along x                                    [pixel]
#   4 Y_IMAGE                Object position along y                                    [pixel]
#   5 X_WORLD                Barycenter position along world x axis                     [deg]
#   6 Y_WORLD                Barycenter position along world y axis                     [deg]
#   7 A_WORLD                Profile RMS along major axis (world units)                 [deg]
#   8 B_WORLD                Profile RMS along minor axis (world units)                 [deg]
#   9 THETA_WORLD            Position angle (CCW/world-x)                               [deg]
#  10 FWHM_WORLD             FWHM assuming a gaussian core                              [deg]
#  11 ELONGATION             A_IMAGE/B_IMAGE                                           
#  12 ELLIPTICITY            1 - B_IMAGE/A_IMAGE                                       
         1 -15.0681    146.6144    107.5364   5.0016746291e+01   3.1275207030e+01     1.989598     1.798519 -80.61   0.01005866    1.201    0.167
         2 -12.2894     25.8641     63.6786   7.6727685027e+01   6.0941902304e+01     1.050399    0.3672679  21.31   0.00453225    3.138    0.681
         3 -14.1483    154.3778    118.6803   5.1034729511e+01   2.7101387423e+01     1.406941    0.8977971  30.03  0.005631631    1.961    0.490
         4 -10.0040     55.1844     10.8005   4.5019570787e+01   6.5083673123e+01    0.1752201    0.1119508  20.97  0.001079824    1.343    0.255
         5 -11.0587     84.3548      8.2070   3.4752815747e+01   5.9987606529e+01    0.2157398    0.1497773  32.43 0.0005078266    1.223    0.183
         6 -11.4297     88.7207      4.4193   3.2201053583e+01   5.9410224281e+01     0.268981    0.2182265 -82.16  0.001576343    1.813    0.448
         7 -12.6196    198.0220      5.0000   1.5064844299e+01   3.4520402540e+01    0.6210137    0.1470547  61.72  0.002445341    3.255    0.693
         8 -12.5976     20.9359      4.4995   5.6633698924e+01   7.0528268784e+01    0.4909655    0.2479653  29.46  0.003066584    1.756    0.431
         9 -11.7279    160.2680      3.5257   1.8923239629e+01   4.3399305792e+01    0.2582434    0.2093572  73.80  0.001700916    1.021    0.021
        10 -11.1276    189.6908      2.0201   1.5234946897e+01   3.6705586936e+01    0.2897953    0.1292398  65.69  0.001482681    1.829    0.453
        11 -10.0114    100.5401      2.5080   2.8726950477e+01   5.7082810972e+01    0.1241672   0.09838659  47.25 0.0003348006    1.003    0.003
        12  -9.3059    178.4450    228.5776   6.9005217615e+01  -1.3893953328e+00     0.139833    0.1210072  15.54 7.252784e-05    1.044    0.042
        13 -14.6199     61.3442    233.4057   9.5407445180e+01   1.6984225732e+01     2.228508     1.537475  51.86   0.01302646    1.264    0.209
        14 -15.1094     95.0174    195.7128   8.2892239457e+01   2.0514257015e+01     2.167268     1.277681 -70.30   0.00610727    1.872    0.466
        15 -16.8500     17.0561    238.0274   1.0451426618e+02   2.1490877470e+01     2.206228     1.932318  53.24   0.01198801    1.368    0.269
        16 -10.6976     92.9069    219.1029   8.6809068380e+01   1.5403608555e+01    0.2236342    0.1940192  63.16  0.001028066    1.028    0.027
        17 -12.8091     54.4550    248.7510   9.8228705072e+01   1.4703303942e+01    0.5904216    0.4194897  53.16  0.001778866    1.187    0.158
        18 -11.0268    223.3280    220.3527   5.8235210981e+01  -7.2919180721e+00    0.2349001    0.2117578 -16.68 0.0006174396    1.194    0.162
        19 -10.5239    173.7484    219.9053   6.8495133279e+01   1.0524592320e+00    0.2957324    0.1661993 -41.28  0.001310761    1.893    0.472
        20  -9.6352    159.9167    221.5823   7.1860021541e+01   3.1901961191e+00    0.2007224    0.1189072  15.80 0.0005508238    2.418    0.586
        21 -11.0937    125.2779    221.8186   7.9770300922e+01   9.3227326732e+00    0.2924428    0.2503297  83.13 0.0004138266    1.288    0.224
        22 -16.3356     70.1731    193.0047   8.8614418762e+01   2.5074953923e+01     4.016126     2.832998 -89.39   0.02043742    1.466    0.318
        23  -9.9536    184.2835    213.6564   6.5049288881e+01   3.8193527564e-01    0.1338313    0.1155486  82.34 0.0002509525    1.639    0.390
        24 -10.6273    135.8460    212.0049   7.5728425206e+01   9.5413544463e+00    0.3740027     0.220914 -49.24  0.001681998    1.813    0.448
        25 -10.1613    125.1172    212.5741   7.8339007063e+01   1.1357158440e+01    0.2924598    0.1848006 -36.95  0.000886497    1.989    0.497
        26 -10.1812    210.1935    211.7968   5.9242173224e+01  -3.7264438034e+00    0.2096732     0.158932  85.55 0.0009489104    2.821    0.646
        27 -11.2622    141.6437    211.2112   7.4238502517e+01   8.6511569180e+00    0.2963089    0.2434864  65.30 0.0006618796    1.358    0.264
        28 -10.1493    227.5332    211.5080   5.5746195317e+01  -6.4572889897e+00    0.1345842    0.1143953  -7.27 0.0002497809    1.011    0.011
        29 -11.7768    153.6534    210.0985   7.1257625704e+01   6.6708434227e+00    0.4648298    0.2624102  24.98  0.001897446    2.124    0.529
        30 -10.2725    224.1485    205.8787   5.5319025262e+01  -4.9559490078e+00    0.1975491    0.1923091 -29.64  0.001245607    1.312    0.238
        31 -11.0588    166.0327    204.5253   6.7392628041e+01   5.5286862155e+00    0.3383256     0.193903 -52.43  0.001455945    1.955    0.488
        32 -10.5314    160.0471    206.5317   6.9136265608e+01   6.2293418578e+00    0.2306096    0.1383719  38.94  0.001023271    1.569    0.363
        33  -9.9269    123.9938    205.6817   7.7463958954e+01   1.3100130315e+01     0.208527    0.1822129  42.58 0.0004392889    1.082    0.076
        34 -12.5569    146.7899    202.3999   7.1459589162e+01   9.6030451969e+00     0.465295    0.4024482  10.39  0.002446361    1.254    0.203
        35 -10.8737    129.7413    201.1044   7.5294799833e+01   1.3084426089e+01    0.2872427      0.20059   8.71  0.001231276    2.094    0.522
        36 -10.5556    212.0566    199.5965   5.6489847088e+01  -1.8249056375e+00    0.2659706    0.1925936 -52.48  0.001005992    1.658    0.397
        37 -11.5289    124.4020    195.4433   7.5590418048e+01   1.5376471819e+01    0.3805343    0.3506628 -11.59  0.001947131    1.235    0.190
        38 -11.3810    192.7253    194.8330   5.9573963544e+01   2.5254593601e+00    0.4719523    0.2708602 -37.97  0.002100017    1.742    0.426
        39 -10.9427    189.4807    195.0103   6.0310249570e+01   3.0897574822e+00    0.2875593    0.2548602 -26.66  0.001436019    1.104    0.094
        40 -10.2452    172.8806    195.8067   6.4152051703e+01   6.0514804714e+00    0.2221272    0.1958712   4.11 0.0003298685    1.149    0.130
        41  -9.7413    157.6953    193.3157   6.7167389425e+01   9.5053479326e+00    0.1506872    0.1211961  77.46 0.0002950296    1.623    0.384
        42  -9.9670    113.0184    227.9772   8.3472184336e+01   1.0127345596e+01    0.2116281    0.1734504  -3.49 0.0008063638    1.668    0.401
        43 -10.8622    212.0609    223.5536   6.1069712386e+01  -6.0712361117e+00     0.300705    0.2110378  -3.59  0.001615337    1.500    0.333
        44 -11.2779    142.7835    189.4000   6.9969448962e+01   1.3277503481e+01    0.2890347    0.1955846 -63.17  0.001268159    1.727    0.421
        45 -14.3860     12.1073    218.5227   1.0411748789e+02   2.6199619747e+01    0.9515365    0.5641907  26.22  0.005494348    2.226    0.551
        46 -14.9486      8.0386    227.4389   1.0549973170e+02   2.4674459121e+01    0.9927008    0.5050778  41.92  0.004285706    1.867    0.464
        47 -10.6232    123.3295    187.6861   7.4445880423e+01   1.7401440690e+01    0.3136766    0.2309966  53.79 0.0009432943    1.387    0.279
        48 -10.1787    248.4910    185.9568   4.6888297622e+01  -5.3098762020e+00    0.2166905    0.1880519  51.89 0.0007212145    1.543    0.352
        49 -10.9161    144.0688    182.1523   6.8226771424e+01   1.4691350631e+01    0.2479709    0.2162008   2.58  0.001234065    1.296    0.228
        50 -10.1781    118.5725    178.6573   7.3949481056e+01   2.0466905262e+01    0.3030658    0.1450433 -49.29  0.001136116    2.114    0.527
        51 -10.7508    190.7382    177.9764   5.6527059909e+01   6.3255279811e+00     0.309294    0.1922618  64.49  0.001187163    2.684    0.627
        52 -12.7774    138.9173    176.2562   6.8308126129e+01   1.7091488254e+01    0.4901903    0.4363627 -15.13  0.002470916    1.254    0.202
        53 -10.5128    191.7660    225.3715   6.5594340927e+01  -3.0710606949e+00    0.1842234     0.169974  -3.42  0.001117514    1.106    0.096
        54 -15.0524     62.8634    205.3952   9.1972045684e+01   2.3133758166e+01     2.549122    0.9514185  41.70   0.01035546    2.452    0.592
        55 -10.9606    154.8330    176.8636   6.4522353680e+01   1.3750551472e+01    0.2166272    0.1896879  82.41 0.0004618702    1.341    0.254
        56 -11.2069    128.0343    176.0964   7.1025259412e+01   1.9274104512e+01    0.2564302    0.1929927  79.13 0.0008078745    1.712    0.416
        57 -10.6197      6.9375    175.1508   1.0171168301e+02   3.6676222748e+01    0.2056764    0.1450994 -67.32 0.0004514049    1.242    0.195
        58  -9.9949    113.6812    175.1234   7.4535218005e+01   2.2246684548e+01    0.2172307    0.1939201 -54.90 0.0004568329    1.129    0.114
        59  -9.8498    104.2707    174.9827   7.6969808291e+01   2.3999474803e+01    0.2146722    0.1928104 -66.39 0.0003390153    1.098    0.090
        60 -11.1807     27.3762    172.1005   9.6507015821e+01   3.5549978119e+01    0.2415298    0.2101766 -52.24  0.001351213    1.281    0.220
        61 -11.8804    105.9292    170.1830   7.5621665930e+01   2.4895269631e+01    0.4399795    0.3405822  71.02  0.001416969    1.474    0.322
        62 -12.2336     92.4790    169.4913   7.9084087303e+01   2.7428999973e+01    0.4772449    0.3269889 -89.89  0.001738392    1.867    0.464
        63 -11.5814     89.6662    167.2885   7.9437070592e+01   2.8457768005e+01    0.4273176    0.2721617 -76.60 0.0009586582    1.863    0.463
        64 -10.5548      3.0401    170.7507   1.0221275957e+02   3.8034977958e+01    0.2701696    0.1367666 -70.78 0.0007677348    1.556    0.357
        65 -12.7065     48.7788    168.8462   9.0634844677e+01   3.3980549913e+01    0.5469189    0.4128086 -25.78  0.002006311    1.781    0.439
        66 -12.4565    131.6475    168.3472   6.8514664402e+01   2.0428070991e+01    0.4767346    0.3190853  49.26  0.002064525    1.531    0.347
        67 -10.7730     91.1027    236.7898   8.9462191039e+01   1.1841787071e+01    0.2166835    0.1615422  61.88  0.000677392    1.224    0.183
        68 -11.5603     28.9190    166.3735   9.5438144673e+01   3.6808709384e+01     0.426093    0.1709762  24.96   0.00178645    3.067    0.674
        69 -10.9868    205.8666    164.8425   5.0533282203e+01   6.0709116844e+00    0.2353547    0.2000107  -6.89 0.0008139407    1.247    0.198
        70 -11.1844     22.3030    164.0351   9.6837027832e+01   3.8025846320e+01    0.2416925     0.147412 -81.23 0.0007255588    1.463    0.316
        71 -11.5450     21.2341    160.4441   9.6684550454e+01   3.9007855677e+01    0.4039451    0.2578762   4.79  0.002103894    2.330    0.571
        72 -13.5075     21.9941    153.5475   9.5636942475e+01   4.0639850113e+01    0.8641171    0.6776752   7.53  0.005200524    1.669    0.401
        73 -10.6090     10.8284    167.1253   1.0001622538e+02   3.8280346700e+01    0.3067819    0.2386272 -54.06   0.00136609    1.342    0.255
        74 -11.3082     22.1561    148.9003   9.4991429728e+01   4.1772762385e+01    0.2866588    0.2020084  42.44 0.0004426751    1.592    0.372
        75 -10.0798     81.3128    233.9392   9.1234174495e+01   1.3959645062e+01    0.1809073     0.156688  87.65 0.0004557171    1.128    0.113
        76 -10.5256    140.3267    162.3067   6.5001780524e+01   2.0114347894e+01     0.162505    0.1279652  -5.77 0.0003414208    1.652    0.395
        77 -12.0554    158.4667    159.9428   5.9977556856e+01   1.6873394684e+01    0.4507478    0.3155113  59.16  0.001432577    1.675    0.403
        78 -11.6500     28.0886    160.3946   9.4905051862e+01   3.8373806586e+01    0.2842482    0.2339533 -83.30 0.0004940327    1.061    0.057
        79 -12.3197    219.9656    230.5714   6.0774052651e+01  -8.4476559439e+00    0.2636709    0.2274066 -19.15  0.001679453    1.185    0.156
        80 -11.3072     59.3148    158.8635   8.6273190781e+01   3.5165332137e+01    0.3023697    0.2178466  58.91 0.0008723103    1.511    0.338
        81 -11.0583     46.6675    158.8143   8.9731303190e+01   3.6765770502e+01    0.2189674    0.1958112 -10.20 0.0009354679    1.381    0.276
        82 -11.0699    113.7445    156.5340   7.0745251339e+01   2.6836487155e+01    0.4334803    0.2188591 -62.27  0.001541653    2.358    0.576
        83 -15.6009     20.0485    212.7984   1.0209298573e+02   2.6656270838e+01     3.609223     1.388013 -88.02   0.01507639    2.893    0.654
        84 -10.0046    134.3411    155.2900   6.4988558789e+01   2.3028964176e+01    0.1626309    0.1287199  -3.31 0.0003927825    1.647    0.393
        85 -10.8188     50.7590    154.0513   8.7863183554e+01   3.7479454436e+01    0.2283949    0.2094956  19.94 0.0003930684    1.273    0.214
        86 -10.6129     39.3719    154.3834   9.1062640532e+01   3.8711182742e+01     0.302668    0.1428023  20.37  0.001264441    2.831    0.647
        87 -10.6231    212.7174    153.7637   4.6757349845e+01   6.9620006070e+00    0.2249089     0.122221  56.16 0.0008969096    2.380    0.580
        88 -10.7030    126.0340    151.7230   6.6377542853e+01   2.5593269667e+01    0.2431987    0.2187878  79.12 0.0002628495    1.205    0.170
        89 -11.1279    129.5959    150.8168   6.5225639349e+01   2.5086067910e+01    0.2637678    0.2257326  39.11 0.0007183501    1.179    0.152
        90 -12.1102    170.6880    149.7930   5.4769328260e+01   1.6553552600e+01    0.5356348    0.2627853 -54.95  0.001878433    2.421    0.587
        91 -11.6036    147.0354    150.1470   6.0563910318e+01   2.1580545256e+01    0.2969317    0.2392284 -48.48 0.0009269732    1.238    0.192
        92 -10.1534    180.4695    150.5102   5.2719585281e+01   1.4290268493e+01    0.1555881     0.151165 -39.54 0.0002046255    1.016    0.016
        93 -12.2045    108.9069    148.4102   7.0312139931e+01   2.9778290951e+01    0.4547895    0.3584241 -43.49  0.001368322    1.280    0.219
        94  -9.6112    206.6814    149.2748   4.6943062938e+01   9.0719202972e+00    0.1443438    0.1184184 -82.98 0.0003093753    1.570    0.363
        95 -10.7348     84.6221    149.2485   7.7365850272e+01   3.3866858414e+01    0.2218508    0.1330526 -49.07 0.0009470995    1.610    0.379
        96  -9.5631    224.2648    148.6129   4.3470008830e+01   5.7393403649e+00    0.1470091    0.1073569 -64.91 0.0006981962    1.698    0.411
        97 -11.3431    152.4962    169.4428   6.3516462052e+01   1.5930549576e+01    0.3371447    0.1565171 -48.90 0.0008911054    2.183    0.542
        98  -9.8773      5.0099    147.2752   9.9357356926e+01   4.3521417166e+01    0.1588398    0.1428011 -81.24 0.0002804089    1.137    0.121
        99 -12.9547    103.6201    142.1369   7.0402632277e+01   3.2330417226e+01     1.056471    0.4828441  40.20  0.003759503    2.218    0.549
       100 -10.4774     24.5506    144.2108   9.3694520417e+01   4.2718821254e+01    0.2462121    0.1825561  78.43  0.000673311    1.439    0.305
       101  -9.6132     30.6442    140.2840   9.1394222138e+01   4.3128476958e+01     0.135337   0.09481853  68.45 0.0007019285    1.668    0.400
       102 -10.6822    176.6054    137.8532   5.0617300560e+01   1.7886725260e+01    0.2629581    0.1968356  54.14  0.001080411    1.412    0.292
       103  -9.6333     36.4112    138.4695   8.9435805187e+01   4.3009878866e+01     0.138143    0.1162818 -61.75 3.565177e-05    1.031    0.030
       104 -10.2258    238.2968    249.0277   6.0511018907e+01  -1.3789100582e+01    0.1743316    0.1309544 -14.10  0.001144375    1.160    0.138
       105 -10.3457     11.8254    133.1007   9.5744080871e+01   4.6462834105e+01     0.230089    0.1850729   3.23   0.00113897    1.569    0.362
       106 -10.3260    126.1504    131.9775   6.1691834809e+01   3.0321785469e+01    0.2396984    0.2320812 -23.84 0.0004694375    1.049    0.047
       107 -10.2450     20.9991    132.3309   9.2984129567e+01   4.5943037769e+01    0.2069246    0.0667832  46.18 0.0007052023    4.364    0.771
       108 -10.6768     30.9021    128.9578   8.9498291481e+01   4.5899637757e+01    0.3117746    0.2312464 -38.46  0.001767258    1.366    0.268
       109 -10.0786     14.4386    126.8470   9.4098184225e+01   4.7781958647e+01    0.1974073    0.1844887   4.85 0.0005473418    1.299    0.230
       110  -9.5696    245.1655    122.9275   3.4511592435e+01   6.6149327116e+00    0.1713182    0.1505965 -21.84 0.0003287868    1.267    0.211
       111 -12.6772    136.4191    130.7017   5.8625214496e+01   2.8423577500e+01    0.6797893    0.3901624  45.99   0.00230884    1.759    0.432
       112 -10.2316     99.4722    118.9664   6.6067919213e+01   3.8728238902e+01    0.2816042    0.2133884  58.02 0.0006443931    1.544    0.352
       113  -9.0299     67.6632    122.3171   7.6725788313e+01   4.3197741414e+01    0.1479778    0.1139217  74.84 0.0007048481    1.700    0.412
       114 -11.0262    189.0600    121.0208   4.3918138876e+01   1.8655282685e+01     0.226194    0.2154095 -56.03  0.001206741    1.008    0.008
       115 -10.9926     43.2923    120.7185   8.4135150312e+01   4.6661495553e+01    0.3624248    0.2451842   0.31  0.001065729    1.907    0.476
       116 -10.2751     35.8738    120.6119   8.6470958158e+01   4.7457473100e+01      0.22561    0.1603403 -50.30 0.0006175163    1.216    0.178
       117 -10.3301    104.6063    121.8945   6.5282474150e+01   3.7062498220e+01    0.4155547    0.2883548  85.52   0.00111814    2.411    0.585
       118  -9.4303     30.2901    118.6570   8.7878399420e+01   4.8459456025e+01    0.1313812   0.09819532  79.52 0.0007025063    1.652    0.395
       119 -10.1022     66.5299    116.0832   7.5656820642e+01   4.4865343111e+01    0.2178513    0.1962202 -82.85 0.0008592862    1.251    0.201
       120 -10.4745     23.9288    115.7773   8.9382081133e+01   4.9700662113e+01     0.223357    0.1580124 -60.40 0.0004693962    1.179    0.152
       121 -11.6276    189.2207    114.8084   4.2383023439e+01   1.9879145992e+01    0.3201362    0.2161503  40.93  0.001432677    1.639    0.390
       122 -10.3521     48.4575    115.3703   8.1367343827e+01   4.7372180058e+01    0.2484937      0.17574  30.60  0.000773211    1.567    0.362
       123 -12.1565     53.3023    110.8661   7.8777742875e+01   4.7865273699e+01    0.3993121    0.3010949  29.71  0.001927214    1.454    0.312
       124  -9.4915    210.5154    110.4883   3.7382069241e+01   1.5966446269e+01    0.1474822    0.1358699 -58.90 0.0001656352    1.008    0.008
       125 -13.7538    143.0480    132.9577   5.7464037452e+01   2.6451378567e+01     1.146667    0.7218654 -17.09  0.004011808    2.756    0.637
       126 -14.5179    154.4412    130.1285   5.3910387088e+01   2.4558221483e+01     1.247918    0.9815772  41.80  0.005813294    1.291    0.225
       127 -10.2720     91.9848    108.1485   6.5546215120e+01   4.2610282044e+01      0.22373    0.2141562 -23.21 0.0003780631    1.009    0.009
       128  -9.8132    116.5876    103.2701   5.6846264543e+01   3.8863062565e+01     0.221692    0.1467783 -33.77 0.0009487034    1.621    0.383
       129  -9.8039     79.3608    101.2069   6.7719150057e+01   4.6350232146e+01    0.2081916    0.1360654 -57.30 0.0009434458    1.657    0.397
       130 -11.9629     57.6249     99.0849   7.4472702336e+01   5.0039638796e+01    0.6050432    0.2642246 -39.31   0.00239234    2.341    0.573
       131 -11.8898     10.0868    100.6926   9.1210805741e+01   5.4220262554e+01    0.2138298    0.1814458 -57.22  0.000326365    1.079    0.073
       132 -10.7231     20.9487     98.3219   8.7053922977e+01   5.4005284478e+01    0.4447719    0.2102846 -54.48   0.00142055    1.662    0.398
       133  -9.6011    173.3158     98.6530   4.1591874806e+01   2.6786544085e+01    0.1623858    0.1187993 -77.45 0.0007047837    1.722    0.419
       134 -12.2367    130.6526     89.7835   4.9173876652e+01   3.8550689601e+01    0.3963382    0.2742929 -48.76  0.001802273    1.534    0.348
       135  -9.9596    240.0532     95.0422   2.9385790506e+01   1.2564023721e+01     0.208908    0.1421264 -69.52 0.0003401157    1.575    0.365
       136 -10.2554    117.2393     95.4060   5.4445564791e+01   4.0382379287e+01    0.2205755    0.1451662  54.12 0.0008774925    1.659    0.397
       137 -11.6870     54.2242     92.7496   7.4016999018e+01   5.1888947055e+01     0.308462    0.2170164  15.59  0.001166872    1.548    0.354
       138 -10.9277     59.5037     91.9564   7.1947419586e+01   5.1368969841e+01    0.3018647    0.2784731 -89.98  0.001772099    1.379    0.275
       139 -10.2199    232.5279     89.3116   2.9204689902e+01   1.5092614102e+01    0.2730415    0.1589412  60.86 0.0008588392    1.843    0.457
       140 -11.7772    124.8891     86.8003   4.9843362219e+01   4.0427694159e+01    0.5919167    0.2568692  38.15  0.002056276    2.590    0.614
       141 -12.6845     51.0625     81.1299   7.1979554458e+01   5.4766636573e+01    0.5136126    0.3625848 -42.85  0.002783973    1.275    0.216
       142  -9.5459     11.6219     86.8448   8.7994391278e+01   5.7215969056e+01    0.1669625     0.104901 -69.73 0.0003611001    1.620    0.383
       143 -12.0832    115.8419     85.6581   5.2005374259e+01   4.2632667122e+01    0.2793213    0.2667298  46.29 0.0002906365    1.076    0.070
       144 -13.5830     27.9931    245.6724   1.0301426316e+02   1.8669888807e+01    0.4042246    0.2989508  38.83  0.002117326    1.528    0.345
       145  -9.9234     39.6734     81.2960   7.6258124889e+01   5.6046338043e+01     0.119602    0.1043375  70.84 0.0002686953    1.628    0.386
       146 -11.1695     22.0743     80.1263   8.2600534525e+01   5.7919861403e+01    0.3290718    0.1296047 -52.19  0.001210988    1.989    0.497
       147 -11.3621     28.8727     80.1138   8.0020389348e+01   5.7350661522e+01    0.1843103    0.1760981 -70.90  0.001238386    1.316    0.240
       148 -10.0134    214.0423     78.6737   2.9505622317e+01   2.0909533194e+01    0.1898978    0.1652375  84.09  0.000365451    1.109    0.098
       149  -9.7576     88.1937     78.6555   5.8274912581e+01   4.9518249651e+01    0.1963809    0.1833182 -34.50  0.001053469    1.145    0.127
       150  -9.5500    219.4808     78.5165   2.8680187949e+01   1.9725809754e+01    0.1403458    0.1221071 -71.12 0.0001593876    1.009    0.009
       151 -10.1401    116.3622     74.1341   4.8389693186e+01   4.4662750274e+01    0.2872388    0.2054053  43.45  0.001039536    1.329    0.247
       152 -10.4251     74.8620     75.7617   6.1842206964e+01   5.2395651241e+01    0.2369194     0.203927  -0.53 0.0006545797    1.088    0.081
       153 -13.0822     31.6675     68.1961   7.5698447615e+01   5.9523501162e+01    0.5314534    0.3833331 -34.68  0.003238431    1.150    0.131
       154  -9.6161     93.2014    248.8391   9.0422999024e+01   9.0488434086e+00    0.1528614    0.1501942 -44.20 0.0003357201    1.311    0.237
       155 -11.8015     99.8209     68.5120   5.1419842728e+01   4.9133270614e+01    0.4947489     0.327838 -28.12  0.002386893    1.612    0.379
       156 -11.7979    165.9643     58.4312   3.2456321334e+01   3.5546977656e+01    0.2543552    0.2301758  84.76 0.0003618903    1.046    0.044
       157 -10.3612      4.2862     59.1703   8.4422057691e+01   6.3368790658e+01    0.2771207    0.1361627   3.04  0.001513067    2.284    0.562
       158 -11.3723     55.0427     58.0182   6.3287537330e+01   5.8661425256e+01    0.8924426    0.6112679  75.94  0.003082034    5.997    0.833
       159 -11.6776     50.9862     56.4819   6.4335811145e+01   5.9482181280e+01    0.6794599    0.4836788  80.44  0.002636331    4.952    0.798
       160 -11.0329     65.9307     74.0420   6.4449181833e+01   5.4136888750e+01    0.2009056    0.1765509 -11.42  0.001186678    1.001    0.001
       161 -11.7496    178.4263     64.3164   3.1760778793e+01   3.1612314130e+01    0.2811124    0.2390854  63.59 0.0003092843    1.122    0.109
       162  -9.8103     18.2426     48.9914   7.5477095994e+01   6.4315194979e+01    0.1549355   0.08495258 -46.11 0.0004420114    1.582    0.368
       163 -10.8014    194.0928     57.4514   2.7522822037e+01   2.8914187757e+01    0.2389313    0.2172898 -65.12 0.0003656206    1.113    0.102
       164 -11.1142     51.6994     42.9839   5.9264723333e+01   6.1587090900e+01    0.1822263    0.1471009 -10.12 0.0006235738    1.071    0.066
       165 -10.3202    112.0081     76.3148   5.0280608584e+01   4.5211581287e+01    0.2993955     0.224485  23.12 0.0009688687    1.454    0.312
       166 -10.2309    125.1725    248.0975   8.3586393553e+01   4.0397581852e+00    0.1788849    0.1646236  32.53 0.0002708886    1.131    0.116
       167  -9.4447    104.5119     39.5740   4.0490863505e+01   5.2518942555e+01    0.1352137    0.1190685  39.57 -7.235466e-06    1.050    0.047
       168 -11.2297     57.1593     37.4318   5.5055681339e+01   6.1598224735e+01      0.32925    0.2101266 -51.98 0.0008865608    2.559    0.609
       169  -9.9936     36.2285     39.2110   6.4227785913e+01   6.4165992230e+01    0.1516473     0.138234   6.03  0.001063718    1.363    0.267
       170 -12.8622     76.8555     31.8903   4.5962964507e+01   5.8999304746e+01    0.7401372    0.3372211  27.26 0.0009292913    2.742    0.635
       171 -10.2021    247.9092     31.9030   1.5886420054e+01   2.0599403697e+01    0.1670424    0.1488048 -84.21 0.0004225413    1.284    0.221
       172  -9.8623    213.4784     32.0883   1.9266390856e+01   2.7938976675e+01    0.1747303    0.1186115 -43.05 0.0004116347    1.516    0.340
       173 -10.6133    106.4365     31.3108   3.7189436352e+01   5.3105669907e+01    0.2531806    0.2146163  38.85 0.0007971474    1.011    0.011
       174 -10.3972     31.6679     32.3286   6.3592431563e+01   6.5731061357e+01    0.1697254   0.08922794 -35.41 0.0004541541    1.732    0.423
       175  -9.2341    162.5513     31.4636   2.5851699709e+01   4.0003671523e+01    0.1350215    0.1163931  70.83 0.0001941204    1.023    0.022
       176  -9.6891    101.0289     26.4902   3.6929303913e+01   5.4804191625e+01    0.1966315    0.1119845  51.12 0.0003968951    1.505    0.335
       177 -10.0062     45.1316     24.8802   5.4843821802e+01   6.5039523637e+01    0.1662496    0.1448352  -0.55 0.0005150517    1.260    0.207
       178 -10.1738    171.9731     21.0446   2.1779436652e+01   3.8922794192e+01     0.206043    0.1719175  69.48  0.001291206    1.087    0.080
       179 -11.1768     84.7728     24.1114   4.0587530137e+01   5.8387951569e+01    0.3140255    0.1706695  50.74  0.001228038    1.677    0.404
       180  -9.4968    173.7900     24.0281   2.2273773838e+01   3.8160903966e+01    0.1824213    0.1398468 -75.42 0.0004825939    1.294    0.227
       181 -11.0177     30.9716     15.4662   5.6933509229e+01   6.8071379761e+01    0.2263288    0.1317021 -12.75  0.001375491    1.611    0.379
       182 -10.2189     83.9997    246.4635   9.2066548104e+01   1.0938510637e+01    0.3500632    0.1365111  46.19  0.001528772    2.153    0.536
       183  -9.6604    179.7668    244.5710   7.1421809328e+01  -4.4201647534e+00    0.1786044    0.1128345  42.53 0.0002977659    1.527    0.345
       184  -9.5038    133.6455    241.6952   8.0870558114e+01   3.8439872079e+00    0.1361485    0.1039349   5.29 0.0007040752    1.713    0.416
       185 -10.6217    116.1983    240.2888   8.4469817835e+01   7.0540289137e+00    0.2232767    0.1906041  72.40 0.0002121465    1.200    0.167
       186 -14.4435     38.8107    191.4832   9.5953869845e+01   2.9569229660e+01     1.803073     1.216681   1.85  0.008922948    2.556    0.609
       187 -10.3293     84.7931    237.8911   9.0943475993e+01   1.2589088276e+01    0.1785416    0.1306177  67.76 0.0002273345    1.286    0.223
       188  -9.2391     94.2360    240.5952   8.9245999480e+01   1.0556699784e+01    0.1735672    0.1192673  32.04 0.0003266449    1.529    0.346
