#   1 NUMBER                 Running object number                                     
#   2 MAG_AUTO               Kron-like elliptical aperture magnitude                    [mag]
#   3 X_IMAGE                Object position along x                                    [pixel]
#   4 Y_IMAGE                Object position along y                                    [pixel]
#   5 X_WORLD                Barycenter position along world x axis                     [deg]
#   6 Y_WORLD                Barycenter position along world y axis                     [deg]
#   7 A_WORLD                Profile RMS along major axis (world units)                 [deg]
#   8 B_WORLD                Profile RMS along minor axis (world units)                 [deg]
#   9 THETA_WORLD            Position angle (CCW/world-x)                               [deg]
#  10 FWHM_WORLD             FWHM assuming a gaussian core                              [deg]
#  11 ELONGATION             A_IMAGE/B_IMAGE                                           
#  12 ELLIPTICITY            1 - B_IMAGE/A_IMAGE                                       
         1  -9.9239    194.8857     20.7078   5.5326844921e+01   3.3331523698e+01    0.3645647    0.1991237 -31.10  0.001558988    1.782    0.439
         2 -11.4903    190.9272     28.2925   5.7640776123e+01   3.3403882923e+01    0.6254514    0.3077647 -21.61   0.00280661    2.459    0.593
         3 -11.7577    213.8438     28.4974   5.5719112275e+01   2.8265099150e+01    0.4761007    0.3147683 -43.79  0.001103009    1.284    0.221
         4 -11.4533    245.1514     20.4778   5.1896704247e+01   2.2882544051e+01    0.3592738    0.2215406 -37.42  0.001754812    1.352    0.260
         5 -12.2802    224.4795     13.0501   5.1455565366e+01   2.7697829037e+01    0.6939722    0.2958956 -65.45  0.001574475    2.296    0.565
         6 -10.7916    215.5484      6.0264   5.0364357158e+01   3.0258784521e+01    0.3302732    0.1623558 -42.59   0.00110124    1.634    0.388
         7 -12.6025    233.1167      4.0944   4.9063346428e+01   2.6848069653e+01     1.295236     0.546315 -66.41   0.00675493    2.181    0.542
         8 -11.6562    243.0337      7.2242   4.9270535367e+01   2.4628976346e+01    0.8758045    0.1863582 -45.13  0.003913884    2.800    0.643
         9 -11.3669    248.1548      4.2495   4.8448862668e+01   2.3962099666e+01    0.4951397    0.2826397 -44.37  0.001309149    1.313    0.238
        10 -10.9687    161.7047     10.7708   5.5563658160e+01   4.2384534317e+01    0.4573517    0.2592936 -32.54  0.002130697    1.775    0.437
        11 -10.9293    105.6483     13.4572   6.4481026375e+01   5.6792991627e+01    0.2711577    0.2499764 -76.29 0.0003220284    1.127    0.113
        12 -11.0071    126.4367     10.9055   5.9864802797e+01   5.1545743140e+01    0.3750492    0.2759821  72.51 0.0008198197    1.195    0.163
        13  -9.4838    201.1275     10.3355   5.2257536560e+01   3.2986311242e+01    0.2208569    0.1520748 -45.53 0.0004842595    1.267    0.211
        14  -9.7611    186.4876      9.5368   5.3087912368e+01   3.6437724832e+01    0.2401073   0.08279873 -39.82  0.001034772    2.374    0.579
        15 -10.3938     15.4352      6.4284   1.0075099545e+02   7.7095924155e+01    0.4584913    0.2295295 -54.35  0.002133755    2.809    0.644
        16  -9.9152     76.8543      7.8129   6.8822540709e+01   6.4696100977e+01    0.2973733    0.1850172  59.15 0.0005813475    1.392    0.282
        17  -9.8689     73.4126      7.2638   6.9560431395e+01   6.5591245802e+01    0.2322815    0.2115928 -29.98 0.0006125746    1.243    0.196
        18 -10.3515    109.4602      6.0308   6.0665968350e+01   5.6475073388e+01    0.2905346    0.2628974  -9.51   0.00110343    1.296    0.228
        19  -9.2410    112.3175      5.6718   6.0040229673e+01   5.5751235392e+01    0.2833136    0.1809751 -41.39  0.001344716    1.675    0.403
        20  -9.5507    176.4038      5.6379   5.2803153643e+01   3.9223978253e+01    0.2618514   0.05929749 -40.03 0.0009621104    3.228    0.690
        21 -10.9893    127.6177      2.0125   5.6438938988e+01   5.2006988183e+01    0.3386392    0.2151606 -84.41  0.000937957    1.519    0.342
        22 -10.4134     55.9341     10.5311   7.7835107792e+01   6.9298755541e+01    0.4798836    0.1749114  49.69  0.001932229    2.327    0.570
        23  -8.9979      6.5315      1.7828   1.0597486892e+02   7.8896759500e+01    0.1472981    0.1149565 -54.77 0.0006965297    1.611    0.379
        24  -9.5011    185.1245    210.4324   9.9317807899e+01   6.0396533913e+00    0.2139319    0.1754707 -33.24  0.001118308    1.408    0.290
        25  -9.0996    126.8766    250.1271   1.1660687808e+02   7.8631616728e+00    0.1792603    0.1304015  36.76 0.0004704202    1.208    0.173
        26  -9.4761    115.6275    249.6840   1.1892715727e+02   9.3618027871e+00    0.2138013    0.1675404  37.41 0.0007164277    1.155    0.134
        27  -9.2912    197.3149    209.3283   9.6836218692e+01   4.5469594632e+00     0.126626   0.07906031  -0.97 0.0007044498    1.674    0.403
        28 -10.4235    149.5038    205.3396   1.0586602705e+02   1.1988067224e+01    0.5095398     0.319326 -58.61  0.002609706    2.269    0.559
        29  -9.5745    145.3167    201.6204   1.0621780731e+02   1.3267105906e+01    0.2977579     0.234686  80.55  0.001080476    2.092    0.522
        30  -8.6459    248.6818    208.3013   8.8097789921e+01  -1.5783992481e+00   0.08979547   0.08091088 -16.22 0.0002825854    1.621    0.383
        31  -8.6530    174.3468    208.6857   1.0116576938e+02   7.8103686457e+00    0.1168835   0.09625746  52.96 0.0007047277    1.718    0.418
        32  -9.7040     26.4134    207.6141   1.3612714052e+02   2.7945011291e+01    0.2513848    0.1655037 -32.58  0.001028184    2.326    0.570
        33 -10.5258    228.8539    206.2553   9.0858484671e+01   9.4911549469e-01    0.2463981    0.1339231 -29.52  0.001500722    1.656    0.396
        34 -10.5117    123.9120    203.8835   1.1148069529e+02   1.6102899034e+01    0.3080197    0.1983555 -52.17  0.001058851    1.817    0.450
        35 -10.1367    249.9371    202.9879   8.7051093990e+01  -1.0936867807e+00    0.2241266    0.1851517 -29.70  0.001276151    1.577    0.366
        36 -10.4912    249.8883    198.3523   8.6297314013e+01  -5.3716179535e-01     0.498356    0.2584383 -44.52    0.0027621    2.785    0.641
        37  -8.5326     98.8146    205.6027   1.1777828557e+02   1.9467499671e+01    0.1910079    0.1047869  40.33 0.0003486821    1.550    0.355
        38 -10.9064    232.6571    195.1331   8.8394956146e+01   1.9040774687e+00    0.5732062    0.2436599 -41.19  0.002917534    2.597    0.615
        39 -10.2988    236.7653    189.4707   8.6783774494e+01   2.1244501683e+00    0.3890044    0.3412339  -1.73  0.002190104    1.295    0.228
        40  -9.6132    213.9914    198.0100   9.1977202187e+01   3.9085065398e+00    0.1504046    0.1186169  -2.11  0.001022629    1.007    0.007
        41 -11.4274     55.1738    196.8981   1.2800014072e+02   2.7140488684e+01    0.3851839    0.1786774 -64.51  0.001777702    2.320    0.569
        42 -10.0248    129.8540    189.6506   1.0791151219e+02   1.7901493541e+01    0.2987525    0.2421111  54.57 0.0008092711    1.396    0.284
        43  -8.6764    207.2330    190.4230   9.1856949498e+01   5.8931687862e+00     0.158597    0.1085865  39.31 0.0009449925    1.641    0.391
        44  -9.0430    159.3610    190.1581   1.0124945615e+02   1.3101681319e+01    0.1756703    0.1270015 -54.29 0.0009459058    1.770    0.435
        45 -10.1649     45.1361    188.2465   1.2991476600e+02   3.0271160828e+01    0.3955981   0.07248858 -69.25  0.001202759    5.020    0.801
        46  -9.7762    192.1357    186.2437   9.3893771991e+01   8.6973516338e+00    0.3511835    0.1688108 -46.06  0.001274791    2.462    0.594
        47 -10.4732     61.1826    185.4692   1.2525162104e+02   2.8971969441e+01    0.3200546    0.2397861 -82.77  0.000946886    1.443    0.307
        48 -10.1263    125.2955    183.2338   1.0798148881e+02   1.9906772016e+01    0.3857466    0.2773783 -76.67  0.001898042    2.030    0.507
        49 -10.8706    245.8896    178.4436   8.3491938181e+01   2.4066923971e+00     0.498748    0.3471699 -58.47  0.002768126    3.130    0.680
        50  -9.1956    186.3872    183.2003   9.4454880996e+01   1.0047050424e+01    0.1668161    0.1185402 -45.24 0.0004549472    1.638    0.389
        51  -9.4498    205.5282    181.3125   9.0541525438e+01   7.4723536116e+00    0.2370207    0.1790278   0.10 0.0008706843    1.204    0.169
        52  -9.2288     11.5972    181.8195   1.3859535372e+02   3.5066811481e+01    0.1841809     0.102497  77.55 0.0009529677    1.694    0.410
        53  -8.6345    229.9569    177.4485   8.5737099488e+01   4.6004743152e+00    0.1607848    0.1073743  30.55  0.000708456    1.538    0.350
        54 -10.5136     70.0432    171.0297   1.2103095523e+02   3.1167598944e+01    0.5797428    0.3336574 -80.83  0.002559752    2.136    0.532
        55 -10.6652     42.8338    172.8407   1.2915941662e+02   3.4165122848e+01    0.4216593    0.2669036  41.02  0.001175804    1.388    0.280
        56 -10.9289    229.6701    168.3187   8.4119135012e+01   5.8997401728e+00    0.3440507    0.2572584  14.42 0.0007461125    1.298    0.230
        57 -11.6932    221.6333    166.6308   8.5084788806e+01   7.2830604228e+00    0.6117971    0.5257218 -68.23  0.002695605    1.913    0.477
        58  -9.7427    150.4750    169.0574   9.9447915031e+01   1.8437885748e+01    0.3980364    0.1812358 -53.09  0.001561049    2.754    0.637
        59  -9.5274     88.0336    169.8740   1.1571621398e+02   2.8792903926e+01    0.2364739    0.2153761 -75.18  0.000535814    1.191    0.160
        60 -10.1988    163.3218    166.8108   9.6144420375e+01   1.6627926177e+01    0.3752601    0.2951203  76.24  0.001720838    2.038    0.509
        61  -9.1431    110.8220    166.9626   1.0895550965e+02   2.5750154239e+01    0.2590062    0.1957965  35.97 0.0005880666    1.207    0.172
        62 -10.3346    190.5061    164.0253   9.0062681080e+01   1.2511314492e+01    0.2383113    0.2050277 -20.01 0.0003537316    1.095    0.087
        63  -9.7740    183.4282    163.2058   9.1273026886e+01   1.3825794933e+01    0.2591519    0.1657378 -51.21  0.001288661    1.929    0.482
        64 -11.8111    249.2538    154.1784   7.8631304212e+01   5.1387026296e+00    0.5347013    0.1935319 -38.66  0.002566969    2.413    0.586
        65  -8.5593    124.2920    172.6307   1.0643469490e+02   2.2245746227e+01     0.144352     0.111182  70.34 0.0007025867    1.719    0.418
        66  -8.8024    101.3408    156.1941   1.0966334166e+02   2.9797912749e+01    0.1994759    0.1427673 -69.49  0.000529574    1.638    0.390
        67  -9.4779    227.3612    154.5980   8.1888620311e+01   8.1778511539e+00    0.2771375    0.1328377 -29.67  0.001389665    1.899    0.473
        68  -9.7845     49.7802    149.2709   1.2438001383e+02   3.9216896334e+01    0.3281599    0.2085278  69.02  0.000817998    1.743    0.426
        69  -8.4684    137.5139    144.5021   9.7617561709e+01   2.5743892937e+01    0.1481864    0.1414928  29.46 -5.440753e-05    1.029    0.028
        70  -8.4102     90.3011    144.6919   1.1078981099e+02   3.4403903362e+01    0.1555721    0.1135188  66.08 0.0003050976    1.600    0.375
        71 -10.1275    232.8649    142.1854   7.8645512695e+01   9.1331716566e+00    0.2175314     0.154121  73.21  0.001163671    2.741    0.635
        72 -10.9368    247.2667    139.5702   7.6140960143e+01   7.3738311329e+00    0.2471465     0.184619 -38.77 0.0008674656    1.291    0.226
        73  -8.6880     24.6913    139.3176   1.3157845971e+02   4.4458387861e+01    0.1496113   0.09068662  58.91 0.0005729424    1.636    0.389
        74 -11.1778    208.1677    131.9676   8.0358387672e+01   1.4706347626e+01    0.4078867    0.3178422 -40.70 0.0006257281    1.245    0.197
        75 -10.9633    237.1831    133.7954   7.6374375192e+01   9.6671774203e+00    0.2894986    0.2144814 -83.85  0.001598899    2.626    0.619
        76  -9.2195      4.0002    134.4837   1.3822399290e+02   4.7264140432e+01    0.2052294   0.06970354  43.14 0.0008102189    2.642    0.621
        77  -8.4392    140.4263    133.4830   9.4456570932e+01   2.7466988879e+01    0.1474221    0.1443219  23.41 0.0003850488    1.028    0.027
        78  -8.2184    192.6796    131.7309   8.2966221181e+01   1.7537789429e+01    0.1345042    0.1013012   6.10 0.0002818611    1.563    0.360
        79  -9.0853     24.7841    130.5704   1.3063159249e+02   4.6732838954e+01    0.1986736    0.1151185  38.81 0.0005839764    1.650    0.394
        80  -8.7567    228.9526    127.7093   7.6296569050e+01   1.1841548798e+01     0.162897    0.1477866  -7.40 0.0007697901    1.110    0.099
        81  -9.9575     74.4587    125.9317   1.1223417239e+02   4.1692878859e+01    0.3981425    0.2745534 -54.80  0.001472271    1.476    0.323
        82  -8.7923    171.4933    126.4492   8.5834713465e+01   2.2558564877e+01    0.1408927    0.1358682 -14.01 0.0001159578    1.024    0.023
        83  -9.6227    155.7227    125.7167   8.9039044714e+01   2.5907558738e+01    0.3044669    0.1797653 -62.04  0.001183715    2.543    0.607
        84 -10.1098    119.6299    121.9035   9.7196337390e+01   3.4211897488e+01    0.4043435    0.2826358 -51.90  0.001043255    1.500    0.333
        85  -9.3817     98.0808    122.8558   1.0381030818e+02   3.8274445987e+01    0.3421321    0.2236749  71.64  0.001335938    2.287    0.563
        86  -8.5457    139.6723    122.3050   9.2011429275e+01   2.9942723763e+01    0.1525709    0.1219452  84.96 0.0007035462    1.650    0.394
        87  -8.6736    132.3047    122.6544   9.3964453870e+01   3.1415514831e+01    0.1557385    0.1230466  88.47 0.0007041385    1.691    0.409
        88  -9.1863     82.6338    121.3530   1.0848910327e+02   4.1464979047e+01    0.2395849    0.1755919  67.86 0.0006685149    1.629    0.386
        89 -10.1726    227.5197    118.5247   7.4591332759e+01   1.3423276459e+01    0.2724272    0.1762467 -63.68  0.001378926    2.387    0.581
        90 -11.1290    250.1182    114.7556   7.0926991433e+01   1.0315204503e+01    0.4775235    0.1721656 -34.05  0.002230433    2.242    0.554
        91 -10.4244    245.0330    112.0204   7.0984683257e+01   1.1479405899e+01    0.4409492    0.2095516 -56.11  0.001839652    3.652    0.726
        92  -9.8219    218.3890    112.2048   7.4527984032e+01   1.5952954531e+01    0.1944094    0.1039779 -42.76 0.0009584328    1.709    0.415
        93 -10.0911    192.6644    111.5650   7.8409502612e+01   2.0923457327e+01    0.3247187    0.2545943 -80.67 0.0008086393    1.725    0.420
        94 -12.1310    184.0521    104.9465   7.8333172483e+01   2.3790788014e+01    0.5382533    0.4080089 -72.45 0.0007891566    1.697    0.411
        95  -9.7656    136.6897    109.0140   8.9410044649e+01   3.3329820831e+01    0.3475381    0.2704289 -78.74 0.0008531943    1.666    0.400
        96  -9.4210    174.8782    107.1658   8.0560927029e+01   2.5338479982e+01    0.2059644    0.1881811 -65.19 0.0003251635    1.165    0.141
        97 -10.8689     47.1767    102.9621   1.1771008572e+02   5.1613319483e+01    0.4473575    0.2909299 -70.85  0.001050698    1.584    0.369
        98 -10.1891    131.8740     98.9423   8.7925866154e+01   3.6468397086e+01    0.3604474    0.2759894 -77.22 0.0009133826    1.678    0.404
        99  -9.0324    227.4545     99.1195   7.0455571567e+01   1.6257036086e+01    0.1941396    0.1064891 -36.31  0.000536503    1.542    0.352
       100  -8.8820    118.7280     99.6393   9.1657814525e+01   3.9283402924e+01    0.1572762     0.124958  -5.69 0.0007000552    1.653    0.395
       101  -9.4863    246.3213     97.6284   6.7900133471e+01   1.3229652916e+01    0.1261818   0.07789437 -55.21  9.75005e-05    1.804    0.446
       102  -8.8556    235.1802     95.4169   6.8712945528e+01   1.5416702336e+01    0.1533402    0.1187587  83.74 0.0009473874    1.684    0.406
       103  -9.4217    210.0121     93.9934   7.1634049175e+01   2.0282395307e+01    0.2040125    0.1893503  73.64 0.0003177212    1.205    0.170
       104 -10.2917    214.5146     93.5255   7.0907577607e+01   1.9478250089e+01    0.4253771     0.204337 -45.67  0.001865201    1.955    0.489
       105  -9.9842    213.0000     87.9918   6.9841970851e+01   2.0592638787e+01    0.3368834    0.1662584 -37.24  0.001600191    1.760    0.432
       106 -11.0155    149.1731     93.8602   8.2388938938e+01   3.3486722891e+01    0.3150931    0.2658424 -55.82 0.0004392631    1.219    0.179
       107  -9.2214    157.9659     92.0624   8.0017701221e+01   3.1789703466e+01    0.2306832    0.2222524 -54.60 0.0006901331    1.019    0.019
       108  -9.0863     15.6511     92.6963   1.2950437232e+02   5.7437757265e+01    0.1481304   0.09177584 -38.45 0.0003793233    1.697    0.411
       109  -9.0964    200.7164     86.3699   7.1156865977e+01   2.3316253370e+01    0.2428922    0.1636976 -46.66 0.0006889193    1.379    0.275
       110 -10.8049    196.5134     82.4101   7.0801706916e+01   2.4804375561e+01    0.4082538    0.2449871 -48.66 0.0007513103    1.606    0.377
       111  -9.3875    119.3179     82.3376   8.6418688457e+01   4.2725203735e+01    0.2673247    0.2393839  16.43 0.0006371565    1.261    0.207
       112  -9.7564    122.0159     80.2601   8.5044930511e+01   4.2495388078e+01    0.3050926    0.2553046 -53.70 0.0007019847    1.241    0.194
       113 -10.5907    242.8043     80.3058   6.4670562568e+01   1.6139266227e+01    0.4351391    0.1269471 -41.03  0.001830455    2.655    0.623
       114 -10.3600    147.1290     80.3403   7.9022075756e+01   3.6447290707e+01    0.4409294    0.3117755 -27.36  0.002046447    1.596    0.373
       115 -10.4416    164.5044     78.9665   7.5158224213e+01   3.2547123137e+01    0.4517365    0.2817734 -78.69  0.001807295    2.523    0.604
       116  -8.8318     16.9929     79.2792   1.2667104730e+02   6.0821131088e+01     0.183358     0.176778 -59.33 0.0005093022    1.040    0.039
       117 -10.7169    249.7243     75.5164   6.2994111630e+01   1.5571694019e+01    0.3075164    0.1704922 -42.23 0.0009609921    1.439    0.305
       118  -9.0972    179.1463     77.8393   7.2311576252e+01   2.9340954379e+01    0.2211386    0.1803875 -66.02 0.0004680136    1.265    0.210
       119  -8.9833    217.2564     73.9600   6.6066415591e+01   2.1767196790e+01    0.1741458   0.09758653 -36.15  0.000884779    1.551    0.355
       120 -10.2065    174.0016     73.1439   7.1902994609e+01   3.1269367389e+01    0.4036311    0.2743546 -17.23  0.001405042    1.879    0.468
       121 -10.7244    183.2501     71.6072   7.0028178523e+01   2.9377686097e+01    0.3695311    0.3130651 -52.24  0.000861058    1.102    0.093
       122 -11.1703    165.6485     69.2111   7.2233807524e+01   3.3866151870e+01     0.894319    0.2421667 -33.08  0.002676086    3.917    0.745
       123  -9.5561    151.3300     72.0340   7.5719807610e+01   3.6870745699e+01     0.284724    0.2156803  71.83 0.0007324571    1.381    0.276
       124 -11.8299    206.7827     68.7585   6.6096002461e+01   2.4639900478e+01    0.4698479     0.338813 -73.92  0.001320337    1.543    0.352
       125  -9.8831    141.9157     68.3930   7.6575498067e+01   3.9802164072e+01    0.3768986    0.2618019 -68.19  0.001689183    1.755    0.430
       126 -10.5349    249.9325     66.6627   6.1145804755e+01   1.6657850987e+01    0.2144369     0.167878 -35.08 0.0004255193    1.127    0.113
       127 -10.7368    185.5428     62.6121   6.7327824383e+01   3.0191935576e+01    0.3191588    0.2406756 -30.67    0.0016812    1.352    0.260
       128 -10.9505     47.5747     63.0027   1.0686648870e+02   6.1451596677e+01    0.3209962    0.2726387 -55.46 0.0004210997    1.211    0.174
       129  -9.0613      8.7813     62.7671   1.2788983547e+02   6.5516782892e+01    0.1751696    0.1492947  57.22 0.0005427577    1.326    0.246
       130  -9.1857    161.2734     61.7291   7.0850845742e+01   3.6094950623e+01      0.22702    0.1298361 -19.08 0.0009067383    2.435    0.589
       131  -9.7929    122.0622     61.6366   7.9001317702e+01   4.5909183344e+01     0.294458    0.2058141 -56.48 0.0008792311    1.597    0.374
       132 -10.4465    171.4110     59.4885   6.8556208315e+01   3.3970722830e+01    0.4756527     0.261898 -65.01  0.001286778    2.395    0.582
       133  -8.3713    112.2964     61.6734   8.1588103813e+01   4.8321885001e+01    0.1558527    0.1192186 -78.08  0.000532305    1.629    0.386
       134  -9.9149     18.2343     59.4720   1.2169972827e+02   6.5683420694e+01    0.3907814    0.2306289  83.82  0.001717923    2.477    0.596
       135  -9.7702    197.8934     59.3423   6.4866644844e+01   2.7872354525e+01    0.3248308    0.1640492 -41.14 0.0008596673    1.745    0.427
       136  -9.4720    134.8607     59.1519   7.5180522666e+01   4.3104137214e+01    0.4390027    0.1255702 -46.19  0.001241768    4.089    0.755
       137  -8.6818     24.4805     60.4660   1.1838878636e+02   6.4893919317e+01    0.1353748    0.1274915 -36.08 0.0005880569    1.026    0.026
       138 -11.8597    107.6932     57.1382   8.1270630608e+01   5.0250275246e+01      0.33129    0.3172561   4.97 0.0003831496    1.136    0.120
       139  -9.5924    227.4186     56.4621   6.0995382938e+01   2.2098291633e+01    0.2952916    0.1700157 -49.75  0.000885778    1.510    0.338
       140  -9.4447     49.6875     56.6821   1.0356295789e+02   6.2538425773e+01    0.2603593    0.2188595 -39.61 0.0008687379    1.180    0.152
       141  -9.9389     52.4927     54.5180   1.0134800688e+02   6.2545849394e+01    0.3575862    0.2970881 -61.09  0.001767038    1.359    0.264
       142 -11.7675    177.5559     53.0050   6.5853369693e+01   3.3429283673e+01    0.3978619    0.2792033 -66.17 0.0005185805    1.474    0.321
       143 -10.6619    167.2601     50.4819   6.6626114958e+01   3.6275708090e+01    0.4637253    0.2413292 -30.01 0.0006829767    2.016    0.504
       144 -11.6008    119.1224     50.1497   7.5739125183e+01   4.8545206670e+01    0.7339683    0.3836091  49.29  0.003015378    1.848    0.459
       145  -9.3409     73.7178     50.5625   9.0249147744e+01   5.9287580011e+01    0.2082044    0.1383754  55.07 0.0009449197    1.600    0.375
       146  -9.7255    248.4215     48.7750   5.7558437520e+01   1.9107410074e+01    0.1592122   0.09960075 -24.49 0.0006032182    1.669    0.401
       147  -9.5786    232.5114     48.4302   5.8751139263e+01   2.2110464431e+01    0.2369305    0.1793583  68.93 0.0009836607    1.497    0.332
       148 -10.3811    228.2577     45.6642   5.8495589670e+01   2.3279425661e+01    0.5706641    0.1729071 -46.59  0.001943047    2.732    0.634
       149  -9.4398    202.3282     45.5254   6.0900974307e+01   2.8725839984e+01    0.2946175    0.1629174 -65.11  0.001044288    1.984    0.496
       150 -10.4096    188.8126     45.0970   6.2283697860e+01   3.1842622475e+01    0.2942923    0.1939034 -50.82 0.0004129718    1.389    0.280
       151 -12.1166    146.4429     39.7596   6.6646291259e+01   4.2997566712e+01     0.630141    0.3676158 -67.47   0.00130915    2.113    0.527
       152 -10.4739     73.3199     42.7793   8.7110174334e+01   6.0779061714e+01    0.2749404    0.2721474 -50.95 0.0005132526    1.105    0.095
       153  -8.9695    163.4567     42.8945   6.4967436108e+01   3.8254876065e+01    0.2036632    0.1355724 -34.06 0.0004175173    1.521    0.342
       154 -10.5807     96.3924     39.3011   7.7671180601e+01   5.5943578853e+01    0.2916922    0.2750775 -66.58 0.0005436977    1.138    0.121
       155 -10.2413    188.7824     38.6877   6.0594386939e+01   3.2662969344e+01    0.2482321    0.2271958 -87.83 0.0006151536    1.107    0.097
       156 -10.5471    213.6075    243.8076   9.9148301852e+01  -1.8453404691e+00    0.3906345    0.2816612  52.85  0.002309602    3.342    0.701
       157 -11.3013    194.4188     37.4100   5.9663652006e+01   3.1517402880e+01    0.4669566    0.2691425 -42.23  0.000681642    1.536    0.349
       158 -11.8495    213.8888    239.3340   9.8461779450e+01  -1.3549876454e+00    0.6698118    0.5205498  33.91  0.004933996    1.710    0.415
       159 -10.2309    194.5103     30.0942   5.7769616685e+01   3.2367427296e+01    0.3347682     0.220657 -38.64 0.0009400678    1.398    0.285
       160  -9.8933    195.4400     26.2443   5.6696278098e+01   3.2593965773e+01    0.3161209    0.2096694 -56.73  0.001137055    1.333    0.250
       161  -9.7897     89.5046     38.2506   7.9349388805e+01   5.7787649896e+01    0.3269837    0.2394275 -89.52  0.001067538    1.848    0.459
       162 -11.5817    180.4871     35.3224   6.0613049880e+01   3.5041651555e+01     0.479886    0.3733959  25.90  0.001878676    1.776    0.437
       163 -10.0876    173.4016     36.0740   6.1660227013e+01   3.6668114478e+01    0.3311847    0.2631812 -52.38  0.001042404    1.171    0.146
       164 -10.0712    163.1565     36.6201   6.3145026383e+01   3.9142752840e+01    0.4630976    0.2684487 -77.12  0.002044613    2.051    0.512
       165 -10.0030    225.1198     36.6837   5.6728802266e+01   2.4979026630e+01     0.272801    0.1789555 -34.70 0.0008924369    1.380    0.275
       166  -9.7370    226.6293     30.7323   5.5273564844e+01   2.5358641795e+01    0.2958304    0.2638213 -50.18  0.002097099    1.158    0.137
       167  -9.8925    200.3765     35.3542   5.8551948970e+01   3.0415722928e+01    0.2259456    0.1862744 -60.12 0.0004849411    1.039    0.038
       168  -9.7908    215.1922     34.1555   5.6945774874e+01   2.7328573892e+01     0.230782    0.1796923 -41.12  0.000674637    1.176    0.150
       169  -8.8103    100.4919    250.4945   1.2223671290e+02   1.1140345406e+01      0.12273   0.09210296  33.91 0.0008104459    1.029    0.028
       170 -10.3751    208.3169     27.0179   5.5802443968e+01   2.9624678627e+01    0.2556848    0.2274964 -43.58 0.0005466242    1.183    0.155
       171 -11.5849    244.7205     30.1335   5.3928173728e+01   2.1921021767e+01    0.5178488    0.2137719 -48.64  0.002382836    1.890    0.471
       172  -9.9473    117.6855     29.5343   6.8440147208e+01   5.1829789502e+01    0.2618085     0.227848 -85.34 0.0005826295    1.146    0.127
       173  -9.3907    109.4958     29.9772   7.0424168803e+01   5.3910728775e+01    0.2099493     0.144044 -33.77 0.0007255151    1.567    0.362
       174  -9.7778    103.8630     28.4624   7.1161437079e+01   5.5560197139e+01    0.2659702    0.2108335 -75.58 0.0007110101    1.427    0.299
       175  -9.1937    171.2005     28.2262   5.9679382253e+01   3.8151305888e+01    0.1995897    0.1405928 -65.58  0.001061281    1.351    0.260
       176  -9.1791    176.8886     25.6407   5.8323913064e+01   3.7051007850e+01    0.1893658    0.1522154 -81.18 0.0005190792    1.121    0.108
       177  -9.2459     85.5004     26.4512   7.5377910546e+01   6.0443224390e+01    0.3214831    0.1328997  58.90  0.001226282    2.251    0.556
       178  -9.6758    116.4571     24.9177   6.6918995634e+01   5.2711003909e+01    0.2580134    0.1891709  61.20  0.000363017    1.232    0.188
       179  -9.4054    127.5412     23.5660   6.4328980350e+01   4.9943727779e+01    0.2539333    0.2312675 -88.03 0.0007965392    1.044    0.042
       180 -10.6877    176.8842    241.1353   1.0543266568e+02   2.8024055771e+00    0.3475629    0.3031164 -21.01  0.001855497    1.400    0.286
       181 -10.0898    234.9229     23.2899   5.3082424716e+01   2.4534256081e+01    0.1616783    0.1314054 -64.31 0.0005306159    1.080    0.074
       182 -10.4419     73.3827     21.5517   7.7050170882e+01   6.3987285615e+01    0.3968872    0.2907953 -86.35  0.001241754    1.939    0.484
       183 -10.5406    183.9973     21.3511   5.6447289198e+01   3.5812312231e+01    0.2649338    0.2327613  46.11 0.0004203341    1.399    0.285
       184  -9.4317    123.3638     19.5194   6.3562627056e+01   5.1494170260e+01    0.2445674      0.21275 -62.09 0.0006504529    1.175    0.149
       185  -9.6160     79.8516    242.0756   1.2599992462e+02   1.5120010436e+01    0.2835898    0.1439141 -56.13  0.001540392    2.452    0.592
       186  -9.1035    121.8081    241.3734   1.1671197053e+02   9.8777117143e+00    0.1821624     0.100736 -59.06 0.0008820844    2.475    0.596
       187 -10.0205     59.2633     17.5173   8.0450169076e+01   6.7705777279e+01    0.2503915    0.2256173  28.01 0.0004852927    1.028    0.027
       188 -10.5453    165.1570     16.3122   5.6865488343e+01   4.0962772084e+01    0.2799524    0.2074606 -80.88 0.0006349348    1.226    0.184
       189  -9.0342     26.4908    233.4785   1.3739587408e+02   2.2683158108e+01    0.1190253   0.09157688  47.25 5.413064e-05    1.025    0.024
       190  -9.7792    100.1312    232.2074   1.2050653460e+02   1.4279117101e+01    0.2999786    0.1173885  42.08  0.001357565    2.142    0.533
       191 -10.8152    209.4152    223.1934   9.6838856939e+01   1.1463109430e+00    0.4975454    0.3003393 -43.15  0.003029758    2.162    0.538
       192 -10.4288    153.9791    225.0709   1.0780086080e+02   8.1199928773e+00    0.3843399    0.3141864  23.50  0.002556162    1.091    0.084
       193 -10.3977    150.3401    220.3487   1.0790388242e+02   9.3731584158e+00    0.2925884    0.2695311 -51.25  0.001995572    1.445    0.308
       194  -9.5073    181.2125    223.0043   1.0201442992e+02   4.7477985242e+00    0.2118466    0.2052669  31.78  0.001111028    1.534    0.348
       195  -9.8646    177.0598    219.0751   1.0223460510e+02   5.8702022882e+00    0.2644996    0.2263659 -62.62 0.0009414025    1.900    0.474
       196 -10.4455    249.5018    217.4738   8.9427423658e+01  -2.7180402694e+00    0.3153953    0.1384821 -34.75  0.001763528    2.155    0.536
       197  -8.6988    219.0453    221.9857   9.4992218523e+01   1.4832811435e-01    0.1376452    0.1018977   4.79 0.0006420801    1.031    0.030
       198  -9.3702     62.1611    221.1187   1.2834166972e+02   2.1204345659e+01    0.1769983     0.159663  22.80 0.0003651071    1.217    0.179
       199 -10.1984     61.5003    216.2338   1.2809512662e+02   2.2266523979e+01    0.3363935    0.2145925  73.42  0.001846264    1.772    0.436
       200 -10.1204    119.7938    218.1764   1.1437654817e+02   1.4082723079e+01    0.2469494    0.2346392  56.06 0.0006277529    1.249    0.199
       201 -11.8988     35.9704    214.8568   1.3421165534e+02   2.5444031321e+01    0.5849973    0.5025582  49.89  0.002218642    1.085    0.078
       202  -9.9340     11.6133    216.2729   1.4007212570e+02   2.7505176603e+01    0.2958398    0.2126559  11.74  0.001260796    1.677    0.404
       203  -9.5599    234.8249    213.1421   9.1010442869e+01  -6.0107217300e-01    0.2043268    0.1724194  -7.23  0.001094455    1.329    0.248
       204  -9.6167    222.4836    213.5287   9.3084721594e+01   7.9679055653e-01    0.1838045   0.09894239 -43.09  0.001034263    2.390    0.582
