#   1 NUMBER                 Running object number                                     
#   2 MAG_AUTO               Kron-like elliptical aperture magnitude                    [mag]
#   3 X_IMAGE                Object position along x                                    [pixel]
#   4 Y_IMAGE                Object position along y                                    [pixel]
#   5 X_WORLD                Barycenter position along world x axis                     [deg]
#   6 Y_WORLD                Barycenter position along world y axis                     [deg]
#   7 A_WORLD                Profile RMS along major axis (world units)                 [deg]
#   8 B_WORLD                Profile RMS along minor axis (world units)                 [deg]
#   9 THETA_WORLD            Position angle (CCW/world-x)                               [deg]
#  10 FWHM_WORLD             FWHM assuming a gaussian core                              [deg]
#  11 ELONGATION             A_IMAGE/B_IMAGE                                           
#  12 ELLIPTICITY            1 - B_IMAGE/A_IMAGE                                       
         1 -13.9954    222.9265      3.2871   3.9865381277e+01   2.8587027497e+01     2.417865    0.9932578  58.21  0.008086338    2.432    0.589
         2 -13.8605    180.9912     46.6637   5.7144691855e+01   3.3945039292e+01     1.150531    0.9785472 -14.47 0.0008679637    1.304    0.233
         3 -14.1035    192.2648     37.4501   5.2617577661e+01   3.2302859059e+01     1.366613     1.118877 -31.62  0.003258505    1.258    0.205
         4 -14.6833    200.2456     27.8352   4.8762358893e+01   3.1484128277e+01     1.743457     1.374954  26.48  0.001348409    1.589    0.371
         5 -10.5802    189.6562     14.8984   4.6396953828e+01   3.5721086772e+01    0.2389147    0.1820422  59.88 0.0007104194    1.268    0.211
         6 -12.6379     59.0568      3.4861   7.0774692745e+01   6.7106335039e+01    0.7746277    0.2844805  49.99  0.003370208    3.050    0.672
         7  -9.9839    159.4807     13.9780   5.0308332135e+01   4.3656698095e+01    0.2087353   0.09677784 -48.52  0.000810203    2.552    0.608
         8 -16.6771     71.1346    147.7362   1.1068158513e+02   3.6079814987e+01     15.34612     7.217195  81.67   0.03697926    5.871    0.830
         9 -10.5537     44.1851    210.3750   1.2343741097e+02   2.5885873645e+01     0.250418    0.1406409  67.49 0.0008456564    1.505    0.335
        10 -11.1413     42.2005    206.2559   1.2349364010e+02   2.6936019025e+01     0.268418    0.2231323 -60.55  0.001928849    1.601    0.375
        11  -9.9586     61.8202    219.9315   1.2094079584e+02   2.1837173442e+01    0.1551714    0.1256224  85.37 0.0005167693    1.169    0.145
        12 -12.6124    195.7115    198.4888   9.1762150093e+01   3.5776473522e+00     1.239839    0.9941608 -76.37  0.006877449    1.960    0.490
        13 -11.0990     96.8302    200.6108   1.1214196267e+02   2.0607201434e+01    0.3179745    0.2570829 -35.14  0.001177195    1.814    0.449
        14  99.0000     48.6836    217.5483   1.2315370239e+02   2.3950929129e+01     1.707904    0.9950352  13.70  0.006423996    6.831    0.854
        15 -11.7124     67.8817    207.0742   1.1864665939e+02   2.3530815603e+01    0.3790136    0.2241535  43.97 0.0003277486    1.562    0.360
        16 -13.1908     32.2574    206.5635   1.2536365129e+02   2.8004612534e+01    0.3551961    0.1523927  57.07   0.00145012    1.953    0.488
        17 -10.2498     73.1800    205.5722   1.1746041087e+02   2.3103514259e+01    0.3741134    0.3448023 -27.22  0.001379954    1.680    0.405
        18 -12.5292     28.4325    196.5399   1.2537541678e+02   3.0437474046e+01    0.2009725    0.1499733  76.35  0.000708956    1.021    0.021
        19 -10.8819    208.3001    196.0187   8.8921912193e+01   1.6900537123e+00    0.1850391      0.16455  -0.33 0.0007465993    1.100    0.091
        20 -10.0317     81.8493    194.9425   1.1455810106e+02   2.4028709427e+01    0.2446613    0.1846137 -81.04  0.001503509    1.263    0.208
        21 -13.4954     63.9421    189.6340   1.1769101101e+02   2.7645946355e+01     0.743651    0.6778882 -58.88  0.004622997    1.430    0.301
        22 -10.9904     96.8664    192.1672   1.1106912265e+02   2.2317866501e+01    0.2808817     0.251986 -12.46  0.001074277    1.636    0.389
        23  -9.8146     30.8212    217.8592   1.2636487270e+02   2.5966800180e+01    0.2470271    0.1936766 -17.02  0.001569384    2.943    0.660
        24 -11.0936     56.1283    211.8822   1.2132776306e+02   2.4122146223e+01    0.3791922    0.2426231  84.39  0.001659259    1.384    0.277
        25 -13.7394     54.5949    202.6483   1.2082722368e+02   2.6156265238e+01    0.6997274    0.4871827  53.58  0.002092778    1.269    0.212
        26  -8.9866     45.9880    190.5237   1.2145474291e+02   2.9716010536e+01    0.1610639   0.07323251  60.46  0.000532928    2.101    0.524
        27 -16.4075     59.0791    247.7147   1.2350056206e+02   1.7214426112e+01     6.852459     2.374258  32.03   0.02544055    5.784    0.827
        28 -11.9222    149.0357    186.4344   9.9078660793e+01   1.4379961965e+01    0.4335555    0.2938187  89.72  0.001974236    2.345    0.574
        29  -9.9214     37.2293    225.0784   1.2570620522e+02   2.3885948466e+01    0.1555546    0.1157325  78.89 0.0006941749    1.097    0.088
        30 -11.2182     99.4484    180.6628   1.0894060818e+02   2.4325171041e+01    0.2609965    0.2153547  69.45 0.0005517861    1.089    0.081
        31 -12.2222     76.1723    175.5594   1.1341671120e+02   2.9003977317e+01    0.3633005    0.2584305 -45.08  0.001593185    1.822    0.451
        32 -12.3003     79.9556    170.6950   1.1191888727e+02   2.9534528761e+01    0.3903716    0.3320068 -42.16  0.001151755    1.517    0.341
        33 -10.6925     58.8002    176.4855   1.1736109960e+02   3.1162425345e+01     0.222359    0.1803752  86.11 0.0003699557    1.031    0.030
        34 -10.4170     37.2271    176.2701   1.2197166744e+02   3.3775484621e+01    0.3287959    0.1544462  59.85   0.00168702    2.054    0.513
        35 -11.9325    141.7124    172.4442   9.8195993742e+01   1.8537117436e+01    0.5754498    0.4308287  53.85  0.002536613    1.284    0.221
        36 -10.7404     63.9061    172.7444   1.1580240065e+02   3.1325166396e+01    0.5599841    0.2003372  55.86   0.00212209    3.333    0.700
        37 -10.7916     46.2586    173.1215   1.1973175148e+02   3.3444603825e+01    0.3444545    0.2257622  44.41  0.001567325    1.542    0.352
        38  -9.5101    185.1563    169.2231   8.8275276085e+01   1.0557320668e+01    0.1914898    0.1743933  87.31 0.0006765021    1.336    0.251
        39 -10.9436    230.3776    166.7580   7.9070205331e+01   2.1620615726e+00    0.3674096     0.198164 -53.16  0.001477048    3.066    0.674
        40  -9.3862    200.9375    168.4885   8.4958809439e+01   7.5409046163e+00    0.2114559    0.1334514  44.10  0.001010858    1.533    0.348
        41  -9.5951    162.6734    167.9517   9.2752400696e+01   1.5318990553e+01    0.1979098    0.1847868 -63.13 0.0007651597    1.155    0.134
        42  -9.7457    192.3310    164.9227   8.5930113742e+01   9.8890910326e+00    0.2024081    0.1799999 -23.25 0.0005901664    1.143    0.125
        43 -12.2262    106.4941    210.6695   1.1141430810e+02   1.7123806090e+01    0.4572016    0.2957164  39.32  0.001822317    1.500    0.333
        44 -10.2167    157.8307    161.1077   9.2439998272e+01   1.7658734255e+01     0.354929      0.19723  52.16 0.0008877935    1.859    0.462
        45 -12.5081     93.7901    154.3467   1.0616135430e+02   3.1108283442e+01    0.6692456    0.4846551 -26.64  0.003232537    2.135    0.532
        46 -10.4212    188.9951    154.7694   8.4440138743e+01   1.2431626028e+01    0.2937526    0.1903319  30.07   0.00112475    1.698    0.411
        47 -11.4814    133.8060    144.9969   9.4630572514e+01   2.5940226097e+01     1.166372    0.3022517 -54.98  0.002875793    5.517    0.819
        48 -10.7407    174.6814    148.9660   8.6171354551e+01   1.6570553346e+01    0.2837426    0.2587878  45.66 0.0007806208    1.080    0.074
        49 -10.7574    144.0545    146.3849   9.2496625842e+01   2.3557449215e+01     0.543566    0.2521646 -64.27  0.001610448    4.150    0.759
        50 -11.6340    130.4803    213.3479   1.0699182289e+02   1.2686127911e+01     0.234039    0.1926148  64.24 0.0005477449    1.137    0.120
        51 -11.4159    105.9098    139.9693   1.0049584384e+02   3.2376078642e+01    0.6146426    0.3499348 -38.89  0.002558344    2.218    0.549
        52  -9.7302    110.5190    140.0435   9.9342504659e+01   3.1528228602e+01     0.306282    0.2014992 -88.35  0.001064229    2.141    0.533
        53 -12.4663     93.7386    139.8224   1.0358022027e+02   3.4499360555e+01    0.2926468    0.2547157 -53.86 0.0004834321    1.182    0.154
        54  -9.1261    102.0565    132.9637   1.0006615866e+02   3.4692164227e+01    0.1883784    0.1716385 -28.55 0.0003256052    1.282    0.220
        55 -10.9143    105.9227    130.7788   9.8595801690e+01   3.4514474412e+01    0.3588025    0.3076507 -80.09  0.001163363    1.169    0.144
        56 -11.3057    135.8407    128.4564   9.0435044677e+01   2.9191749478e+01     0.652721    0.2043679 -50.41  0.001963249    3.353    0.702
        57 -10.9249    114.0180    130.1807   9.6358733368e+01   3.3156748421e+01    0.3399045    0.3067214 -15.24  0.001811273    1.327    0.246
        58 -11.0443    119.5159    123.7812   9.3475642904e+01   3.3566725429e+01    0.6253939    0.3726462 -19.65  0.002028115    3.813    0.738
        59 -10.3106    161.0600    127.7933   8.4265426298e+01   2.3860924888e+01    0.3340871    0.2694305 -71.63  0.001585224    1.469    0.319
        60 -11.0914    101.2996    126.3693   9.8869842372e+01   3.6372488802e+01    0.2893485    0.2374645 -37.82 0.0007101946    1.345    0.257
        61 -10.2060    109.3747    119.1305   9.5066031934e+01   3.6590252748e+01    0.2495194    0.2087579  54.93 0.0002953754    1.239    0.193
        62 -10.1969    167.5452    112.4438   7.8901721395e+01   2.5544984923e+01    0.3768731     0.274731 -84.90  0.001572775    2.007    0.502
        63 -10.0176    135.0000    112.5085   8.6698495536e+01   3.2899463881e+01    0.3457791   0.08758805 -45.42 0.0009274991    3.877    0.742
        64 -11.5346    118.7776    110.1866   9.0335580204e+01   3.6807555555e+01    0.6114437    0.4456293  63.63  0.002819239    1.606    0.377
        65 -10.1585    205.5044    110.1350   7.0512508466e+01   1.7082267886e+01    0.3141887    0.2197131  42.03 0.0008663042    1.504    0.335
        66  -9.7581    134.5056    105.9549   8.5092515163e+01   3.4439199951e+01    0.2485133    0.1519738 -44.39  0.001036825    1.602    0.376
        67 -10.6439     67.1003    104.1865   1.0372001708e+02   4.7006448064e+01    0.3297781    0.2019493  17.54  0.001508976    2.356    0.576
        68 -11.1731     38.7170    212.1199   1.2457022829e+02   2.6183379216e+01     0.497148    0.1112865  48.98 0.0008744332    3.288    0.696
        69 -11.5149     42.1475     91.4189   1.0876001520e+02   5.2976665345e+01    0.3690616    0.2563852 -47.13  0.001053807    1.307    0.235
        70 -11.1039     52.7415     90.4105   1.0510400498e+02   5.2050873878e+01    0.3428383    0.2206151 -66.46  0.001466683    1.472    0.321
        71 -19.2918      6.0224    141.5027   1.2578487364e+02   4.4398338625e+01     17.89313     1.942573 -76.38   0.04013002   10.228    0.902
        72  -9.2968    182.4834     82.5257   6.7481034040e+01   2.7680072725e+01    0.1547533    0.1525057 -16.48 0.0001886056    1.037    0.036
        73  -9.2544    155.5535     80.5249   7.2629826712e+01   3.4744068154e+01    0.1557942    0.1533796 -17.38 0.0001564985    1.021    0.020
        74 -10.1209     65.5379     70.5563   9.5536183754e+01   5.4854592734e+01    0.2793616    0.1942365  46.66  0.001465848    1.726    0.421
        75 -11.1681    158.0502     60.0614   6.5714654532e+01   3.7773021941e+01    0.3649099     0.276751 -78.45 0.0004773971    1.674    0.403
        76 -11.2084     62.3624    236.0524   1.2211547065e+02   1.8809776631e+01    0.1990953     0.139836  77.30 0.0006181801    1.186    0.157
        77 -10.1416     43.3484    236.5444   1.2539113794e+02   2.1085574724e+01    0.1358867    0.1008646  82.58 0.0008321118    1.172    0.147
        78 -10.1638     51.0741    225.8396   1.2333805120e+02   2.2093548158e+01    0.2098034    0.1131106  71.73 0.0005419239    1.641    0.391
        79 -11.6820     49.7499    233.9424   1.2413734114e+02   2.0777644189e+01    0.2296598    0.1323023  66.71 0.0003617503    1.379    0.275
        80 -10.6584    160.3710     53.8942   6.3255727080e+01   3.8183409665e+01    0.2726848    0.2424185  70.78 0.0002915799    1.146    0.127
        81  -9.4479     58.4836    227.4238   1.2214260425e+02   2.0868567955e+01    0.1174487    0.0831072  66.99  0.000161469    1.070    0.066
        82 -10.9748     53.6451    231.2574   1.2327801641e+02   2.0780066829e+01     0.207864    0.1469176  86.43 0.0006520437    1.238    0.192
        83 -10.3951     77.5796     14.1718   6.9424376658e+01   6.2593688811e+01    0.2754176     0.159107  64.74   0.00123224    2.859    0.650
        84  -9.6399     47.4524    229.2188   1.2421063671e+02   2.1914178406e+01    0.1394312   0.08139326  79.46 0.0002901264    1.481    0.325
