#   1 NUMBER                 Running object number                                     
#   2 MAG_AUTO               Kron-like elliptical aperture magnitude                    [mag]
#   3 X_IMAGE                Object position along x                                    [pixel]
#   4 Y_IMAGE                Object position along y                                    [pixel]
#   5 X_WORLD                Barycenter position along world x axis                     [deg]
#   6 Y_WORLD                Barycenter position along world y axis                     [deg]
#   7 A_WORLD                Profile RMS along major axis (world units)                 [deg]
#   8 B_WORLD                Profile RMS along minor axis (world units)                 [deg]
#   9 THETA_WORLD            Position angle (CCW/world-x)                               [deg]
#  10 FWHM_WORLD             FWHM assuming a gaussian core                              [deg]
#  11 ELONGATION             A_IMAGE/B_IMAGE                                           
#  12 ELLIPTICITY            1 - B_IMAGE/A_IMAGE                                       
         1 -11.4250      5.8487     30.9992   8.8068107876e+01   6.9868725033e+01    0.7272507    0.5988334  38.38  0.004146192    1.740    0.425
         2  -9.9059     81.3397     13.1580   4.8066193476e+01   6.0608756911e+01    0.3719628     0.209909  61.61 0.0007002314    1.714    0.417
         3 -11.6600     14.7720     47.5351   8.9146189851e+01   6.6193558929e+01     1.242523    0.9217151 -87.15  0.005413963    2.581    0.613
         4 -10.6399     50.6567     33.0001   6.6677791298e+01   6.4100696133e+01    0.7364041    0.5179125 -25.78  0.004410128    1.439    0.305
         5 -10.7775     75.4357     18.3815   5.1808169922e+01   6.1311822657e+01    0.6108319    0.3894545 -30.64  0.003524924    1.787    0.440
         6 -12.6754     61.1742     32.6899   6.2395159478e+01   6.2354100819e+01     2.218624     1.243495 -40.11   0.01150698    2.061    0.515
         7 -11.8621     66.4091     21.1765   5.5832703332e+01   6.2785624378e+01     1.061471    0.6042468  43.22  0.005818524    1.485    0.327
         8 -12.1218    162.6664     53.9782   4.3803879919e+01   3.7401516264e+01     1.479162    0.5022154 -44.73  0.005595088    2.965    0.663
         9 -12.0079     99.5925     45.6964   5.4846007651e+01   5.2973099219e+01    0.9534002    0.7858261 -42.82  0.005551976    1.365    0.267
        10 -10.8543     90.5824     35.8299   5.3932128111e+01   5.6202098854e+01    0.8297033    0.4658581 -26.51  0.004113816    2.038    0.509
        11 -12.3438    182.4161     48.5420   3.9480554060e+01   3.3669344397e+01     1.226052    0.2296343  63.60   0.00360068    5.137    0.805
        12 -11.3899    126.4251     37.8204   4.5916702818e+01   4.7977743855e+01    0.7062852     0.569782  69.52  0.002372157    1.158    0.137
        13  -9.3350     69.8150      7.8895   4.9245883554e+01   6.3426817399e+01    0.9530426    0.5051985  25.06  0.004888619    2.177    0.541
        14  -9.7345     37.9343     15.6697   6.4630934259e+01   6.8329423520e+01    0.5125942    0.2267238 -36.85  0.002611445    2.540    0.606
        15 -10.9879     45.4308     19.3524   6.3024554065e+01   6.6710318432e+01     1.070548    0.5515236  18.84  0.005126399    2.428    0.588
        16  -9.1574    111.4592     19.5009   4.3195710709e+01   5.3438745487e+01     0.601504    0.2695428  71.27  0.002562619    2.536    0.606
        17  -8.6645     93.3238     14.8127   4.5617301452e+01   5.7908171733e+01    0.2942749    0.1566284  27.63  0.001382985    2.395    0.583
        18 -10.5880    132.1880     21.2991   3.9880150989e+01   4.8507143616e+01    0.4906218    0.2782553 -80.45   0.00198884    2.528    0.604
        19 -12.6898    245.7742     10.4230   2.5761137825e+01   2.5360246210e+01     1.372254    0.5622452 -45.40  0.008104774    1.940    0.485
        20  -9.1853     29.7663     18.1744   6.9674608413e+01   6.9207811785e+01    0.3384254     0.226111 -49.09  0.001968523    2.351    0.575
        21  -8.9961     61.4314      5.2661   5.0747065729e+01   6.5289900125e+01    0.2443842    0.1097604 -26.81  0.001261838    2.503    0.600
        22  -9.3727     91.9706      3.8460   4.1949013518e+01   5.9130852171e+01    0.1773196    0.1574992  39.89            0    1.123    0.110
        23  -9.7002     30.9884    134.0572   1.0242010485e+02   4.4951459310e+01    0.3318432    0.1958012 -75.79  0.001318775    1.708    0.414
        24  -9.8296    214.9650    249.6245   7.5334676507e+01  -7.6226336654e+00    0.2470393    0.1674042  -1.53  0.000951067    1.308    0.235
        25  -9.6151    206.5022    250.5075   7.7079833844e+01  -6.7340979764e+00    0.2417978    0.1047967  29.40 0.0008586395    2.124    0.529
        26 -10.2392    195.3811    250.3665   7.9222110356e+01  -5.3236238093e+00    0.4195969    0.1442675  32.60  0.001829483    2.647    0.622
        27 -10.0785    188.4705    249.4516   8.0455586344e+01  -4.2880759410e+00    0.3051568     0.209263  16.71  0.001661187    1.279    0.218
        28  -9.0731     43.7022    132.9584   9.8024417182e+01   4.3908994941e+01    0.3978165     0.184103 -66.02   0.00159559    2.084    0.520
        29  -9.8414      8.8207    131.7728   1.0933332346e+02   4.7334300049e+01    0.3133557    0.2832907 -62.20 0.0008213014    1.068    0.064
        30  -8.2817     61.6763    132.7121   9.2031140191e+01   4.1719292923e+01    0.1528287    0.1104066 -26.03 0.0002312472    1.605    0.377
        31  -9.7966     22.9680    129.2072   1.0432215797e+02   4.6920415525e+01     0.545217    0.1916662 -42.93  0.001966827    3.054    0.673
        32  -8.1174     73.6615    130.3044   8.7613069230e+01   4.0584083353e+01    0.1553793    0.1175454  69.28 0.0005693886    1.674    0.403
        33  -8.6972     82.9686    129.5026   8.4451402900e+01   3.9298038260e+01    0.2222172    0.1516951  34.62 0.0004181187    1.501    0.334
        34 -10.4617      3.6786    124.9582   1.1014622665e+02   4.9378006546e+01    0.5204818    0.3031712  15.81  0.001903879    2.011    0.503
        35 -10.1537      3.4274    103.1315   1.0715108458e+02   5.4781475002e+01    0.7959387    0.2753672 -60.81  0.003425481    2.157    0.536
        36 -11.5108      3.9746    114.0031   1.0857726112e+02   5.2091117848e+01     1.124161    0.7710685 -68.88  0.005193973    1.250    0.200
        37  -9.7762     22.5114     96.8871   9.8692975725e+01   5.4978265902e+01    0.2598419    0.1882099  19.18 0.0004843108    1.506    0.336
        38 -10.1593     12.1755    113.6836   1.0562916312e+02   5.1659328049e+01    0.5238999    0.2748447 -67.27    0.0025382    1.652    0.395
        39  -9.4889     15.3240    109.0994   1.0373642616e+02   5.2573313333e+01    0.6092955    0.2239945 -70.70  0.002346029    2.695    0.629
        40  -9.0182     14.7851    100.0344   1.0231754909e+02   5.4819326504e+01    0.4585768     0.161342 -65.50  0.001048018    2.515    0.602
        41 -10.5827     12.1630     96.6276   1.0269613630e+02   5.5815618268e+01    0.5903603    0.2909228 -16.42   0.00148888    2.585    0.613
        42 -10.0824     43.3513    122.3603   9.6156246162e+01   4.6659720694e+01    0.5823028    0.2621387 -65.04 0.0008425043    2.190    0.543
        43  -9.8658     46.9757    115.8415   9.3552363690e+01   4.7876479535e+01    0.3005575    0.2498399 -15.97 0.0003358176    1.274    0.215
        44 -11.1079     40.7773    110.0117   9.4545408854e+01   5.0031257676e+01    0.5519534    0.3866999 -22.37  0.001545116    1.580    0.367
        45 -10.6804     46.5660    109.8474   9.2395700962e+01   4.9405103387e+01    0.5069783     0.294357 -78.01  0.002080363    2.435    0.589
        46  -9.4750     35.0719    122.5808   9.9075460599e+01   4.7490075821e+01    0.3117161    0.2331923  52.13  0.001634686    1.548    0.354
        47  -8.2337     80.9491    121.9841   8.3352440422e+01   4.1488473501e+01    0.1803822    0.1720209  18.17 0.0009657224    1.070    0.066
        48  -8.7728     89.2972    120.4047   8.0297103383e+01   4.0444468327e+01    0.2572365    0.1926931 -77.93 0.0006692144    1.717    0.418
        49  -8.8847     76.4631    120.4774   8.4462421854e+01   4.2588858684e+01     0.325554    0.2224488 -68.07  0.001453506    1.689    0.408
        50  -8.9005     70.3725    120.1030   8.6401353190e+01   4.3633617834e+01      0.28609    0.1621954 -43.05  0.001201428    1.754    0.430
        51  -8.1054     57.9759    120.9749   9.0810986135e+01   4.5196942921e+01    0.1757075    0.1583339 -49.09 0.0003045094    1.040    0.039
        52  -9.9241    108.0098    119.9815   7.4488984195e+01   3.7063948936e+01    0.2235003    0.2189634 -22.79            0    1.006    0.006
        53  -8.1832     93.8489    120.4019   7.8869468062e+01   3.9631703504e+01    0.2093322    0.1483288  21.97 0.0007678882    1.606    0.377
        54  -8.0408     60.6478    114.2864   8.8381678782e+01   4.6487157294e+01    0.1479829    0.1136457  65.20  0.000239548    1.665    0.399
        55  -9.3386     32.8741    112.7699   9.7996099016e+01   5.0173923735e+01      0.49694    0.2207194  14.07  0.001961486    2.843    0.648
        56  -8.7839     22.4799    112.5422   1.0172908329e+02   5.1168966120e+01     0.298064     0.134224  20.23  0.001290388    2.462    0.594
        57  -9.0410     27.0635    113.8596   1.0030924120e+02   5.0447169715e+01    0.2457597    0.1772363 -48.55 0.0003383541    1.227    0.185
        58  -9.8391     25.2436    110.2622   1.0030241129e+02   5.1500355966e+01    0.3267339    0.2453128  57.97  0.001764354    1.636    0.389
        59  -9.6739     66.0176    109.0070   8.5237307311e+01   4.6987559453e+01    0.3609126    0.2493026  -1.75  0.001628267    1.869    0.465
        60 -10.5030     64.9035    103.1525   8.4154836919e+01   4.8538428680e+01    0.5467266    0.3455887 -37.75  0.002080343    1.597    0.374
        61  -9.5392     70.0732    103.0494   8.2300678095e+01   4.7767996303e+01     0.361216    0.2735153  86.14 0.0008340075    1.950    0.487
        62  -9.2457     70.0530     99.0964   8.1259336985e+01   4.8679460363e+01    0.2219702    0.1979705 -23.07  0.001208929    1.083    0.077
        63  -8.9603     89.6848    107.9956   7.7016652796e+01   4.3293150881e+01    0.2950787    0.2063166  35.28 0.0009547738    1.447    0.309
        64  -9.4344     77.4808    107.4929   8.0908130027e+01   4.5534103220e+01    0.3047839    0.2325753 -38.43  0.001502311    1.291    0.225
        65  -9.7582     60.1318    108.0701   8.7086904547e+01   4.8067228896e+01    0.2624357    0.2242963  44.10  0.001409019    1.286    0.222
        66  -8.7292     82.1423    110.8814   8.0223752021e+01   4.3953395057e+01    0.2306997    0.1759059 -14.68 0.0004599624    1.558    0.358
        67  -9.6837     36.3273    104.2601   9.4954799925e+01   5.1912593868e+01    0.3592486    0.2472797 -40.26  0.001425368    1.347    0.258
        68 -10.4342     50.8513    103.1899   8.9275722436e+01   5.0482386145e+01     0.437574    0.2561377  46.96  0.001939156    2.089    0.521
        69 -10.1898     52.7884     90.1928   8.5213293889e+01   5.3233735475e+01    0.5536512    0.3517051 -17.45  0.002299815    1.956    0.489
        70  -9.3676     44.1164     81.1133   8.6124934692e+01   5.6356851949e+01    0.2724873    0.1947433 -18.22  0.001154048    1.453    0.312
        71 -11.6399     46.0261     95.3688   8.9167669025e+01   5.2923728917e+01    0.8673094    0.6201378 -88.42  0.001459524    2.100    0.524
        72  -9.9097     40.0443     80.9851   8.7752170782e+01   5.6874581780e+01    0.4364881     0.214241 -53.73  0.001452069    1.937    0.484
        73 -11.5796     52.8112     79.8300   8.2271802169e+01   5.5487111348e+01    0.8496929    0.5488988  13.85  0.002657794    1.720    0.418
        74 -10.3382     48.9171     85.3284   8.5383988741e+01   5.4827075288e+01    0.4680237    0.2979615 -54.82   0.00211321    1.585    0.369
        75  -9.9728     45.0274     85.4602   8.6963375444e+01   5.5292488918e+01    0.4298388    0.2471199  21.36 0.0008880303    1.848    0.459
        76 -11.1468    111.9017    100.2020   6.8135991894e+01   4.0683186523e+01      0.55246    0.3549952 -20.17  0.001831725    2.265    0.558
        77  -9.2680     96.5279    102.0211   7.3239452327e+01   4.3358804901e+01    0.2754741    0.2203676  28.81 0.0003715853    1.281    0.219
        78  -9.6750     97.9552     98.3082   7.1766860176e+01   4.3891562064e+01    0.2983278    0.2317135 -43.49 0.0005274373    1.288    0.224
        79 -10.5396     80.7200     99.9100   7.7794833909e+01   4.6720862701e+01    0.4201845    0.2633786  20.02  0.001033649    1.934    0.483
        80  -8.9026     29.3765    103.3716   9.7394917105e+01   5.2815335874e+01    0.2259537    0.1406297 -32.69  0.001108434    1.633    0.388
        81  -9.2356     33.4538     99.1629   9.4923902812e+01   5.3431264996e+01    0.3115225    0.1973079  10.77  0.001120798    1.774    0.436
        82  -9.0900    137.3060     96.3144   6.0358360101e+01   3.6012959797e+01     0.149817    0.1205005   6.20 0.0002796277    1.623    0.384
        83  -8.9043     65.0689     94.3286   8.1751094476e+01   5.0534626455e+01    0.3188908    0.2357347 -86.64  0.001466671    2.100    0.524
        84  -9.6080     66.1209     88.8945   7.9844676599e+01   5.1570888838e+01    0.5541353     0.236674 -39.76  0.002091906    2.468    0.595
        85 -10.2744     72.3064     89.0858   7.7666475324e+01   5.0529478646e+01    0.6074767    0.4271545 -87.20  0.001140738    2.619    0.618
        86 -10.9448     62.0460     83.9513   7.9925143202e+01   5.3264529847e+01     0.444197    0.3388242 -14.24  0.001852362    1.401    0.286
        87 -10.0508     68.1513     82.6282   7.7265674582e+01   5.2579487336e+01    0.3769382    0.2722321 -25.64 0.0009075362    1.458    0.314
        88 -10.3649     64.7674     81.0068   7.8029591620e+01   5.3459948071e+01    0.5002837    0.2657186 -44.06 0.0006203323    1.830    0.454
        89  -9.1745     31.0108     94.7415   9.4876290286e+01   5.4718971275e+01    0.4022475    0.2495301  17.25  0.001506808    1.744    0.426
        90  -9.4786    134.1558     93.3556   6.0326077310e+01   3.7290367722e+01     0.224061    0.1382682  58.94 0.0009544942    1.780    0.438
        91 -10.3492    110.8139     93.6819   6.6624513611e+01   4.2265807740e+01     0.438232    0.1398823  46.03  0.001379426    3.123    0.680
        92  -9.8343     97.7127     91.2753   6.9840574457e+01   4.5424325191e+01    0.4912364    0.3517288  57.84  0.002297513    1.638    0.389
        93 -11.3039    107.3213     86.4175   6.5538628991e+01   4.4451930226e+01    0.4407285    0.3797854 -83.55 0.0005192115    1.418    0.295
        94 -10.4054      7.1293     87.9033   1.0303976159e+02   5.8184635926e+01    0.4598497    0.2200078  13.09  0.002095934    2.335    0.572
        95  -9.5885     13.9985     85.5021   9.9715813738e+01   5.8292927873e+01    0.3551461    0.2395672 -15.94  0.001714946    1.535    0.349
        96 -10.4906    116.3857     87.9384   6.3422225906e+01   4.2233551380e+01    0.3151144    0.2670023  55.98  0.001284429    1.203    0.169
        97  -9.4895     16.6349     88.7283   9.9322055663e+01   5.7357739325e+01    0.2706398    0.1889188 -76.03 0.0002876732    1.614    0.381
        98  -8.4545    173.6834     86.7575   5.0199023441e+01   2.9661574242e+01    0.2301194    0.1856948  49.80            0    1.314    0.239
        99  -8.7006    176.6637     85.2874   4.9303694795e+01   2.9258243058e+01    0.2077011    0.1730846  64.49 0.0005287856    1.208    0.172
       100  -9.6486    139.5189     83.6030   5.6374601465e+01   3.7927607037e+01    0.3357888    0.2658434 -41.81  0.001033196    1.291    0.225
       101  -9.2804     29.4137     83.6494   9.2857155689e+01   5.7422274900e+01    0.3229505    0.2268615 -66.92   0.00157908    1.584    0.369
       102  -9.0172    162.6556     84.3247   5.1662918150e+01   3.2556164892e+01     0.152377      0.10886 -78.38 0.0007050519    1.739    0.425
       103  -8.6098    145.1689     83.3887   5.5043116945e+01   3.6686132202e+01    0.2365596      0.17418 -49.63 0.0006307989    1.383    0.277
       104  -7.9198    101.3072     84.2997   6.6692398730e+01   4.6109054290e+01    0.1487722    0.1152524   4.22 0.0001883209    1.595    0.373
       105  -8.4183     88.2768     84.0560   7.0714353183e+01   4.8727210517e+01    0.2504888    0.1838237  27.88 0.0006594461    1.399    0.285
       106 -11.6245     81.3338     55.7268   6.3849272683e+01   5.5217103641e+01    0.6197649    0.4526817  19.50  0.003278268    1.461    0.316
       107 -10.2109     82.0096     80.4350   7.1703133984e+01   5.0622665066e+01    0.5994181    0.3346641 -44.95  0.002653715    1.820    0.451
       108 -10.4792     87.7038     72.4351   6.7301485233e+01   5.1083402485e+01    0.7267091    0.4013653 -39.54  0.001648777    1.869    0.465
       109  -9.8383     82.2113     73.4827   6.9460580601e+01   5.1934237486e+01    0.3999949    0.3202353  45.96   0.00145177    1.293    0.227
       110  -9.7710     84.9405     63.9633   6.5449895898e+01   5.3137999486e+01    0.5912001    0.3196868 -33.85  0.002637429    2.000    0.500
       111  -8.9481     75.4665     82.3066   7.4539262818e+01   5.1414290629e+01     0.374264    0.2397827 -66.76 0.0009829369    2.409    0.585
       112  -9.2044    151.6723     73.8718   5.1098286755e+01   3.6853498103e+01    0.2482306    0.1765863 -26.60 0.0005873729    1.676    0.403
       113 -11.8573    150.8457     66.7313   4.9334071821e+01   3.8209193496e+01    0.9116882    0.6860942  29.15  0.003351123    1.704    0.413
       114  -9.9444    128.1843     80.3578   5.8168512750e+01   4.1069323244e+01    0.4239407    0.3832155  64.42  0.001766896    1.105    0.095
       115 -10.9092    126.0610     74.7688   5.7079860772e+01   4.2540974941e+01    0.5932501    0.2632862  46.46  0.002316284    2.185    0.542
       116 -10.0909    136.0299     77.4142   5.5456457081e+01   3.9824522579e+01    0.5135278    0.3198809  67.74  0.002253863    1.912    0.477
       117 -11.8744    139.6870     72.3615   5.3211291943e+01   3.9857849135e+01    0.8758364    0.4619939  54.51  0.001493246    1.822    0.451
       118  -8.6462    116.9927     55.8457   5.3615583036e+01   4.7663837410e+01    0.3977771    0.2259998  36.60  0.001762425    1.996    0.499
       119 -10.3577    101.5124     70.5373   6.2420005739e+01   4.8635275059e+01    0.3959253     0.339167 -68.82  0.002025861    1.418    0.295
       120 -10.7515    104.4881     75.1240   6.2974096281e+01   4.7187071240e+01    0.6646264    0.4312407  -1.19  0.002653418    2.693    0.629
       121 -11.3674    107.9996     63.4181   5.8333889296e+01   4.8463277795e+01    0.8988214    0.6123797 -32.62  0.004484477    1.588    0.370
       122 -11.4099    119.8118     61.0030   5.4512399891e+01   4.6235236560e+01    0.8348844    0.5557096  -1.35  0.001428487    2.470    0.595
       123 -11.8551    115.5256     73.7670   5.9487413483e+01   4.5056786601e+01    0.9765596    0.6680847 -28.33  0.004670538    1.664    0.399
       124  -9.9714    162.5998     74.6358   4.9178967148e+01   3.4225855025e+01    0.6148844     0.241327  64.89  0.002091776    3.309    0.698
       125  -9.0302    170.0168     81.0281   4.9440859100e+01   3.1471421630e+01    0.3395958    0.1949565  75.93  0.001405649    2.368    0.578
       126 -10.9700    172.1311     77.0068   4.8056818429e+01   3.1674657100e+01    0.4670867    0.3587956 -62.53  0.002455708    1.308    0.235
       127 -10.9550    174.0811     72.3585   4.6563812069e+01   3.1997955167e+01    0.3958007    0.2476713  53.26  0.001547025    1.623    0.384
       128 -10.3645      5.0053     79.9826   1.0233744567e+02   6.0120334741e+01    0.3546188     0.244877   5.47  0.001011848    1.567    0.362
       129 -10.1541      8.6766     79.6508   1.0069678643e+02   5.9976501692e+01    0.5182016      0.25279 -48.97  0.001771493    1.636    0.389
       130  -9.9123     68.1398     48.6995   6.5951797848e+01   5.8796258162e+01    0.3680698     0.286261  36.79  0.001224753    1.210    0.173
       131  -9.0925    155.3208    249.3403   8.7326207052e+01   2.4831151678e-01    0.1347052   0.09147574  -5.62  0.000705021    1.718    0.418
       132 -11.4547     39.8241     62.0245   8.2134911573e+01   6.0804295504e+01    0.6011913    0.4122418  -0.67  0.001283168    1.535    0.349
       133  -9.1717    133.6926    247.3537   9.1748702439e+01   3.6985942997e+00    0.1307116   0.09711653  60.48 0.0007042557    1.718    0.418
       134 -10.4255     29.9867     74.1675   9.0103438500e+01   5.9442687027e+01     1.219693    0.5575662 -23.43  0.004651923    3.201    0.688
       135 -11.9932    178.9954    242.0916   8.1236285629e+01  -1.8081986071e+00     0.695531    0.3947549   3.58  0.003230885    2.345    0.574
       136 -10.4647      2.8121     38.8702   9.2555986436e+01   6.8700767511e+01    0.3811515    0.2175856 -60.54  0.001283541    2.042    0.510
       137 -10.9233     59.9349     63.5149   7.4298502410e+01   5.7659426839e+01    0.7487667    0.7333369 -24.93  0.004721208    1.227    0.185
       138  -9.4947    245.4149    243.1874   6.8840575246e+01  -1.0122471678e+01    0.2245793   0.08874983 -34.72   0.00115821    2.166    0.538
       139 -11.1785     24.1706     68.2648   9.1012626191e+01   6.1254668757e+01     1.033513      0.33261  30.63  0.004161715    3.130    0.681
       140 -11.3454     29.3288     61.5817   8.6680763196e+01   6.2102104177e+01    0.6514722    0.4023602 -27.28  0.001913962    1.556    0.357
       141 -11.3141     60.0613     51.6585   7.0092918401e+01   5.9714986478e+01     1.021406    0.4124823 -30.65  0.002786334    3.170    0.685
       142  -8.1907    211.5446    241.4751   7.4669359819e+01  -5.9763332810e+00    0.1238972   0.09854686  -4.27 1.905755e-05    1.006    0.006
       143 -11.2234     54.9298     45.5146   6.9856541815e+01   6.1547795845e+01     0.784948    0.4757758  24.06  0.004062916    1.649    0.394
       144  -8.9270    221.0184    239.2737   7.2533528378e+01  -6.7956264560e+00    0.1756372    0.1368005   0.30  0.001172736    1.063    0.060
       145  -9.0513     96.2207     71.6945   6.4373239186e+01   4.9522591284e+01    0.3560615    0.2221401 -32.83 0.0009451422    1.735    0.424
       146 -10.0003     72.1550     76.2507   7.3853529909e+01   5.3203943891e+01    0.3410516    0.2458927  30.79  0.001186571    1.358    0.264
       147  -8.5877     18.3916     77.1612   9.5923814458e+01   5.9841232237e+01    0.2606364    0.1419343  17.10  0.001317283    1.952    0.488
       148  -8.9616     15.4946     74.0007   9.6412293443e+01   6.0759248715e+01     0.224075    0.1867755 -74.63  0.001384647    1.435    0.303
       149  -9.8254     38.6284     72.5538   8.5930536619e+01   5.8836437112e+01    0.3411304    0.2692825  17.51  0.001126336    1.268    0.211
       150  -9.1016    188.6586     72.2861   4.4215106281e+01   2.8777648060e+01    0.1410502   0.09638631 -75.58 0.0004347788    1.640    0.390
       151  -9.5508     52.7807     71.0154   7.9593022470e+01   5.7301461096e+01    0.2973828    0.2239612   8.32  0.001179054    1.346    0.257
       152  -8.5548    181.5132     71.4925   4.5134110217e+01   3.0476313075e+01    0.1360687    0.1247456 -78.41 0.0008103333    1.028    0.028
       153  -9.7149     11.5368     67.5182   9.6560353122e+01   6.2443144910e+01    0.3928561    0.1767218 -40.65  0.001906144    1.877    0.467
       154  -8.6645      8.4819     66.4885   9.7706394287e+01   6.2868540534e+01    0.5123771     0.159263 -54.05 0.0006292366    2.428    0.588
       155  -8.7992    123.2023     67.8384   5.5741439458e+01   4.4365638443e+01    0.2964268     0.186147 -51.05 0.0008441269    1.795    0.443
       156 -10.7722     42.4795     54.0106   7.8247420395e+01   6.1953694210e+01    0.8444647    0.4621792  -0.10  0.003550849    2.839    0.648
       157 -11.3533    205.9427     67.3497   4.0669695342e+01   2.5850999409e+01    0.3376013    0.2953739  63.44  0.002147736    1.279    0.218
       158 -10.1224     94.0357     66.9259   6.3522557993e+01   5.0813022759e+01    0.3982188    0.2765321  20.34  0.001909904    1.717    0.418
       159  -9.9388     97.4748     61.6828   6.0777970923e+01   5.0992334849e+01    0.3506354    0.2611421  10.69  0.001118528    1.646    0.392
       160 -10.0017    173.1264     65.8808   4.5110558143e+01   3.3237408816e+01    0.2211941    0.1750254 -73.53 0.0007075157    1.267    0.211
       161 -10.5132    136.9413     63.0666   5.1173565933e+01   4.1999890107e+01    0.4325934    0.3078321  38.24  0.002179163    1.546    0.353
       162  -8.8727     92.5096     59.9519   6.1707156410e+01   5.2303227268e+01    0.3072491    0.1312351 -44.72  0.001205169    2.636    0.621
       163 -11.1193    176.2958    238.8328   8.1281914214e+01  -8.7594162748e-01    0.2907234    0.2533374  -7.93  0.001621299    1.088    0.081
       164  -9.9753    176.4917     60.4527   4.3229566522e+01   3.3301451815e+01    0.3267465    0.1555196  54.24  0.001457278    2.087    0.521
       165 -10.0841    118.6626     81.4125   6.0916940121e+01   4.2983573721e+01    0.4881046    0.3464633  60.97  0.001595976    1.538    0.350
       166 -11.4991    138.9429     54.8502   4.8398446111e+01   4.2779584666e+01     0.644208    0.5146698 -64.91  0.002178706    1.364    0.267
       167  -9.6163    128.7518     58.3663   5.1608608438e+01   4.4609623186e+01    0.6619456    0.2644053  39.17  0.002205814    3.559    0.719
       168 -10.6325    130.3427     53.4551   4.9797208391e+01   4.4972556388e+01    0.4555832    0.3708115 -31.26  0.002527599    1.360    0.264
       169 -11.1469    190.4630     58.3095   4.0684362794e+01   3.0509431527e+01    0.3306506    0.2054876 -58.79  0.001017153    1.588    0.370
       170  -9.9951      3.3950     56.5230   9.7540786379e+01   6.5254829023e+01    0.4998738     0.432768 -66.55  0.003426933    1.386    0.279
       171  -9.4257      4.3561     51.6818   9.5715477924e+01   6.6166265186e+01    0.2500626    0.1757969  26.11  0.001009378    1.639    0.390
       172  -8.9006      3.3075     48.6662   9.5370478958e+01   6.6822513697e+01    0.2102013    0.1679773  34.46    0.0007588    1.620    0.383
       173 -11.4047    208.6422     56.4342   3.7954434516e+01   2.6893468588e+01    0.3547086    0.2803743 -13.67  0.001852138    1.894    0.472
       174 -10.3235    149.1763     53.5914   4.6061415507e+01   4.0582765739e+01    0.3790734    0.3465734  57.52  0.002295645    1.110    0.099
       175  -9.7117    161.6188     34.9395   3.9024957550e+01   4.0157490063e+01    0.2938161    0.2284661 -68.25 0.0008786028    1.271    0.213
       176  -9.8011    197.9646    245.0226   7.7870149075e+01  -4.8155016858e+00    0.2112972    0.1311832  -5.94  0.001144724    1.734    0.423
       177 -11.4428    151.3281     46.1945   4.3651203796e+01   4.1107644307e+01    0.7126456    0.5685344  -7.23  0.003997834    1.695    0.410
       178 -11.5116    164.8381     40.0624   3.9871699452e+01   3.8779668230e+01    0.2798156    0.2389353  57.28 0.0002464046    1.226    0.184
       179 -10.5410    181.5830     56.7563   4.1567421914e+01   3.2700593816e+01    0.3002567    0.2114995 -81.70  0.001399388    1.493    0.330
       180  -9.9152    204.0665     56.4576   3.8508026801e+01   2.7849403293e+01    0.1863508    0.1177082  69.62 0.0005972736    1.566    0.361
       181  -9.4975    174.9841     55.4388   4.2223601670e+01   3.4375886908e+01    0.2154313    0.1948544  -5.66 0.0006682762    1.449    0.310
       182  -9.8667    191.9303    233.7575   7.7244894727e+01  -2.1738219106e+00     0.315657    0.1948149 -62.15   0.00144071    3.081    0.675
       183 -10.8223    211.8064    217.1514   7.0499644205e+01  -2.0713681627e+00    0.4741592    0.2530935  -1.76  0.001952967    3.120    0.679
       184 -10.7829     83.3129     40.3358   5.7732310276e+01   5.7113721999e+01    0.6988754    0.3398655  39.37   0.00318058    1.945    0.486
       185  -9.8263     82.1314     35.5677   5.6348287072e+01   5.7981603039e+01    0.4610063    0.2443823  57.74  0.001440976    2.061    0.515
       186  -9.8459     82.6810     30.5815   5.4323338538e+01   5.8487842126e+01    0.4654008    0.3153844  28.94 0.0008853858    1.475    0.322
       187 -10.8276     87.6641     47.0394   5.8781719334e+01   5.5289131054e+01    0.4307366    0.3729064  42.27   0.00135996    1.086    0.079
       188  -9.8052     83.0264     48.4360   6.0736444500e+01   5.6017982481e+01    0.3295263    0.2266433  50.75  0.001024257    1.445    0.308
       189  -9.0176    184.9867     77.5085   4.6023499062e+01   2.8737816416e+01    0.1860939    0.1115518  37.00 0.0006712452    2.435    0.589
       190  -9.3374      7.4036    174.7934   1.1424991750e+02   3.6509221659e+01     0.191069    0.1001942 -65.11 0.0009470875    1.657    0.396
       191 -11.3488    193.0661     44.9055   3.7262737943e+01   3.1807025929e+01    0.3281838    0.2590669  37.36  0.001723802    1.761    0.432
       192  -8.3722    142.0190     46.9920   4.5554300034e+01   4.3168413050e+01    0.2095616     0.154562  33.57 0.0006564655    1.635    0.388
       193 -10.5712    139.1843     34.8260   4.2599878066e+01   4.5380856216e+01    0.3390445    0.2234159  43.88   0.00180151    1.607    0.378
       194  -8.6321     16.2898    174.6356   1.1188287539e+02   3.5816304825e+01    0.1429894   0.08702746  68.32 0.0007025526    1.701    0.412
       195  -9.8104    135.1468     39.1366   4.4591447685e+01   4.5792289857e+01    0.4360598    0.2670719 -67.59  0.001862738    2.217    0.549
       196 -10.9680    189.8771     42.8003   3.7170384728e+01   3.2783040699e+01    0.3029852    0.2559478  30.68  0.001869801    1.672    0.402
       197  -9.2630     41.3625     43.2498   7.4783132620e+01   6.3950713920e+01    0.4162033    0.2946497 -51.84  0.002359809    1.846    0.458
       198  -9.0346    141.5705     40.9499   4.3920907565e+01   4.4067354605e+01    0.3224536    0.1924129 -51.55  0.001356607    1.865    0.464
       199  -9.5118     23.3919     44.0355   8.3596676569e+01   6.6011797851e+01    0.2708652    0.1950981  11.60 0.0007829776    1.289    0.224
       200 -11.4231     30.6170     37.7179   7.7644450647e+01   6.6257821424e+01    0.2811432    0.2105387  -3.92 0.0005583912    1.169    0.144
       201  -8.5014     25.4552     38.4942   8.0492915945e+01   6.6738468148e+01    0.1867115    0.1388397 -43.13 0.0006198721    1.463    0.317
       202  -9.0740    109.6686     39.0434   5.0026341071e+01   5.1641236018e+01    0.2300024    0.2238314 -73.83  0.001472487    1.145    0.126
       203  -9.7099    111.7349     34.1075   4.7922964028e+01   5.1785077163e+01    0.4006984    0.3504181  31.23  0.002484698    1.179    0.152
       204  -9.0077     13.6561     38.8980   8.6726146448e+01   6.7855656201e+01    0.1974084     0.151588  12.38  0.001310347    1.275    0.216
       205  -9.7216    189.1292     38.1339   3.6187815159e+01   3.3548349396e+01      0.18173    0.1618479  74.69 0.0004287036    1.192    0.161
       206 -10.2657     96.0616     76.3351   6.5874025028e+01   4.8701676757e+01    0.4702986    0.3287796  29.51  0.001456659    1.506    0.336
       207  -9.1139     98.4283     31.8291   5.0389048831e+01   5.5007840594e+01    0.2630454    0.1569307  46.58  0.001361447    1.467    0.318
       208  -9.9320    125.1804     26.2197   4.2615847126e+01   4.9609244645e+01    0.3426872    0.1951913 -39.83  0.001409884    1.945    0.486
       209  -9.9263    135.5398     30.8868   4.2108104903e+01   4.6690432264e+01    0.2792788    0.2041426  68.66 2.655447e-05    1.220    0.181
       210 -10.2356    130.8082     30.4430   4.2837261344e+01   4.7839451595e+01    0.3642152    0.1968401  56.15 0.0008421301    1.603    0.376
       211 -11.1986    132.2888     43.8868   4.6550171284e+01   4.5845654154e+01    0.5854925    0.4028471  28.54 0.0009697167    1.879    0.468
       212  -8.9702    154.0670     29.9299   3.8821292047e+01   4.2494562179e+01    0.2061887    0.1543962 -77.98 0.0008779962    1.351    0.260
       213  -9.1571     37.0442    160.0131   1.0434697933e+02   3.7590177087e+01    0.1681873    0.1589181 -86.23 0.0007170615    1.049    0.046
       214  -8.2649    115.1589     27.8937   4.5150970129e+01   5.1722968190e+01    0.1736336    0.1366264  36.13 0.0003845951    1.309    0.236
       215 -10.8789      6.1902    158.2641   1.1307090390e+02   4.0770452069e+01    0.4256843    0.2864794 -65.23  0.002088768    1.288    0.224
       216  -9.4971     12.5896    153.9279   1.1079004803e+02   4.1400845972e+01    0.2298995    0.1844329  39.76 0.0006599397    1.363    0.266
       217  -9.3843     40.5334     19.4759   6.5208236877e+01   6.7472766182e+01    0.2104007    0.1619922 -15.38 0.0007263845    1.274    0.215
       218  -9.8326      1.8913    144.6305   1.1295336020e+02   4.4518416867e+01    0.3418693    0.1923577 -87.54  0.001709001    1.697    0.411
       219  -9.7663    103.2758     23.6259   4.6367619420e+01   5.4853961841e+01    0.3380975    0.1995403  53.76  0.000813674    1.429    0.300
       220  -9.2218     24.0769     26.2180   7.6175133913e+01   6.8826476966e+01    0.2908012    0.1361968  19.95  0.001447114    2.204    0.546
       221  -9.5510     36.4701    144.4519   1.0227820231e+02   4.1708613996e+01    0.3360957    0.2116335  60.96 0.0007262579    1.910    0.477
       222  -8.9747     91.8276     19.4017   4.7652789307e+01   5.7789602514e+01    0.2788183    0.1866877  43.70 0.0009632295    1.294    0.227
       223  -9.5487     89.4965     23.4675   4.9747154529e+01   5.7868793610e+01    0.2756672    0.2345733  55.59 0.0009827283    1.128    0.113
       224  -9.4745     85.4684     22.1634   5.0361457517e+01   5.8857438576e+01    0.2932518    0.1625052  54.41   0.00112861    1.579    0.367
       225  -9.1011    148.9405     24.5036   3.8124532729e+01   4.4287199127e+01    0.1954736    0.1108102  67.33 0.0004745902    1.532    0.347
       226  -9.2715     36.2363    140.3432   1.0171224859e+02   4.2801766820e+01    0.3727678    0.1840335  16.16   0.00154154    2.501    0.600
       227 -10.4820    107.6887     25.5261   4.6003786292e+01   5.3667896025e+01    0.3863434    0.2537145  36.29 0.0009351668    1.578    0.366
       228  -8.6887     94.8278     24.1606   4.8606345957e+01   5.6650676629e+01      0.17048    0.1258582  37.42            0    1.259    0.206
       229  -8.7965     48.9484    139.0146   9.7384929226e+01   4.1730420613e+01    0.2174133    0.1982556 -62.98 0.0003374043    1.021    0.021
       230  -8.7593    117.3095     16.2922   4.1007844868e+01   5.2419820493e+01    0.1289075   0.08340419  40.50 0.0002190902    1.585    0.369
       231  -9.1762     15.5971    136.4810   1.0777054227e+02   4.5648406448e+01    0.2943647    0.2029117  81.78  0.001546168    1.571    0.363
       232  -9.9719     25.0259    134.2368   1.0440529568e+02   4.5452277552e+01    0.2733849    0.2447122  43.12 0.0005168802    1.236    0.191
