#   1 NUMBER                 Running object number                                     
#   2 MAG_AUTO               Kron-like elliptical aperture magnitude                    [mag]
#   3 X_IMAGE                Object position along x                                    [pixel]
#   4 Y_IMAGE                Object position along y                                    [pixel]
#   5 X_WORLD                Barycenter position along world x axis                     [deg]
#   6 Y_WORLD                Barycenter position along world y axis                     [deg]
#   7 A_WORLD                Profile RMS along major axis (world units)                 [deg]
#   8 B_WORLD                Profile RMS along minor axis (world units)                 [deg]
#   9 THETA_WORLD            Position angle (CCW/world-x)                               [deg]
#  10 FWHM_WORLD             FWHM assuming a gaussian core                              [deg]
#  11 ELONGATION             A_IMAGE/B_IMAGE                                           
#  12 ELLIPTICITY            1 - B_IMAGE/A_IMAGE                                       
         1 -14.4755     68.5612    144.3080   9.8589670669e+01   3.7494599675e+01     5.105428     2.597766  66.17  0.006848725    3.769    0.735
         2 -13.2700    201.2731     42.6647   4.0547825589e+01   3.0275036783e+01     1.048082    0.9851996 -79.02  0.003495401    1.128    0.114
         3 -13.5239    211.7740     32.4488   3.6963963524e+01   2.9251703361e+01    0.9208542    0.8241449  26.68  0.001803892    1.555    0.357
         4 -12.1032    240.3893      7.3953   2.9290580069e+01   2.6160343475e+01    0.6535324    0.4035099 -29.67  0.004056178    1.930    0.482
         5 -12.3545    234.7590      5.9622   2.9390464470e+01   2.7443102712e+01    0.6391979    0.4292351 -35.36  0.004197885    1.616    0.381
         6  -8.5361     27.5116    163.4919   1.1300243389e+02   3.7322548315e+01    0.1332487    0.1135421 -87.25  2.31444e-06    1.011    0.011
         7 -10.9832    139.7862    248.3824   9.6822591811e+01   3.2536828232e+00    0.4035258    0.2355278 -51.68  0.002176524    2.026    0.506
         8 -10.9299    119.8433    244.9213   1.0059278283e+02   6.8255225674e+00     0.245126    0.2062986 -80.56  0.001017063    1.431    0.301
         9 -12.0057    115.0516    243.5443   1.0144586311e+02   7.7866463051e+00    0.4976515    0.3159862  58.78  0.002653769    1.770    0.435
        10 -10.0620    102.0000    249.0132   1.0483032117e+02   8.6566990473e+00    0.2592002    0.1784365 -65.04  0.001163976    1.691    0.409
        11 -11.7483    101.1770    243.0388   1.0434556849e+02   9.9007363165e+00    0.7563776     0.435477  85.01  0.002160378    2.872    0.652
        12 -12.8859     53.2376    185.9861   1.0889007126e+02   2.8993351838e+01    0.9256256    0.8670101 -13.84  0.004627823    1.329    0.248
        13 -14.2804     37.9677    192.2112   1.1329207721e+02   2.9253712166e+01     4.826688     1.685351  63.50   0.01317207    5.264    0.810
        14 -15.5271      6.7448    161.3480   1.1820309416e+02   3.9571461835e+01     11.69636     1.355011 -75.31   0.02862408    7.326    0.863
        15  -8.8902     88.8892    210.1532   1.0316874343e+02   1.8508030100e+01    0.2030821    0.1685337  67.98 0.0003756089    1.174    0.148
        16  -9.5731    142.4252    208.2783   9.0334138785e+01   1.0409820401e+01    0.1819131    0.1392611 -64.54 0.0006704303    1.572    0.364
        17  -9.4290     33.1222    205.8130   1.1562562580e+02   2.6608933578e+01    0.4549306    0.1360875  54.88  0.001617406    3.825    0.739
        18  -8.2438    223.9975    206.7399   7.2933284626e+01  -2.3474337530e+00    0.1520592    0.1031231  27.81 0.0002794035    1.450    0.311
        19 -11.3746    134.3097    210.6614   9.2587074565e+01   1.1264215757e+01    0.4042212    0.3609296 -28.65  0.002359756    1.209    0.173
        20 -10.3792    111.0843    203.6057   9.6969013590e+01   1.6556566459e+01    0.2548969    0.2210097  76.28 0.0004414259    1.233    0.189
        21 -11.2547    107.6300    203.8551   9.7835634867e+01   1.7051407203e+01    0.5034832    0.3167239  77.09  0.002167536    2.400    0.583
        22 -10.9283    193.2268    195.5164   7.6879783744e+01   4.3609031419e+00    0.8747561    0.4577388 -62.52  0.002776443    5.085    0.803
        23 -10.5419    122.3823    198.8723   9.3512020221e+01   1.5756278762e+01    0.3510787    0.2570607 -77.82  0.001094308    1.717    0.417
        24 -10.6831    110.8635    197.8456   9.6142803729e+01   1.7879428513e+01    0.4050792    0.2568209  -1.91   0.00158002    2.971    0.663
        25  -9.6893     58.8548    196.2742   1.0868451778e+02   2.5830362735e+01    0.2192769    0.1916561 -68.91 0.0002785623    1.177    0.150
        26  -9.1413     20.6264    195.1827   1.1759566986e+02   3.0318325006e+01    0.2178196    0.1577243  46.15 0.0007602245    1.347    0.257
        27  -8.4591     82.5393    194.5080   1.0264193666e+02   2.3023667891e+01    0.1386194    0.1293904  70.84 0.0001733349    1.019    0.019
        28 -10.2875    148.3257    189.7400   8.5732322257e+01   1.3273124932e+01    0.7319457    0.4527312  89.65  0.002283096    4.798    0.792
        29  -9.3084     85.1812    186.0017   1.0077276787e+02   2.4660110815e+01     0.339879    0.2782546 -60.86  0.001549479    1.231    0.187
        30  -9.8430     81.2561    182.0100   1.0119666616e+02   2.6205867787e+01    0.4697435    0.2556726  40.32  0.001258271    1.767    0.434
        31 -10.0639     99.4020    180.9272   9.6321553407e+01   2.3676019870e+01    0.2706647    0.2536673  53.85 0.0006827289    1.035    0.033
        32  -8.4189     88.2136    178.3959   9.8830261450e+01   2.6045394721e+01    0.1985552    0.1269541  46.61 0.0003883294    1.547    0.354
        33 -10.3642    186.7299    174.9052   7.4186261319e+01   9.4273325138e+00    0.3894696    0.3414212 -55.64  0.001288565    1.315    0.240
        34 -11.8489     80.6195    158.8098   9.7658073366e+01   3.2067836863e+01    0.8151773    0.5161346  64.32 0.0005389108    1.988    0.497
        35 -12.8321     68.8748    153.8378   1.0015317617e+02   3.5018394350e+01    0.6268188    0.4542983 -54.20  0.001129216    1.322    0.244
        36 -11.0586    129.7713    249.2598   9.9034245260e+01   4.5808019711e+00    0.3183476    0.2369633  35.54  0.001943095    1.129    0.114
        37 -10.0979     33.6591    156.0777   1.1048212630e+02   3.8593747342e+01    0.3047593    0.2408659  74.21 0.0009285355    1.246    0.198
        38 -11.3540     87.8326    152.1990   9.4413714700e+01   3.2624971569e+01    0.6400251    0.4552148 -20.77   0.00286698    1.915    0.478
        39 -10.0428    134.3866    148.1980   8.0780344125e+01   2.5250991453e+01      0.48441    0.2781837 -64.46  0.001813779    2.347    0.574
        40 -10.2343    133.7611    143.5111   7.9890633756e+01   2.6468830733e+01    0.8286644    0.2700952 -57.33  0.002029512    5.140    0.805
        41  -8.5371    112.2023    150.4092   8.7200254515e+01   2.8917799625e+01    0.2132845    0.1426362  48.28 0.0003991326    1.568    0.362
        42  -9.2224    174.8458    149.0672   7.1234338633e+01   1.6976031973e+01     0.228095    0.2077197 -80.04 0.0005692628    1.292    0.226
        43 -11.4202     67.7684    171.7436   1.0325482278e+02   3.0643356937e+01    0.5019967    0.3186381 -30.29  0.002219891    2.268    0.559
        44 -10.5186     29.9549    144.0444   1.1001341787e+02   4.1990474931e+01    0.4565879    0.2792501  34.43  0.002366755    1.770    0.435
        45 -10.3220    101.7322    138.5305   8.7614612694e+01   3.3713236409e+01    0.5701373    0.3665555 -21.71  0.002236251    2.335    0.572
        46 -11.5550     89.2854    137.7728   9.1112696873e+01   3.6022307554e+01      0.30031    0.2671989 -36.79 0.0004444061    1.149    0.129
        47 -10.5578     26.0381    137.3794   1.1029212291e+02   4.4024912758e+01    0.3788351    0.2611595  30.96  0.001327115    1.626    0.385
        48 -10.2230    105.9433    130.9947   8.4691097505e+01   3.4802146595e+01    0.4151656    0.3668454 -65.36   0.00160977    1.167    0.143
        49  -9.5976    111.4194    129.0630   8.2653024745e+01   3.4247023498e+01    0.3263679    0.2451508  10.42 0.0009182424    1.692    0.409
        50 -10.1557    134.7811    128.9763   7.6198039258e+01   2.9629480729e+01    0.4414193    0.3134285 -67.48  0.001899685    1.757    0.431
        51 -11.3874     72.1029    167.1181   1.0138593035e+02   3.1206299377e+01    0.4386505    0.2867348 -55.65 0.0009091206    1.481    0.325
        52  -8.7629    160.6121    127.8083   6.9499916034e+01   2.4450717420e+01    0.2288747    0.1430987 -53.59 0.0009510225    1.714    0.417
        53 -10.1723     98.3566    124.9935   8.5532296418e+01   3.7635344835e+01    0.3265232    0.2545145 -14.19  0.000820231    1.576    0.365
        54  -9.1489     34.7178    171.7684   1.1201017658e+02   3.4561752219e+01    0.2005826    0.1791857  64.07 0.0003911757    1.123    0.110
        55  -9.5012    116.8119    123.7681   7.9829294706e+01   3.4464816507e+01     0.260292     0.169997  -8.21 0.0009368577    2.709    0.631
        56 -10.4027    240.0135    169.2643   6.2893917068e+01   1.4855746744e+00    0.1823521    0.1603097 -11.27 0.0005782323    1.086    0.079
        57  -9.0210     85.6719    119.6685   8.8188239774e+01   4.1112138797e+01        0.292    0.2085085  71.90 0.0007440532    1.969    0.492
        58 -10.5673     40.7924    176.4274   1.1095784002e+02   3.2769039923e+01     0.401924    0.2765843   9.19  0.001919721    1.993    0.498
        59 -10.5875     33.3466    108.8924   1.0341443776e+02   5.0531940915e+01    0.2764567    0.2273518 -74.98  0.001269636    1.204    0.169
        60  -9.1100    107.7040    118.3502   8.1116952033e+01   3.7505719002e+01    0.2345554     0.189479  22.28 0.0002669022    1.353    0.261
        61  -9.7798    231.3355    113.7536   5.2696296760e+01   1.2639131704e+01    0.2483304     0.225638 -43.30 0.0007904308    1.046    0.044
        62 -10.1473    246.8324    110.8540   4.9848078473e+01   1.0293836906e+01    0.1856249    0.1399123 -58.15  0.000781936    1.331    0.249
        63  -9.1279    205.5015    110.1508   5.6083452577e+01   1.8411117523e+01    0.2432935    0.2064194  52.53 0.0006985756    1.281    0.219
        64 -10.0461    115.6314    108.7043   7.6294096846e+01   3.8175527713e+01    0.3191956    0.2407242  -6.95  0.001414077    1.747    0.428
        65 -10.6742     37.9820    102.0270   1.0041398507e+02   5.1772850590e+01    0.4313166    0.2189081  44.45  0.001895042    2.437    0.590
        66 -10.2058     33.3416    100.1266   1.0170175054e+02   5.2674919708e+01    0.3015714    0.2204697  28.41 0.0009830149    1.537    0.349
        67 -13.4182     19.3820    219.4763   1.1957382678e+02   2.4986704070e+01    0.7217849    0.5255339 -40.92  0.004483273    2.002    0.501
        68  -8.8794     74.9945     85.1790   8.2694447817e+01   5.0891029089e+01    0.2139409    0.1961067  63.50 0.0006888527    1.315    0.240
        69  -9.0235    150.9939     82.9850   5.9931411004e+01   3.5686778884e+01    0.2347428    0.1813269 -79.19 0.0005698254    1.627    0.385
        70  -8.3226     69.4390     81.4599   8.3595481569e+01   5.2574303079e+01    0.1403773    0.1334095 -27.90 0.0001538416    1.086    0.079
        71  -8.9953    109.8989     80.0584   6.9745486115e+01   4.5431660903e+01    0.2248912    0.2048877  86.11 0.0006362311    1.299    0.230
        72  -8.7816     54.1866     65.5249   8.4515665194e+01   5.8112881892e+01    0.1882399    0.1296985  27.56  0.000994458    1.485    0.327
        73 -10.6751     13.3769     59.8777   1.0050941749e+02   6.3385075818e+01    0.2483225    0.2143429 -53.26 0.0005085003    1.197    0.165
        74 -12.6608    191.1682     50.0129   4.3691107480e+01   3.1579110123e+01    0.8027647    0.5632819  52.51  0.001310754    1.514    0.340
        75 -11.0177    124.6198    244.1993   9.9487152724e+01   6.2498601893e+00     0.587685    0.2468933 -64.64  0.002366012    3.687    0.729
        76 -16.9926     13.7630    242.6811   1.2199966968e+02   2.0737788307e+01     6.483563     2.207046  23.73   0.02613825    4.720    0.788
        77  -8.8973    198.0894     23.4784   3.6342544205e+01   3.3393935006e+01    0.1873059    0.1570212 -52.15 0.0006183477    1.193    0.162
        78 -14.5513      9.5145    207.4202   1.2087232160e+02   2.8560016659e+01     1.108465    0.8667951  -1.19  0.006281323    1.954    0.488
        79  -8.7418    189.6850     14.9777   3.5204743787e+01   3.6257705491e+01    0.1755381    0.1482885 -66.76 0.0007099714    1.113    0.102
        80  -9.4181     76.1684    210.7989   1.0623408782e+02   2.0177011854e+01    0.3075995    0.1814546 -82.71  0.001029884    1.971    0.493
        81  -9.8310    150.9678    220.4954   9.0380924449e+01   6.5986401338e+00    0.2197317    0.1224301  35.89  0.001040526    1.618    0.382
