#   1 NUMBER                 Running object number                                     
#   2 MAG_AUTO               Kron-like elliptical aperture magnitude                    [mag]
#   3 X_IMAGE                Object position along x                                    [pixel]
#   4 Y_IMAGE                Object position along y                                    [pixel]
#   5 X_WORLD                Barycenter position along world x axis                     [deg]
#   6 Y_WORLD                Barycenter position along world y axis                     [deg]
#   7 A_WORLD                Profile RMS along major axis (world units)                 [deg]
#   8 B_WORLD                Profile RMS along minor axis (world units)                 [deg]
#   9 THETA_WORLD            Position angle (CCW/world-x)                               [deg]
#  10 FWHM_WORLD             FWHM assuming a gaussian core                              [deg]
#  11 ELONGATION             A_IMAGE/B_IMAGE                                           
#  12 ELLIPTICITY            1 - B_IMAGE/A_IMAGE                                       
         1 -11.6898    129.4918     24.6193   6.9178644918e+01   4.8690179283e+01    0.4167454    0.2645053 -44.09  0.002188714    1.825    0.452
         2 -10.9800     84.0747     20.8045   7.8422945086e+01   5.8538291696e+01    0.6370839    0.2665609  38.59  0.002994792    2.223    0.550
         3 -11.9289     60.4653     23.0839   8.6527131162e+01   6.2469025424e+01    0.4941021    0.3835317 -78.46  0.002718708    3.025    0.669
         4 -10.9047     63.1712     15.1360   8.2564136790e+01   6.2855959555e+01    0.5120705    0.2309161  18.30  0.002048474    3.935    0.746
         5 -10.9006     10.0881     15.4691   1.0402228189e+02   6.9833603393e+01    0.2154457    0.1347498  -7.52  0.000641979    1.333    0.250
         6 -11.4632      4.2125     18.0278   1.0788497568e+02   6.9999508874e+01    0.3717848    0.2139054  11.27  0.001955229    1.583    0.368
         7 -11.9275     21.7148     18.7406   1.0000488072e+02   6.8254862631e+01    0.5022208    0.3827687  33.25  0.002624329    1.671    0.402
         8 -10.2518     34.8722     16.0470   9.3267502809e+01   6.7007603859e+01     0.340394    0.1816855 -12.72  0.001944632    2.038    0.509
         9 -10.1460     90.9528      7.2710   7.1899836249e+01   5.8431903434e+01    0.3806877    0.1657042  61.56  0.001846344    2.268    0.559
        10 -12.1475     81.3568      6.6405   7.4070974532e+01   6.0344958306e+01    0.4674518    0.2587056  31.86  0.002685264    1.704    0.413
        11 -11.3795     74.2721      7.0470   7.6132882942e+01   6.1633294004e+01    0.2441087    0.1821843   3.15 0.0003283366    1.373    0.272
        12 -11.2363     75.8202     15.2452   7.8740553069e+01   6.0620951117e+01     0.447762    0.2692143   0.54  0.002290596    2.008    0.502
        13 -11.7820     70.3411     14.8161   8.0199762489e+01   6.1647514972e+01    0.3468025    0.2119385  -9.24  0.001333388    1.828    0.453
        14  -8.9693     51.0050     10.9910   8.5027393251e+01   6.5231714504e+01    0.3384059    0.1459275  25.98  0.001619584    2.654    0.623
        15 -10.6847     54.9168     13.2235   8.4564344753e+01   6.4398020913e+01    0.2753173     0.170663 -16.67  0.001150636    1.648    0.393
        16 -10.3756    100.4136     12.9038   7.1599750814e+01   5.6048879371e+01    0.2362987    0.1749318  15.50  0.001104683    1.480    0.324
        17 -10.7141     26.3702     13.8599   9.5926783414e+01   6.8315738908e+01    0.1903754    0.1260808   5.35 0.0001706864    1.267    0.211
        18 -10.4367      6.6491      8.2792   1.0264841823e+02   7.1044584024e+01    0.3836164    0.1259592  31.00  0.002032464    2.974    0.664
        19 -10.3367     11.0907      9.8722   1.0118326420e+02   7.0434711081e+01    0.2284428     0.154453 -39.52  0.001088427    1.845    0.458
        20 -11.9443     23.2824      8.1203   9.4806906476e+01   6.9323202767e+01    0.5220911     0.356715  39.63  0.003037422    1.871    0.465
        21 -13.1082     31.5682      2.1643   8.8649442819e+01   6.8882378329e+01     0.412093    0.1608149  33.84 0.0007793534    2.182    0.542
        22 -11.9373     11.9633      2.3384   9.7420212989e+01   7.1203611977e+01    0.3596692    0.2272894  11.45  0.001982106    1.262    0.207
        23 -11.1998     16.9905      1.6610   9.4751348020e+01   7.0729890926e+01    0.1916115    0.1331712  -4.84  0.001009732    1.130    0.115
        24 -10.8060    118.3235     12.0487   6.7578405107e+01   5.2348528476e+01     0.300112    0.2079895 -41.71    0.0014037    1.725    0.420
        25 -11.9052    115.9760      3.1405   6.5314735662e+01   5.3586057461e+01    0.3903989     0.204006 -25.34 0.0004081436    2.280    0.561
        26  -9.7197      5.2282     11.7499   1.0482918575e+02   7.0741282475e+01     0.150602   0.09103954 -11.36   0.00104772    1.358    0.264
        27  -9.2971    185.7678     10.9446   5.7450914674e+01   3.7369697064e+01     0.132821   0.09964032 -38.72 0.0003383451    1.540    0.351
        28 -10.4127     59.6700     10.4409   8.1860924198e+01   6.3890421916e+01    0.2046231    0.1610759  42.27 0.0006107808    1.288    0.223
        29 -10.1164    108.1455      9.4234   6.8792196438e+01   5.4742564010e+01    0.1975983     0.168353  -5.11  0.001363904    1.358    0.264
        30 -10.0391    128.0426      8.8076   6.4849852223e+01   5.0510503025e+01    0.1874592    0.1485559  84.91 0.0009501897    1.303    0.233
        31 -10.4032    123.1719      7.5366   6.5331291104e+01   5.1682552052e+01    0.2439235    0.1248159  33.99  0.001209665    2.362    0.577
        32 -10.4454    146.3493      5.5924   6.1091178848e+01   4.6720183798e+01    0.2760216    0.1222061 -21.63   0.00133234    3.013    0.668
        33 -10.4072    228.8362      5.6209   5.2418129608e+01   2.8700670190e+01    0.2078908    0.1351152 -70.81 0.0003560291    1.249    0.199
        34  -9.6854    176.4150      4.8203   5.7106940674e+01   4.0052995688e+01    0.1460363    0.1181817  -1.20 0.0009538841    1.842    0.457
        35  -9.6375     59.7538      5.5729   7.9896973741e+01   6.4309112822e+01    0.2350769   0.08415189  45.01  0.001165082    2.228    0.551
        36  -8.9992    139.3122      1.6949   6.1074679822e+01   4.8608996209e+01    0.1179631   0.08232787 -77.90 0.0004152115    1.617    0.381
        37  -9.4564    250.4732    219.4486   9.1686871924e+01  -1.0198919437e+01    0.1254115    0.1006327 -14.19 0.0008076492    1.029    0.028
        38 -10.8656    250.4183    245.8620   9.6352844991e+01  -1.4169619373e+01    0.3965658    0.1729015 -33.73  0.002052205    2.084    0.520
        39  -9.9924     72.6281    250.0680   1.3271863215e+02   1.2067523637e+01    0.1962332    0.1774475  -5.10  0.001258143    1.636    0.389
        40 -12.1076     27.8539    247.1071   1.4110515437e+02   1.8543626827e+01    0.4400509    0.2798153 -84.23  0.002681055    1.375    0.272
        41 -12.7449     16.6573    238.3300   1.4254996709e+02   2.1656933220e+01     1.399039    0.3920821  36.23  0.006148252    3.307    0.698
        42 -13.0078     20.0710    248.4256   1.4262091268e+02   1.9165299388e+01     1.190506    0.2996015  46.42  0.005247646    2.987    0.665
        43 -12.2564      5.8711    244.9218   1.4492851906e+02   2.1420446598e+01    0.5963926    0.3321361  73.12  0.002956927    1.464    0.317
        44 -10.8646      1.4588    244.9837   1.4570388255e+02   2.1857239499e+01    0.2353028   0.08843227 -75.92 0.0004887163    2.236    0.553
        45  -9.7298    174.2021    219.6306   1.0661588786e+02   1.6315099621e+00    0.2020049    0.1255995  27.58 0.0007355738    1.681    0.405
        46  -9.4579     77.5614    218.9350   1.2814170054e+02   1.8135671292e+01    0.1925023    0.1023955 -43.62 0.0008074379    2.597    0.615
        47 -10.0278    129.8814    226.7742   1.1752725853e+02   7.8768507192e+00    0.2931712    0.1779645  55.29  0.001354447    1.784    0.439
        48 -11.2970    241.3832    211.5490   9.1841990783e+01  -7.6570311322e+00     0.337896    0.2566942  16.41  0.002064395    1.334    0.251
        49 -10.4062     31.1555    215.7953   1.3787653149e+02   2.5020633657e+01    0.2347337    0.1770332  41.72  0.001455534    1.437    0.304
        50  -9.3874    201.6620    215.6807   1.0018092298e+02  -2.2610615498e+00      0.14323     0.100418  -4.00 0.0007049579    1.708    0.415
        51 -10.9215      9.7110    217.0180   1.4233563240e+02   2.7036927570e+01    0.2969366    0.1762431  64.46 0.0009873189    1.493    0.330
        52  -9.4715    136.9385    216.0000   1.1421588104e+02   8.9501840318e+00    0.2382892   0.07828144  38.50   0.00079533    2.893    0.654
        53 -11.1257     21.2686    212.3135   1.3962199561e+02   2.6915150014e+01    0.3568502     0.177652  59.35  0.001823541    1.941    0.485
        54 -10.1894    208.9625    212.0758   9.8050740234e+01  -2.7912822221e+00    0.2046708    0.1826451  -8.54 0.0004489935    1.005    0.005
        55  -9.7800      2.2968    212.3314   1.4345158743e+02   2.8797584877e+01    0.1547812    0.1263619 -85.32 0.0006581105    1.162    0.139
        56 -12.2787      5.3561    208.1187   1.4253192972e+02   2.9464050537e+01    0.6585734    0.3079018  83.55  0.003286109    2.072    0.517
        57 -11.3548     18.6316    202.8009   1.3933773829e+02   2.9393155349e+01    0.4063227    0.2194646 -60.79 0.0009593757    1.750    0.429
        58 -10.1155    175.2790    202.6796   1.0326968505e+02   4.8565551972e+00    0.2337483    0.2167322  71.55 0.0005515057    1.242    0.195
        59  -9.8498    223.0679    201.2205   9.3258047147e+01  -3.0828251513e+00    0.3293568    0.2211916 -76.41  0.001318012    3.645    0.726
        60  -9.3091    184.4474    208.5218   1.0240604115e+02   2.0368397582e+00    0.1424257    0.1299435  -3.33 0.0001330817    1.057    0.054
        61  -9.6750     34.6181    201.0632   1.3568072117e+02   2.8070168646e+01    0.1808291     0.141217 -80.39 0.0005280526    1.103    0.093
        62  -9.5306    227.1267    196.8747   9.1659897958e+01  -2.9396875195e+00    0.1916072    0.1458855 -12.50 0.0007511597    1.348    0.258
        63  -9.5172    203.0111    195.9680   9.6153627865e+01   1.2594184250e+00    0.1714896    0.1577112 -16.05 0.0007535592    1.001    0.001
        64 -11.1453    235.3187    216.6843   9.3887951197e+01  -7.6448215496e+00    0.2164759    0.1733924 -39.39  0.001147084    1.296    0.228
        65 -10.0829    215.5527    194.3107   9.3353290909e+01  -5.6824172966e-01     0.196739     0.121404 -31.67 0.0009436282    1.597    0.374
        66  -9.2120    245.6718    190.6784   8.7145549294e+01  -4.7032888684e+00    0.1350246   0.09231132 -10.93 0.0007048498    1.690    0.408
        67 -10.2302    187.3113    190.3445   9.8283864618e+01   5.2056087897e+00    0.1520017    0.1119529  -9.25 0.0007045866    1.705    0.413
        68  -9.2705      1.5171    188.4436   1.4176269636e+02   3.4343545201e+01    0.1232493   0.09557978 -86.97 0.0002805749    1.013    0.012
        69  -9.5126     61.7755    185.0074   1.2730440974e+02   2.8574218034e+01     0.194161    0.1067082 -66.01 0.0008780027    1.671    0.401
        70 -11.2232     15.9516    182.5107   1.3799738265e+02   3.4470325405e+01    0.3983873    0.2158054  85.05  0.001966807    1.865    0.464
        71  -9.7353      1.9761    180.3110   1.4095883652e+02   3.6216326471e+01    0.1661395    0.1377151  84.98  0.000573166    1.103    0.093
        72 -10.2828    244.4114    178.2841   8.4957488184e+01  -2.3019265718e+00    0.2579043    0.1113535 -37.79  0.001111767    2.063    0.515
        73 -10.7980    224.2454    178.3266   8.8532411165e+01   1.0010795647e+00    0.2506951    0.2214964 -49.82 0.0005302193    1.183    0.155
        74  -9.6872     70.0704    177.6729   1.2411902242e+02   2.9236868113e+01    0.1861439    0.1775299  49.75  0.000487571    1.161    0.138
        75  -9.0781     36.4551    178.4812   1.3267194968e+02   3.3349191943e+01    0.1355792    0.1139668 -81.82 0.0004050328    1.008    0.008
        76 -10.1901    200.1692    176.8052   9.2870574233e+01   5.6086972334e+00    0.2033152    0.1668493 -12.47 0.0005512859    1.336    0.252
        77  -9.8374     46.2154    177.3788   1.3011520234e+02   3.2486071786e+01    0.1856807    0.1188118  47.05 0.0007000007    1.621    0.383
        78 -10.9664     18.4167    173.2655   1.3643898566e+02   3.6475728240e+01    0.3365953    0.1659895  59.69  0.001569061    2.346    0.574
        79  -9.4772     74.9836    171.0281   1.2176568015e+02   3.0184501250e+01    0.2324714    0.1712141 -31.53  0.001117508    1.730    0.422
        80  -9.9014    167.4521    183.4949   1.0123784549e+02   1.0423296811e+01    0.1482059    0.1458566 -35.49 0.0002157297    1.019    0.018
        81  -9.2756    210.3064    166.2934   8.8685297500e+01   5.8554909068e+00    0.1428704    0.1105867  -7.95 0.0003711505    1.581    0.367
        82 -11.2164     36.5041    166.0065   1.3103504008e+02   3.6438101652e+01    0.4804603    0.2620564 -72.18   0.00231213    1.636    0.389
        83 -11.3271     36.9119    157.8508   1.2978097076e+02   3.8425258261e+01    0.3733423     0.183418 -69.04 0.0003154766    1.802    0.445
        84  -9.7553     67.1733    165.1449   1.2284020340e+02   3.2809629571e+01    0.2053225    0.1622582  77.28 0.0009193511    1.343    0.255
        85 -10.6925     51.7278    163.4051   1.2667200523e+02   3.5309216472e+01    0.3996672    0.2158356 -63.42   0.00180188    1.629    0.386
        86 -10.6342     44.5636    162.7762   1.2847380194e+02   3.6333930993e+01     0.372336    0.1528278 -68.00  0.001491538    2.240    0.554
        87 -10.2281     48.1170    160.1280   1.2712767781e+02   3.6576152483e+01    0.2899382    0.2399975 -26.54 0.0009657225    1.482    0.325
        88  -9.5412    200.4849    162.5502   8.9815308675e+01   8.4862156663e+00    0.1469393    0.1377516 -46.79 0.0001956114    1.043    0.041
        89  -9.7290    238.3938    158.7944   8.2090574479e+01   2.2830888470e+00    0.2026565    0.1143557 -33.57 0.0009383378    1.731    0.422
        90 -11.4534     22.4191    156.4607   1.3341502015e+02   4.0217216555e+01    0.4034397    0.3727228  86.54  0.002178218    1.145    0.127
        91 -10.2227     11.8100    153.4283   1.3579027995e+02   4.1872601267e+01    0.2626746     0.132922  18.11  0.001295803    2.635    0.620
        92 -10.2941    178.2153    151.5462   9.2029883155e+01   1.5311260200e+01    0.2772401    0.2088621 -47.52 0.0005615653    1.272    0.214
        93 -10.3187     19.0000    145.9608   1.3292115932e+02   4.3090648751e+01    0.1835927   0.09621119 -67.39 0.0004702599    1.558    0.358
        94 -10.8104     12.8362    146.8474   1.3469902073e+02   4.3384277304e+01    0.2406342    0.1420766  81.75 0.0005143412    1.941    0.485
        95 -10.0717    207.0334    146.0617   8.4988385539e+01   1.0592457117e+01    0.2252006    0.2085042 -47.16 0.0006241073    1.009    0.009
        96  -9.8372     41.2480    146.2539   1.2680578270e+02   4.0838891962e+01    0.1787763    0.1458824  80.54 0.0003347152    1.300    0.231
        97  -9.6942     22.6286    144.3109   1.3169644189e+02   4.3176022144e+01    0.1357908   0.09012657  69.74 0.0004500246    1.774    0.436
        98  -9.9645     49.5831    141.7202   1.2365687433e+02   4.1003457423e+01    0.2672953    0.1800128 -35.63 0.0009501217    1.675    0.403
        99 -10.5193     16.2572    139.7707   1.3281406570e+02   4.4821500629e+01    0.2827519    0.1239324  11.33   0.00118907    3.532    0.717
       100 -10.4316     56.6816    137.9485   1.2089593264e+02   4.1054995129e+01    0.4570474    0.2625343  88.75  0.001737683    2.985    0.665
       101  -9.5050    236.5558    138.5156   7.8243938719e+01   6.4340272212e+00    0.1391913    0.1200091 -44.51 0.0001476543    1.028    0.027
       102  -9.7311     87.8794    137.9234   1.1182040196e+02   3.6443419483e+01    0.2183151    0.1928344 -26.71 0.0003476949    1.225    0.183
       103  -8.9440    143.6883    137.3336   9.6711457737e+01   2.5812735525e+01    0.1626348    0.1250844 -88.63 0.0007044332    1.679    0.404
       104 -10.6314      9.1979    136.6915   1.3434913220e+02   4.6104507726e+01    0.2305095    0.1562399 -57.16 0.0002950902    1.232    0.189
       105 -10.6552      2.9449    136.1469   1.3600105026e+02   4.6668763030e+01    0.3144446    0.1349179 -54.97  0.001552643    1.859    0.462
       106 -10.6862     21.0437    135.7709   1.3088070474e+02   4.5390214400e+01    0.2351381    0.1614878 -67.20 0.0006107752    1.214    0.176
       107  -9.3452    250.4594    134.4547   7.5284919785e+01   4.7107260522e+00    0.1347698    0.1124713 -49.02 0.0006238082    1.016    0.016
       108 -10.1641    106.9939    133.2570   1.0536108862e+02   3.4177556595e+01    0.2712686    0.2247151 -50.49 0.0009388034    1.163    0.140
       109 -10.5645     33.1186    133.7137   1.2705115866e+02   4.4776940520e+01    0.3044379    0.1859082 -66.77  0.001560847    1.441    0.306
       110 -10.7530     37.1047    130.5026   1.2531022202e+02   4.5153351237e+01    0.3168114    0.2752556 -56.62 0.0009650275    1.026    0.026
       111 -11.5563     33.3173    126.0209   1.2564373743e+02   4.6616885870e+01    0.3037026    0.2340565  51.47 0.0003556441    1.528    0.346
       112 -10.2524     74.0145    129.6348   1.1405256248e+02   4.0670925445e+01    0.2831744    0.2002883 -48.94 0.0008382861    1.309    0.236
       113  -9.8345     81.9656    125.4928   1.1074890936e+02   4.0424916551e+01    0.2214605    0.1883096 -51.01  0.001168912    1.102    0.093
       114 -11.2533      2.3712    123.2896   1.3443595371e+02   4.9727797786e+01    0.6061968    0.1402328 -63.05  0.002368707    2.830    0.647
       115  -9.4795    219.5688    124.5025   7.8061288416e+01   1.2367361144e+01    0.1439534    0.1269834 -53.90 0.0002340186    1.010    0.010
       116 -11.1183     10.5613    122.4090   1.3189282696e+02   4.9391050850e+01    0.2536271    0.2120313 -72.89  0.001068422    1.112    0.101
       117  -9.6049     20.5364    121.4959   1.2873757956e+02   4.8845511506e+01    0.2064103    0.1217876  -3.90   0.00102234    2.386    0.581
       118  -9.9699     33.3860    118.8670   1.2429109718e+02   4.8313395608e+01     0.193113    0.1411937 -53.31  0.000479105    1.157    0.135
       119 -11.8720     17.2632    115.6401   1.2873966485e+02   5.0477465894e+01    0.4426599    0.2510261 -52.17  0.001637855    1.431    0.301
       120 -12.4394     15.8365    109.3391   1.2807177625e+02   5.2038241901e+01    0.6489103    0.4663597  45.26 0.0006140799    1.729    0.422
       121 -11.0401     21.7845    103.1852   1.2495542435e+02   5.2969744687e+01    0.2236791    0.1795543 -11.77 0.0009810784    1.362    0.266
       122  -9.4200    220.3887    117.1626   7.6335031495e+01   1.3605417944e+01    0.2058441    0.1176464 -52.88 0.0004560815    1.660    0.398
       123 -10.4737     51.1023    115.4575   1.1799425363e+02   4.7177846777e+01    0.3913324    0.1683646 -54.49  0.001638836    2.007    0.502
       124  -9.2051     86.2793    116.6497   1.0734410328e+02   4.1790265655e+01    0.1474886    0.1170828 -89.95  0.000701113    1.645    0.392
       125  -9.1180    214.4224    115.5098   7.6957182053e+01   1.5143790625e+01    0.1434207    0.1287869 -53.73 0.0001522079    1.046    0.044
       126 -10.0919     35.2211    114.0256   1.2275905026e+02   4.9268016695e+01    0.2603992    0.1747333 -60.12  0.001412234    1.311    0.237
       127 -11.8314     35.4659    108.5095   1.2154154496e+02   5.0518464834e+01    0.4140148    0.2855839  88.84 0.0009218869    2.052    0.513
       128 -11.2789     22.8967    106.8435   1.2531476762e+02   5.2050478735e+01    0.3015904      0.27591  59.41  0.001092708    1.331    0.249
       129 -10.7599    249.0497    111.8568   7.0961557607e+01   9.0300179880e+00    0.2422066    0.1655109 -47.64 0.0006300076    1.229    0.186
       130  -8.9492    166.3114    115.6811   8.6196624768e+01   2.5605814614e+01      0.15816    0.1195533 -81.74 0.0002701219    1.645    0.392
       131  -9.2263    223.3662    111.7509   7.4690039514e+01   1.4017833765e+01    0.1402472    0.1019114 -81.02 0.0006950554    1.620    0.383
       132 -10.3541     56.1695    108.1173   1.1469641535e+02   4.8239264408e+01    0.4322751    0.1728891 -54.69  0.001718665    2.263    0.558
       133 -10.5013      6.6520    107.1355   1.3062023297e+02   5.3172083340e+01    0.2787854    0.1955575 -81.55 0.0008890683    1.509    0.337
       134 -10.8000      2.5003    105.4003   1.3165181416e+02   5.3815222537e+01    0.2221096     0.161365 -50.14 0.0001834656    1.122    0.109
       135  -9.1362     91.4785    107.5664   1.0347353041e+02   4.2946144205e+01    0.1459622    0.1398357 -25.67 0.0001674697    1.008    0.008
       136 -10.6448    243.4293    104.7332   7.0289818319e+01   1.1340663396e+01    0.1812059    0.1164723 -36.89 0.0008686719    1.567    0.362
       137 -10.0237    223.2357    103.9240   7.3024411866e+01   1.5485500800e+01    0.2138159    0.1657331 -62.23 0.0004317725    1.191    0.160
       138 -10.8109    247.8888    102.1739   6.9179572152e+01   1.0945171861e+01     0.210746    0.1593591 -67.73 0.0008255881    1.246    0.198
       139  -9.5657    119.5135    101.4930   9.3849156723e+01   3.8830096125e+01    0.1508062    0.1445402  -2.10 -6.622357e-06    1.074    0.069
       140  -9.4393     43.6137    101.1893   1.1720815967e+02   5.1310787969e+01    0.1897361    0.1063846 -46.32 0.0002558563    1.545    0.353
       141 -12.0456      3.1349    100.3031   1.3057625589e+02   5.4914492878e+01    0.2502005    0.2354496 -82.57 0.0004415676    1.249    0.199
       142 -10.5897      1.7312     94.2901   1.2996583960e+02   5.6313658242e+01    0.3420476    0.1044391 -56.95 0.0009602155    2.241    0.554
       143 -10.7915     61.9106     98.7801   1.1051028912e+02   4.9552520208e+01    0.2789554    0.2510689 -17.56 0.0006762022    1.074    0.069
       144 -10.4708     66.3770     98.3234   1.0892422884e+02   4.9018421027e+01    0.3285051    0.2160133 -23.98  0.001251168    1.769    0.435
       145  -9.5599     50.2390     99.7398   1.1463707118e+02   5.0859430345e+01    0.2335911    0.1351609 -25.81  0.001054321    2.122    0.529
       146 -10.2076     30.1008     98.0876   1.2107586263e+02   5.3381022374e+01     0.188206    0.1581322 -42.64 0.0003244416    1.006    0.006
       147 -10.4645     92.5782     96.7566   1.0023605915e+02   4.5073277050e+01    0.2825451    0.1345161 -42.28  0.001129135    2.070    0.517
       148 -10.7933     20.1982     96.4533   1.2410716466e+02   5.4594026379e+01    0.2491996    0.1525375 -57.89  0.001391248    1.384    0.277
       149  -9.4319    141.6757     96.6948   8.6936313092e+01   3.5001027254e+01    0.1511672    0.1208359  10.28 0.0007033474    1.643    0.391
       150  -9.8378     57.4584     96.5100   1.1140517600e+02   5.0648113126e+01    0.1374431    0.1225724 -32.98 -3.640162e-05    1.007    0.007
       151 -10.4401     35.4871    101.4388   1.1999790678e+02   5.2116522925e+01    0.2690932    0.2004245  35.37   0.00145033    1.557    0.358
       152 -10.7872     31.2167     92.2383   1.1935353763e+02   5.4552344718e+01     0.324339    0.2098412 -64.66  0.001757299    1.621    0.383
       153 -11.1649     25.6905     91.6824   1.2115919731e+02   5.5175005475e+01    0.2509744    0.2092416 -30.30 0.0008147574    1.099    0.090
       154  -9.6071    178.1383     91.8822   7.7913443386e+01   2.7590134286e+01    0.1838923    0.1740464   3.31            0    1.276    0.216
       155  -9.9529    162.8089     91.9684   8.0982939786e+01   3.1099323422e+01    0.2163226    0.1977978   7.79 0.0004820169    1.315    0.240
       156 -11.8529     11.1759     90.9999   1.2608745490e+02   5.6443095693e+01    0.3791365    0.2264978  19.83  0.002201958    1.945    0.486
       157 -10.4777     96.1795     90.4846   9.7396750512e+01   4.5693470264e+01    0.4110563     0.239573   8.47  0.001372019    3.822    0.738
       158 -10.8205     48.8999     86.9387   1.1182132144e+02   5.3761390342e+01    0.6373438    0.2140389 -50.14  0.001829195    2.611    0.617
       159 -11.4244     42.5322     82.3557   1.1284535457e+02   5.5449518223e+01    0.7392986    0.3916675  50.31  0.003197692    3.151    0.683
       160  -9.2882     21.3091     91.3128   1.2261188396e+02   5.5623106289e+01    0.1334386   0.07761722 -34.11 0.0003516048    1.626    0.385
       161  -9.5095    104.3160     92.2777   9.5524426197e+01   4.3779636451e+01    0.1457482    0.1136623   2.92  0.000698042    1.570    0.363
       162 -10.3381    158.1318     89.8798   8.1427840255e+01   3.2564960967e+01    0.2335461    0.2018167 -79.74 0.0008611344    1.214    0.176
       163  -9.1804    135.3211     90.3528   8.6754390676e+01   3.7645951220e+01    0.1536019    0.1190046   6.90 0.0003467371    1.751    0.429
       164 -10.6280     22.9682     86.6734   1.2096736887e+02   5.6475539806e+01    0.2708025    0.1683117 -35.65  0.001060073    1.436    0.304
       165 -12.5088     17.8356     66.1034   1.1770813707e+02   6.1031094641e+01    0.7730969     0.420691 -34.98  0.002850679    1.574    0.364
       166 -12.0607     12.3719     78.5040   1.2292028317e+02   5.8985540823e+01    0.4653073    0.2206505 -42.64  0.001750708    1.698    0.411
       167 -10.6480      4.3564     86.2391   1.2750838043e+02   5.7889855359e+01    0.3577335     0.203736 -54.13  0.002103322    1.357    0.263
       168 -11.2154      3.2431     78.9799   1.2639396374e+02   5.9468588885e+01    0.3006409    0.2566298  72.83  0.001785816    1.617    0.381
       169 -11.5452      7.1406     73.8129   1.2378309520e+02   6.0283354355e+01    0.3805543    0.2265275 -16.88  0.001494322    1.764    0.433
       170 -11.1474     66.6263     85.1799   1.0525198937e+02   5.1725814641e+01    0.3975327    0.2510145  -7.30  0.001484154    2.251    0.556
       171  -9.6424     14.6915     83.9957   1.2333063655e+02   5.7684544031e+01    0.1689011    0.1382652 -43.55 0.0005895493    1.036    0.035
       172 -10.1934    117.9731     82.8437   8.9057678130e+01   4.2817420930e+01    0.2621834     0.208348 -34.90 0.0009139248    1.297    0.229
       173 -10.2490     29.4539     81.8278   1.1744090771e+02   5.6909511024e+01    0.2068946    0.1710321   5.96 0.0008506108    1.277    0.217
       174  -9.8586     74.6775     81.3113   1.0146121861e+02   5.1243397826e+01     0.130517    0.1119431  82.43  0.000607666    1.653    0.395
       175 -11.0187     23.2843     80.2960   1.1931799742e+02   5.7774853723e+01    0.3708922    0.2396725  -8.37  0.000872564    1.718    0.418
       176 -11.8010     21.6407     76.9729   1.1909679112e+02   5.8588212146e+01    0.4502011    0.2704361 -17.49  0.002178699    1.811    0.448
       177 -10.6065     91.3603     77.4174   9.5024331089e+01   4.9095350957e+01    0.3874618    0.3307812 -59.06  0.002167117    1.386    0.279
       178 -10.0921     71.0039     79.3115   1.0208393392e+02   5.2211726635e+01    0.1898862    0.1668267  13.34 0.0005006554    1.112    0.100
       179 -10.4333    151.3000     77.7068   7.9666381418e+01   3.6324092475e+01    0.3888938    0.2384457  51.77  0.001792309    1.570    0.363
       180 -12.0308     57.8131     74.1145   1.0505188322e+02   5.5146472518e+01    0.4587995    0.3513811  66.44 0.0003981282    2.136    0.532
       181 -11.9125     62.5331     71.7958   1.0270060517e+02   5.4907321545e+01    0.3494984    0.3119806  -8.02  0.001150511    1.025    0.025
       182  -9.7625    122.0578     76.4662   8.6156005325e+01   4.3095685914e+01     0.220663    0.1373677  49.48  0.000966117    1.555    0.357
       183 -11.1419    102.8289     73.5104   9.0469222204e+01   4.7601516587e+01    0.3763782    0.2877279 -66.07   0.00150807    1.759    0.431
       184 -12.2761     44.7754     75.2985   1.1007280024e+02   5.6593594990e+01    0.2418328    0.2117168  17.17 0.0003216675    1.222    0.181
       185 -11.3998     37.9492     70.1790   1.1112103246e+02   5.8353943801e+01    0.6136205    0.4480593  58.28  0.003387833    2.264    0.558
       186 -10.8158    138.7186     74.8790   8.1672466041e+01   3.9684844256e+01    0.2667281    0.2231347  82.87 0.0003232041    1.331    0.249
       187 -10.7627    108.9854     74.5310   8.9052816229e+01   4.6182557989e+01    0.3129542    0.2479843 -55.93  0.001303094    1.458    0.314
       188  -9.7818     33.9277     75.2757   1.1406298828e+02   5.7791531650e+01    0.1718938    0.1428425 -24.74   0.00044969    1.034    0.033
       189 -10.5133    112.0084     85.6680   9.1478827019e+01   4.3528631912e+01    0.3437702    0.2440732  63.84  0.001618338    1.737    0.424
       190 -10.0781     83.9696     72.3572   9.5770367438e+01   5.1343514389e+01    0.1877052     0.161045  26.18 0.0002757873    1.126    0.112
       191 -11.3292     76.4052     70.8523   9.7731971819e+01   5.2908228409e+01    0.4353243    0.3338271  64.31  0.002295879    1.900    0.474
       192  -9.7425    150.9487     72.0000   7.8204432333e+01   3.7372252008e+01    0.2388252   0.07832437  54.62 0.0007977799    2.910    0.656
       193  -9.4244    212.3988     70.1998   6.7258975719e+01   2.3595832839e+01    0.1952528    0.1083468 -53.47  0.000930891    1.702    0.412
       194  -9.2857    160.9573     69.9172   7.5634640971e+01   3.5393127492e+01    0.1662651    0.1576844 -80.08 0.0004312858    1.050    0.048
       195 -10.4029    145.2445     68.6077   7.8487337761e+01   3.9242121598e+01    0.4453745    0.2589191 -11.16  0.001576162    3.717    0.731
       196 -11.4363     94.7315     67.8836   9.1096042535e+01   5.0146035837e+01    0.4191808    0.2955889 -21.54  0.001284082    1.570    0.363
       197  -9.7334     68.6826     69.9918   1.0003486657e+02   5.4306964250e+01    0.2220165    0.1520776 -36.72 0.0002663489    1.399    0.285
       198  -9.4175     68.6903     66.7226   9.9007036170e+01   5.4886035993e+01    0.1882154    0.1066621 -19.87 0.0002646211    2.328    0.570
       199 -11.7122     50.2430     68.6946   1.0612549891e+02   5.7168613611e+01    0.4481808    0.2968633  -5.78  0.002009771    1.723    0.420
       200 -10.7319     51.0894     63.3246   1.0414814307e+02   5.8026657631e+01    0.3174698     0.194476 -20.60  0.001650863    1.771    0.435
       201  -9.0457    167.9749     70.0000   7.4327027268e+01   3.3745437072e+01    0.2223422   0.07712471  57.21 0.0003803346    2.761    0.638
       202 -10.0795    123.0537     68.4568   8.3571313150e+01   4.4241614486e+01    0.2140327    0.1821799 -36.93 0.0005355428    1.234    0.190
       203 -12.0907      3.9161     64.9643   1.2289613426e+02   6.2221978863e+01     0.370622    0.3059985  76.61  0.001235072    1.872    0.466
       204 -11.5799     58.0020     61.7189   1.0113089993e+02   5.7356244240e+01    0.7724728    0.2382511 -33.93  0.002495018    4.460    0.776
       205 -11.6649     63.5114     60.1541   9.8677410975e+01   5.6809915410e+01     0.485914    0.2412757  38.64  0.002110846    2.026    0.506
       206 -11.4731     31.0307     66.0574   1.1255526704e+02   5.9854349666e+01    0.5062426    0.2530769 -29.18  0.001478039    2.067    0.516
       207 -10.4287     99.8645     64.3261   8.8497866410e+01   4.9740663167e+01    0.2518876    0.1930929 -22.12 0.0006455394    1.388    0.280
       208 -10.5598     77.1309     63.7850   9.5264515311e+01   5.4011822922e+01    0.3421635    0.2127295 -36.25 0.0009848664    1.598    0.374
       209  -9.6372    216.0159     64.5055   6.5536299992e+01   2.3705548472e+01    0.1953274    0.1227091  67.95 0.0005830828    1.565    0.361
       210  -9.7626    120.6295     64.7224   8.3072730265e+01   4.5372324810e+01    0.1459442    0.1039107  23.92 0.0007008655    1.687    0.407
       211  -9.9340     41.7844     64.2121   1.0789189608e+02   5.9026855542e+01    0.1700155    0.1550018 -15.88 0.0005138954    1.159    0.137
       212  -9.1457    173.7086     63.7189   7.1711932467e+01   3.3407918463e+01    0.1306845    0.1076241  31.82 0.0001794607    1.530    0.346
       213 -10.9136     84.1274     61.7290   9.2373467853e+01   5.3130810242e+01    0.3885204    0.2444267  40.21  0.002002337    1.531    0.347
       214 -12.0606     86.9945     54.3151   8.9079876192e+01   5.3771959820e+01    0.6095948    0.2586925 -32.68  0.001768789    2.569    0.611
       215 -11.1210     11.0736     44.8372   1.1424754130e+02   6.5376932235e+01    0.4031316    0.1974444 -31.36  0.001730847    1.754    0.430
       216 -10.5045      4.7377     46.7112   1.1756669575e+02   6.5510533257e+01    0.3138018    0.1403419 -33.11  0.001672989    1.885    0.470
       217 -10.4894      7.0034     41.2426   1.1487850594e+02   6.6278886980e+01    0.2332427    0.1201074 -42.04 0.0007829103    1.558    0.358
       218 -10.4744     11.0816     62.6603   1.1945319854e+02   6.2193074869e+01    0.2017856    0.1450038 -46.16 0.0003923711    1.195    0.163
       219 -10.9462      6.4716     58.5965   1.2022092751e+02   6.3266557827e+01    0.3718101    0.2781905 -79.39    0.0023614    2.040    0.510
       220 -11.7021      5.1590     51.7879   1.1887367394e+02   6.4591163763e+01    0.3791105      0.21989 -32.87 0.0007477485    1.380    0.275
       221  -9.9105    201.2948     61.9534   6.6973893066e+01   2.7351556137e+01    0.1821606    0.1566874 -63.79 0.0003067262    1.099    0.090
       222 -10.8247     45.2793     50.6443   1.0216689885e+02   6.0919351662e+01    0.4371085      0.18806 -32.70  0.002023861    2.358    0.576
       223 -11.5076     29.7184     60.8577   1.1152341978e+02   6.0941717976e+01     0.625249    0.2293389  18.24   0.00246036    3.607    0.723
       224 -12.6541     37.6890     51.1677   1.0529177242e+02   6.1759960719e+01    0.7242826    0.5070592  -5.13  0.003892979    1.366    0.268
       225  -9.9448     43.9686     57.0523   1.0479800655e+02   6.0022824510e+01    0.1927758     0.155585 -13.03 0.0003496043    1.057    0.054
       226 -10.8509    118.7926     53.2344   8.0075285937e+01   4.7510502551e+01    0.4510672    0.2199377  50.18  0.001062148    1.864    0.464
       227 -11.1120    128.5288     57.2861   7.8983299760e+01   4.4783157294e+01    0.3499416    0.2587883  16.91 0.0008520362    1.739    0.425
       228 -10.5067    123.1145     56.5652   8.0037856425e+01   4.6084855038e+01    0.2586196     0.202146 -71.22  0.001052216    1.646    0.392
       229 -10.2368    139.2240     65.7936   7.9014331271e+01   4.1069264611e+01     0.192407    0.1604352  30.74 0.0005226745    1.315    0.239
       230 -10.4362     47.6425     58.5565   1.0389889900e+02   5.9303714079e+01    0.2835093    0.2160506 -58.39  0.001321888    1.793    0.442
       231 -10.0354    114.4072     57.3806   8.2427582455e+01   4.7842220113e+01    0.2521434    0.1182579  46.42  0.001079373    1.971    0.493
       232 -11.1708    101.2504     55.8276   8.5434974162e+01   5.0793443577e+01    0.5637434    0.1822198  51.30  0.001997285    3.162    0.684
       233 -10.3376     75.1361     56.0199   9.3382096234e+01   5.5612973346e+01    0.1891807    0.1702158   3.88 0.0003490584    1.041    0.040
       234  -9.9777     62.4832     54.4814   9.7157155302e+01   5.7892913277e+01    0.2622945    0.2083653  81.23  0.001401403    2.444    0.591
       235 -10.6927     12.5473     51.8277   1.1577800839e+02   6.4061745006e+01    0.2837961    0.1763275 -51.86  0.001763844    1.575    0.365
       236 -11.8528    128.6927     49.9983   7.6806031154e+01   4.5791168083e+01    0.5435699    0.3437698  -9.13  0.002387791    2.410    0.585
       237  -9.1886    191.2390     50.9865   6.5884222255e+01   3.1252065221e+01     0.157352    0.1078149 -43.35 0.0008463798    1.492    0.330
       238 -10.8632     69.9289     50.3852   9.3211307235e+01   5.7348194328e+01    0.3060799    0.2774124  86.80  0.001524629    1.663    0.399
       239 -10.3156    103.9717     45.9655   8.1550590000e+01   5.1645103034e+01    0.2216121    0.1932311 -20.56 0.0006865709    1.223    0.182
       240 -10.5781     82.0045     50.1158   8.9217134845e+01   5.5306646680e+01    0.2273953     0.165459  43.61 0.0008372705    1.350    0.259
       241 -10.0833    220.9186     48.9572   6.1651803392e+01   2.4957577708e+01    0.1892264    0.1541182 -76.44            0    1.011    0.011
       242 -11.3628    153.2065     47.8928   7.1253299558e+01   4.0488591545e+01    0.4423459    0.2681736  60.99  0.001719815    1.499    0.333
       243 -10.2070     62.3135     47.3305   9.4770004516e+01   5.9019972716e+01    0.3900956    0.1454175  32.28  0.001589371    2.905    0.656
       244 -10.7663     60.0542     45.0000   9.4750282297e+01   5.9710268410e+01    0.2670023    0.1980778  18.56 0.0008715591    1.232    0.188
       245  -9.3389     78.4915     47.4574   8.9419262286e+01   5.6317350901e+01    0.1297713    0.1124354  14.74 3.050032e-05    1.011    0.010
       246 -10.5769    142.5561     45.5421   7.2628069807e+01   4.3258212890e+01    0.3112226     0.215233 -68.23  0.001056764    1.831    0.454
       247  -9.3261    233.4063     45.4675   5.9591811204e+01   2.2822611287e+01    0.1237219    0.1002609 -73.60 0.0001079421    1.037    0.035
       248 -10.0149    113.7910     48.1582   7.9741785348e+01   4.9295180986e+01    0.2019759    0.1790163  76.20 0.0006570178    1.275    0.215
       249 -10.1520     51.1802     44.8635   9.7930848198e+01   6.1026786929e+01    0.2194546    0.1551395 -16.20 0.0003800535    1.329    0.248
       250 -11.1761     52.0033     41.0273   9.6255170418e+01   6.1472362369e+01    0.2974475    0.2173584  32.31 0.0007436828    1.356    0.263
       251 -10.6065    121.9183     42.8101   7.6181357481e+01   4.8247709427e+01    0.3053574    0.2579306  85.97  0.001809058    1.368    0.269
       252 -11.3983     97.9436     31.8781   7.8519016431e+01   5.4628409743e+01    0.3025103    0.2185594  32.49 0.0003967743    1.292    0.226
       253 -10.7826    101.0857     28.5316   7.6610978699e+01   5.4366536002e+01    0.2380278    0.2141627 -71.00   0.00155621    1.419    0.295
       254 -11.0865     97.2183     41.0392   8.1751565301e+01   5.3658529860e+01    0.3505127     0.231411  42.79  0.001255294    1.352    0.260
       255 -11.8387    101.8344     36.8295   7.9147440372e+01   5.3253601268e+01    0.5723941    0.2691135  38.58  0.002058865    2.128    0.530
       256 -11.2828     67.7099     39.7793   9.0253954309e+01   5.9226152500e+01    0.6481063    0.3345406  -1.85  0.002354576    4.391    0.772
       257 -11.8437     20.5214     37.8681   1.0781552059e+02   6.5690648153e+01    0.3201573    0.2562944 -46.99  0.001644171    1.578    0.366
       258 -12.6313     25.7555     36.2780   1.0500082277e+02   6.5410610033e+01    0.4500324    0.3885146 -20.09  0.003160215    1.268    0.211
       259  -9.6601    220.2171     41.5994   6.0214327033e+01   2.6129795509e+01    0.1614335     0.105906  63.79 0.0003210491    1.526    0.345
       260  -9.9911    183.9905     41.3047   6.4638835651e+01   3.4237693069e+01    0.1857558     0.154816  84.01 0.0004790235    1.042    0.040
       261  -9.5887    110.2475     41.4533   7.8516215278e+01   5.0931572433e+01     0.185258     0.120483  64.75 0.0009424541    1.714    0.417
       262  -9.1152     72.0088     41.0189   8.9270984092e+01   5.8337431959e+01    0.1482648    0.1275044   4.11 0.0003706743    1.055    0.052
       263 -10.3954     43.4116     39.1327   9.8836901483e+01   6.2917801326e+01    0.4148297    0.2217672 -44.78  0.001533877    2.157    0.536
       264  -9.9456    226.0441     40.0179   5.9273216931e+01   2.5106145161e+01    0.2010819    0.1203149 -70.60   0.00060169    1.590    0.371
       265 -10.9096     89.2958     39.3040   8.3380393305e+01   5.5428872214e+01    0.2654748    0.2043765 -37.28 0.0007642262    1.471    0.320
       266 -12.4281     80.4006     36.4786   8.5029718318e+01   5.7448643138e+01    0.6533656    0.4546114 -56.22  0.003525209    2.269    0.559
       267  -9.3866     61.9514     37.9374   9.1558181092e+01   6.0404824486e+01    0.1443757    0.1203882   1.20 0.0002929797    1.055    0.052
       268 -10.8784     18.5523     31.6865   1.0644986370e+02   6.6809061286e+01    0.3333598     0.247448  23.54  0.002017736    1.473    0.321
       269 -11.5411     10.3779     34.5136   1.1111907559e+02   6.7100501218e+01    0.7115607     0.254401  12.64  0.003105923    3.816    0.738
       270 -11.4515      6.6082     30.4019   1.1139168131e+02   6.8027955651e+01    0.4794862    0.2224465 -20.94  0.001723466    2.213    0.548
       271  -9.2947      2.2956     28.6383   1.1277585595e+02   6.8613804684e+01    0.1285741   0.09776245  19.69 0.0001747696    1.535    0.348
       272 -10.4412      2.3913     24.0053   1.1105280251e+02   6.9296187821e+01    0.3159272    0.1955602 -19.45   0.00207697    1.278    0.217
       273 -10.1385    166.5182     36.5575   6.6053282363e+01   3.8874533753e+01     0.131897    0.1135769  79.32 4.551037e-05    1.011    0.011
       274  -9.0283    127.5029     36.4439   7.3058022389e+01   4.7805700405e+01    0.1315378    0.1155229  54.37 8.364575e-05    1.006    0.006
       275 -11.8998     97.0867     36.9777   8.0441717055e+01   5.4194786871e+01    0.2589092    0.2143487  40.26 0.0003446936    1.071    0.067
       276  -9.7164    206.1969     33.7910   6.0142283184e+01   3.0206817715e+01    0.1562582    0.1350864  65.58 0.0002362171    1.300    0.231
       277  -9.8312    150.6876     34.6746   6.8147703476e+01   4.2759039895e+01     0.132081    0.0937632  35.64  0.000704106    1.662    0.398
       278  -9.0369     34.3370     34.3114   1.0068851300e+02   6.4739423209e+01    0.1231716   0.07551916  -4.89 0.0007045111    1.687    0.407
       279  -9.3086     60.3041     33.6767   9.0572450773e+01   6.1223996053e+01    0.1046582    0.0995601 -87.75 0.0003313318    1.638    0.390
       280 -10.1484    145.0456     32.0867   6.8430484027e+01   4.4357082871e+01    0.1917523    0.1668899  69.37 0.0003351788    1.021    0.021
       281  -9.5048    129.5418     32.5054   7.1478019918e+01   4.7813860655e+01    0.1300565    0.1140427  55.56 0.0004871695    1.008    0.008
       282 -10.2649     56.1926     31.0363   9.1041415849e+01   6.2198193178e+01    0.2523932    0.1465595 -17.64   0.00139894    1.844    0.458
       283 -10.3540     49.6631     31.3196   9.3538944169e+01   6.3130905167e+01    0.1992382     0.185129  41.47 0.0009522072    1.523    0.343
       284 -10.7623     50.6883     27.9976   9.1889890126e+01   6.3402536146e+01    0.2112806    0.1469963  24.57 0.0002435031    1.248    0.199
       285  -9.8807     42.7977     31.7956   9.6348331947e+01   6.4018996357e+01    0.1763577     0.131209   5.12 0.0007579064    1.143    0.125
       286 -10.5259    177.1515     30.9260   6.3120187634e+01   3.7110652597e+01    0.2289357    0.1366468 -46.39  0.001227028    1.730    0.422
       287 -10.0118     85.1192     35.0997   8.3145663488e+01   5.6746084591e+01    0.2115833    0.1492033  55.59 0.0004553362    1.546    0.353
       288  -9.8581    139.8490     29.2925   6.8586717453e+01   4.5857716016e+01    0.2520558    0.1483909   4.10  0.001083725    3.273    0.694
       289  -9.8409     82.8220     30.2032   8.2104546076e+01   5.7757709014e+01    0.2988785    0.1990981 -77.89  0.001210796    4.493    0.777
       290  -9.4541     80.3567     26.1826   8.1397153174e+01   5.8668358699e+01      0.20696    0.1684963 -74.13 0.0005926802    2.015    0.504
       291  -9.7608    153.6107     28.7851   6.6090509757e+01   4.2772237448e+01    0.1669705    0.1139341 -48.85 0.0004539317    1.604    0.376
       292 -10.9025    214.6228     27.4051   5.7902122538e+01   2.9169497212e+01    0.2235697    0.1678104 -79.53 0.0001700158    1.104    0.094
       293 -10.5063    210.8939     24.5051   5.7688904882e+01   3.0327524285e+01     0.223173    0.1510862 -81.06 0.0009234183    1.302    0.232
       294  -9.3970    192.3009     28.3021   6.0566792765e+01   3.3982157908e+01    0.1175281   0.09177258  46.09 0.0002300142    1.587    0.370
       295 -11.3090     70.6901     25.7443   8.4176291899e+01   6.0452325772e+01    0.5242901    0.2420909  38.86  0.002662833    1.904    0.475
       296 -12.3411    226.3707    246.4646   1.0083055523e+02  -1.1141853282e+01     0.533221    0.3459742 -15.44  0.003099072    1.549    0.354
       297 -10.8760    129.4422     19.0549   6.7567166804e+01   4.9264234610e+01    0.2490345    0.1977967  81.29  0.001005516    1.295    0.228
       298  -9.6863     24.8137     26.8517   1.0187193384e+02   6.6856871458e+01    0.1381397    0.1205535  -7.93 0.0005050368    1.311    0.237
       299  -9.6088     16.4662     26.7277   1.0552395120e+02   6.7720872587e+01    0.1466955   0.08340042 -26.67  0.000368157    1.492    0.330
       300  -9.4180    165.4880     25.9845   6.3554665399e+01   4.0359703217e+01    0.1666176   0.09213433 -60.77 0.0004146524    2.166    0.538
       301  -8.9880    146.2877     26.2912   6.6632726800e+01   4.4724468540e+01    0.1251673   0.08894245  39.44 -0.0001541599    1.541    0.351
       302 -10.5898     87.7137     24.9674   7.8887967481e+01   5.7409862552e+01    0.3561997    0.2445818  77.32  0.001876021    2.373    0.579
       303 -10.4906    181.0135    248.5263   1.1006608608e+02  -4.7849324316e+00    0.3048517    0.1208872 -34.87  0.001183676    3.319    0.699
       304  -9.4310    206.0123    246.0343   1.0466091045e+02  -8.1827643294e+00    0.1534665    0.1298121   8.42 0.0004473102    1.013    0.013
       305 -10.4229    147.6163    245.2340   1.1648888865e+02   1.2029683687e+00    0.1821041    0.1232411 -38.44 0.0009540604    1.713    0.416
       306 -10.4804     10.0976     25.2262   1.0787277401e+02   6.8507523480e+01    0.2468929    0.1503396  -5.32 0.0008190234    1.474    0.322
       307 -11.8601     74.2515    238.4379   1.3115683508e+02   1.4280208816e+01    0.5304027    0.4066367  60.14  0.003186381    1.133    0.117
       308 -10.1680      7.7999     21.0161   1.0733521628e+02   6.9293902468e+01    0.1835329    0.1276527 -27.36  0.000603655    1.213    0.176
       309 -11.3027     73.9999    232.7291   1.3057136959e+02   1.5558719360e+01    0.3494076    0.1951201  42.95  0.001728432    1.641    0.391
       310  -9.5200    112.0071     24.9543   7.2887156370e+01   5.2467368098e+01    0.1465203    0.1356604  31.78 0.0007745899    1.103    0.093
       311 -10.2462    173.8435     24.1506   6.1944799759e+01   3.8651933881e+01    0.1880317    0.1465611 -88.14 0.0003139272    1.168    0.144
       312  -9.2457    158.9986     24.0371   6.4017385622e+01   4.2062673119e+01    0.1526316    0.1278902  74.12 0.0009681366    1.013    0.013
       313  -9.9404     93.8094     23.8633   7.6888657561e+01   5.6332351841e+01    0.1553498    0.1471076 -86.74 0.0008449292    1.339    0.253
       314  -9.5459     35.0217     22.9783   9.6029018024e+01   6.6164248861e+01    0.2096529    0.1010779  15.03  0.001020728    2.616    0.618
       315  -9.4538    115.5058    244.5161   1.2319491212e+02   6.6157360281e+00    0.1333019    0.1191181  50.24 8.909634e-05    1.037    0.036
       316  -9.5843    120.5102     21.1247   6.9902078470e+01   5.1024617750e+01    0.1651265    0.1257624 -24.12  0.001013042    1.532    0.347
       317  -9.8063    113.9987     20.9576   7.1199485365e+01   5.2447914902e+01    0.1974641     0.147698 -84.61  0.001139408    1.777    0.437
       318  -9.9824     66.2552     21.4098   8.3971368986e+01   6.1689670068e+01    0.1636581     0.104565  50.70 0.0008835443    1.663    0.399
       319 -10.5390     46.1307     20.8375   9.0792599417e+01   6.4918438077e+01    0.2289995    0.1475297  33.08  0.000599212    1.392    0.282
       320 -10.3377    162.0318     19.9791   6.2547216632e+01   4.1802192457e+01    0.1890552    0.1609171  75.81 0.0003628233    1.024    0.023
       321  -9.8219    227.7798     19.3665   5.5074416385e+01   2.7359337677e+01    0.1610172   0.09216587  67.65 0.0006453387    1.642    0.391
       322  -9.1748    151.0017     18.9771   6.3917912821e+01   4.4419565291e+01    0.1474935    0.1250993  71.62  0.000334073    1.008    0.008
       323 -11.2655     37.2640    243.0103   1.3901454188e+02   1.8274085953e+01    0.2590264    0.2085343  56.88   0.00174854    1.196    0.164
       324 -10.5875    108.1575     17.2895   7.1300244060e+01   5.4041383026e+01    0.2522265    0.1769751  59.23 0.0005067849    1.271    0.213
       325 -10.2700    167.5104     16.7982   6.1010896688e+01   4.0884393111e+01     0.318588    0.1387156  83.50  0.001289612    2.994    0.666
       326  -9.9770    109.3307    242.8223   1.2428305374e+02   7.9550666833e+00    0.2377241    0.1605885  51.47 0.0007479504    1.345    0.256
       327 -10.5071     88.8565    241.2503   1.2841883842e+02   1.1497941923e+01    0.2407878    0.1626186 -38.57  0.001228213    2.139    0.533
       328 -10.7950    156.4965    241.0894   1.1397897026e+02   5.1171885823e-01    0.1915371    0.1344073 -49.04  0.001027477    1.574    0.365
       329 -10.3954     35.6873    239.6690   1.3904435199e+02   1.9178796235e+01    0.2402098    0.1517411 -66.58  0.001282183    1.586    0.370
       330 -11.6998    236.3473    246.8751   9.9053075510e+01  -1.2534999725e+01    0.3410889    0.2237613  21.01  0.002090638    1.414    0.293
       331  -9.8736    217.5386     16.5104   5.5436637138e+01   2.9839156462e+01    0.2014781   0.08723962  61.85 0.0008414045    2.177    0.541
       332  -9.4506    146.9648     15.4999   6.3619429607e+01   4.5679058652e+01     0.182252    0.1049626  65.62 0.0003529419    1.455    0.313
       333 -10.4153     29.1666    232.9141   1.3975951956e+02   2.1415780748e+01    0.2840166    0.1619229  61.57  0.001307854    1.550    0.355
       334 -10.4767    195.8387    238.2682   1.0536856126e+02  -5.3519811564e+00    0.2791238    0.2054959  15.45  0.001592332    1.329    0.247
       335  -9.7854     49.9985     15.0000   8.7015503221e+01   6.4983896851e+01    0.2484065    0.1387544  36.22     0.001501    1.534    0.348
       336 -10.2387    159.9213    235.8665   1.1242305812e+02   9.2698203200e-01    0.2134497    0.1781012   7.21 0.0008018783    1.285    0.222
       337 -10.0253    177.8373    234.8648   1.0848025823e+02  -1.8660214774e+00    0.2077223    0.1726637   1.66  0.000830046    1.229    0.186
       338 -11.2083    153.4630    234.1945   1.1353692521e+02   2.3385361107e+00    0.2784521    0.2177322 -27.94 0.0008932963    1.468    0.319
       339  -9.4138    231.3237    235.3126   9.7978251376e+01  -1.0102026556e+01     0.130231   0.08482607  -4.60 0.0004447787    1.658    0.397
       340 -10.1149     85.9637    232.9583   1.2803918041e+02   1.3718629996e+01    0.1652753    0.1440181  69.99 0.0007132601    1.011    0.011
       341  -9.8526    142.3151    232.2920   1.1564926995e+02   4.6115531797e+00    0.1351149    0.1070739  -0.29 0.0002169791    1.596    0.373
       342  -9.8798     24.0534    232.3121   1.4070492761e+02   2.2132686358e+01    0.1682309    0.1317589  73.27 0.0005278981    1.055    0.052
       343  -9.9150     79.9289    231.4823   1.2915951679e+02   1.4955736305e+01    0.1973597    0.1202312  42.45  0.000420023    1.524    0.344
       344  -9.9064    135.1199     22.3071   6.7469324131e+01   4.7672180068e+01    0.2190093    0.1091843  34.15 0.0009523351    2.779    0.640
       345  -9.4504    139.8585     13.6183   6.4233413511e+01   4.7457673142e+01    0.1705303    0.1031385  76.84 0.0004672312    1.623    0.384
       346 -11.2383     31.3436    237.3918   1.3969858826e+02   2.0189263628e+01    0.2640798    0.1824722  88.41 0.0009905349    1.221    0.181
       347  -9.4453    249.3242    227.3006   9.3301311960e+01  -1.1276523877e+01    0.1264628   0.08139326  -6.89 0.0006311707    1.633    0.388
       348  -9.7682     30.5370     13.0132   9.3791251859e+01   6.7903014112e+01    0.1530659   0.09338675 -23.08 0.0005008478    1.528    0.346
       349  -9.9802    190.5182    226.4647   1.0440377027e+02  -2.4128038727e+00    0.2550301    0.1297455 -43.15 0.0006576065    2.009    0.502
       350  -9.8995     87.4968    227.4971   1.2702642959e+02   1.4685386501e+01    0.1368379    0.1207413  69.56 -0.0002982878    1.010    0.010
       351  -9.7982    176.4829     11.5005   5.8632117421e+01   3.9391986049e+01    0.1234626    0.0998184  84.21 -5.068494e-05    1.011    0.011
       352 -10.3963     66.7067    226.6890   1.3144589907e+02   1.7953180011e+01    0.3579511    0.1499068  50.30  0.001257618    2.262    0.558
       353 -11.0413      5.0397    226.2154   1.4388783783e+02   2.5468188147e+01    0.3334141    0.1101687  54.64  0.001522565    2.772    0.639
       354  -9.2646     86.2255     10.6410   7.4246152058e+01   5.9076198836e+01    0.1020892   0.08899758 -57.10 0.0006871861    1.570    0.363
       355 -10.7071    120.0558    226.5021   1.1967171044e+02   9.6085594349e+00    0.2088152    0.1291077  40.16  0.000428447    1.503    0.335
       356  -9.9738    181.0000    224.9564   1.0611592390e+02  -5.5219183207e-01    0.2175418   0.07731619 -46.43 0.0008004608    2.929    0.659
       357  -9.2091    156.4360    224.4710   1.1129737969e+02   3.7534816640e+00    0.1394313    0.1291956  14.50 0.0001928297    1.072    0.067
       358 -10.7820    123.5380    221.3215   1.1810365807e+02   1.0134561696e+01     0.522625    0.2512115  45.78  0.002197935    1.977    0.494
       359  -9.9796    141.8505    220.8359   1.1391249859e+02   7.0518677901e+00    0.2178259    0.1922675  16.05 0.0009389453    1.212    0.175
       360  -9.0088     73.2892    221.2787   1.2938054871e+02   1.8231026512e+01    0.1205037    0.1063865 -31.80 0.0002099573    1.521    0.343
