#   1 NUMBER                 Running object number                                     
#   2 MAG_AUTO               Kron-like elliptical aperture magnitude                    [mag]
#   3 X_IMAGE                Object position along x                                    [pixel]
#   4 Y_IMAGE                Object position along y                                    [pixel]
#   5 X_WORLD                Barycenter position along world x axis                     [deg]
#   6 Y_WORLD                Barycenter position along world y axis                     [deg]
#   7 A_WORLD                Profile RMS along major axis (world units)                 [deg]
#   8 B_WORLD                Profile RMS along minor axis (world units)                 [deg]
#   9 THETA_WORLD            Position angle (CCW/world-x)                               [deg]
#  10 FWHM_WORLD             FWHM assuming a gaussian core                              [deg]
#  11 ELONGATION             A_IMAGE/B_IMAGE                                           
#  12 ELLIPTICITY            1 - B_IMAGE/A_IMAGE                                       
         1  99.0000     31.0164     20.5055   3.9333339690e+01   7.2313817676e+01     1.183878    0.6635245  37.50  0.005920468    1.818    0.450
         2 -12.6562     64.8827      4.6086   1.3030339559e+01   6.7799192431e+01    0.6610537    0.3991644  -6.27 0.0004100754    1.947    0.486
         3 -12.4431     47.8945     31.2468   3.5640407773e+01   6.7584503163e+01      3.04559     1.350891  48.97   0.01220733    2.610    0.617
         4 -12.6092     25.7401     38.6377   5.1882186939e+01   6.9389716481e+01      1.77183    0.8769164 -57.22  0.004372571    1.973    0.493
         5  99.0000     76.4296      7.7100   1.1296572324e+01   6.4769240541e+01     1.076758    0.5128828  64.06  0.003794602    2.008    0.502
         6 -11.7296     87.5070      1.5725   5.3463661064e+00   6.2605020913e+01    0.4764565    0.1475117  57.87  0.000682577    2.585    0.613
         7 -13.4071     74.8487     20.9411   1.8830904333e+01   6.3606266195e+01     1.923433     1.287914  65.96  0.004596659    1.620    0.383
         8 -14.5359     34.3883     57.5748   5.4032802975e+01   6.3997354430e+01      2.68832     2.031856 -41.55   0.01439366    1.243    0.196
         9 -12.5768     52.9555     20.9256   2.7503076258e+01   6.8348257674e+01     1.064367    0.7054901  83.05  0.001707288    3.232    0.691
        10 -13.5698     54.6989     58.1826   4.4241484773e+01   6.0909564480e+01     2.128309     1.365943  80.84  0.004991189    3.357    0.702
        11 -13.6258     13.6907     34.2981   5.8067842764e+01   7.1591142876e+01     1.514594    0.7333769 -66.87  0.006634479    2.253    0.556
        12 -13.5686      6.0965     33.8649   6.3311146210e+01   7.2273434346e+01    0.8960996     0.545849 -66.69  0.003053157    1.568    0.362
        13 -12.7902    161.6479     36.4875   6.5577413506e+00   3.9945689895e+01    0.8827385    0.7131588 -33.51  0.004891451    1.228    0.186
        14 -12.3085    231.9725     35.4291   3.5916431845e+02   2.4470652614e+01     1.182901    0.4312102 -63.01  0.002869898    3.940    0.746
        15 -13.3628    204.5101     39.5498   2.4952736772e+00   2.9605210218e+01     2.127691     1.134689 -66.42   0.01006754    2.128    0.530
        16 -13.1229    211.1493     60.8808   7.2267386609e+00   2.5378138145e+01     1.089556    0.4106951 -52.31  0.003787126    3.028    0.670
        17 -12.7244    178.4073     38.8077   5.1029735214e+00   3.5605977167e+01    0.8846372    0.5914653  30.58  0.003397139    2.183    0.542
        18 -12.6204    221.3224     39.0347   8.5581125267e-01   2.6149532586e+01    0.7632528    0.3348603 -59.21  0.001023932    2.489    0.598
        19 -12.1659    218.9398     28.8445   3.5857113333e+02   2.7844618471e+01    0.5255347     0.460961  21.70  0.002223902    1.554    0.357
        20 -12.7044    226.8634     22.9261   3.5659967101e+02   2.6903684271e+01    0.4282592    0.2684511  76.64  0.001015788    1.755    0.430
        21 -13.6579      4.1707     57.2126   7.0773323119e+01   6.6717788257e+01     1.889937    0.7601391 -55.76  0.005072176    1.976    0.494
        22 -11.4941     54.6419      8.5258   1.9243510243e+01   6.9666216245e+01    0.3824599    0.2218957 -37.87 0.0005125959    1.852    0.460
        23 -11.4804    210.8084     21.7334   3.5741472127e+02   3.0352095419e+01    0.4633861    0.4408671 -69.98  0.003238969    1.209    0.173
        24 -10.4140    160.0798     14.1597   3.5968142831e+02   4.2938715244e+01    0.2132982    0.1826519 -38.80 0.0003384768    1.168    0.144
        25 -12.0558    124.0234     23.5075   7.9224520458e+00   5.1084961982e+01    0.4759052    0.4074609  27.71  0.002635071    1.337    0.252
        26 -12.0418    243.9707     22.3064   3.5542104677e+02   2.3674010674e+01    0.5116325    0.3146139 -78.77  0.002351992    1.698    0.411
        27 -10.4805    204.3773     16.7347   3.5660749260e+02   3.2283357938e+01    0.3950545    0.1952693 -89.39  0.001735837    2.204    0.546
        28  99.0000    228.8857     15.5502   3.5475425363e+02   2.7294859152e+01    0.5543645    0.2458471 -80.68  0.002691586    2.620    0.618
        29  99.0000    229.1972     10.3329   3.5353197129e+02   2.7772066837e+01     1.241226    0.5722167  80.06  0.006626974    2.325    0.570
        30 -11.8369    220.9481      7.2384   3.5324034966e+02   2.9747727064e+01    0.2162754    0.1765317 -55.96 0.0003599862    1.052    0.050
        31 -12.5310    249.8431     10.8385   3.5264457457e+02   2.3797006052e+01    0.4764946    0.2080073 -33.89  0.002674806    1.739    0.425
        32 -13.6614    244.4829      8.4906   3.5238189647e+02   2.5019130639e+01    0.8140213     0.325619 -69.55  0.004058105    2.636    0.621
        33 -10.4616    109.1631     10.5903   5.3233952827e+00   5.6300287104e+01    0.9794452    0.4741969 -63.19  0.003735228    2.927    0.658
        34 -10.8157    111.4249      4.2079   2.2122455250e+00   5.6300476370e+01    0.3664398     0.255531  81.37  0.001922533    1.376    0.273
        35 -11.1641    114.5070     12.5266   5.1990181456e+00   5.4735092260e+01    0.5019765    0.2785441 -50.24  0.001628282    1.938    0.484
        36 -11.4443    117.0562      9.7767   3.6428612522e+00   5.4346602712e+01    0.3620374    0.2491969  79.21 0.0008543826    1.401    0.286
        37 -11.5316    115.3223      6.7004   2.6505338325e+00   5.5078148926e+01    0.3530514    0.2491397  85.35  0.001479698    1.390    0.281
        38 -10.1400    187.1349     14.5949   3.5733872941e+02   3.6391516082e+01    0.2763639    0.1631188 -13.25  0.001356622    2.139    0.532
        39 -10.7763    156.8497      8.1808   3.5809039778e+02   4.4332986670e+01    0.4488053    0.2270665 -58.09  0.002049541    1.975    0.494
        40  -8.3716     91.4306      6.4837   6.9475541019e+00   6.1195424298e+01    0.3750824    0.1813258  22.75  0.001383457    3.333    0.700
        41 -10.7889     92.9773     11.3132   8.9394819094e+00   6.0340091529e+01    0.4173801    0.1779296 -29.96 0.0009206278    2.339    0.572
        42 -10.0235    142.9345      6.7945   3.5906697411e+02   4.7969936621e+01     0.187661    0.1686911  71.20 0.0003977306    1.127    0.113
        43 -11.3260    149.5734     13.1638   5.0192374868e-01   4.5672435263e+01    0.4351836    0.2308363 -81.63  0.001435649    2.127    0.530
        44  -9.0299    143.7327     10.2755   1.8854780991e-01   4.7439425203e+01     0.204691     0.153656 -81.99 0.0001835232    1.273    0.215
        45  -9.9981     38.0631     12.5380   3.0001307118e+01   7.2435834336e+01    0.1970002     0.160716  -5.21 0.0004192523    1.190    0.160
        46 -10.6851    124.6965     10.2962   2.6817404042e+00   5.2325199279e+01    0.4534044    0.2612131 -25.76  0.002168831    1.805    0.446
        47  -9.8603     88.6635     12.0056   1.0300433239e+01   6.1343236591e+01    0.1853984    0.1639977 -10.62 0.0005076843    1.207    0.172
        48 -13.6156    172.9995      6.2783   3.5608316319e+02   4.0556994975e+01     0.461008     0.301605 -16.33  0.001890741    1.762    0.432
        49  -9.6686    130.6605      9.4317   1.5163344320e+00   5.0869731449e+01    0.3551087    0.1984988  17.51  0.001405344    2.852    0.649
        50 -10.3409    101.8936     10.0156   6.4399962260e+00   5.8215518087e+01    0.2113186    0.1955275  68.54 0.0005858359    1.011    0.011
        51 -10.4817     26.6276      9.5462   3.5143684674e+01   7.4829365388e+01    0.3315808    0.2013307  15.67  0.001393424    2.018    0.504
        52 -11.8010    194.0032      8.0150   3.5503818641e+02   3.5485939155e+01    0.2564785    0.2365553 -72.85 0.0008859919    1.151    0.131
        53 -10.7351     46.9882      7.5786   2.2013793524e+01   7.1383992737e+01    0.5007991    0.2894582  45.14  0.002548808    1.610    0.379
        54 -11.2813     46.1927      2.4316   1.8843795154e+01   7.2141671732e+01    0.2470198    0.1905902  16.15 0.0005383716    1.283    0.221
        55 -11.6671    220.3704     12.2967   3.5447774925e+02   2.9355041824e+01    0.3488348    0.2648423  65.48  0.001140559    1.563    0.360
        56 -10.6040      3.9405      5.7689   5.1492404872e+01   7.8365467431e+01    0.4350049    0.2235152 -17.09  0.002016168    2.482    0.597
        57  -9.9395    210.3022      6.0339   3.5352624645e+02   3.2095447340e+01    0.1891463    0.1553141  81.30  0.001262359    1.318    0.241
        58 -11.6143    215.4455      1.9840   3.5226377929e+02   3.1398340546e+01    0.4236276    0.2083017  79.75  0.001275595    2.079    0.519
        59  -8.9126    102.2238      5.5802   4.3703930155e+00   5.8542261140e+01    0.4491427    0.2506155  57.92  0.002146319    1.620    0.383
        60 -10.2213    184.0910      3.3634   3.5443386177e+02   3.8206019236e+01    0.2611679    0.2010379  61.29   0.00158032    1.460    0.315
        61 -11.0116    122.5562      3.7684   4.2112118638e-01   5.3467633029e+01    0.2238305    0.1928633 -82.18 0.0002238939    1.092    0.084
        62 -10.9230     56.9896      3.1765   1.4898020547e+01   6.9733199644e+01    0.3905645     0.266029  36.31  0.002128548    1.402    0.287
        63 -10.1837    232.1047      1.6188   3.5140976540e+02   2.8057743281e+01    0.2927156    0.1383331 -81.77  0.001586419    2.167    0.538
        64  -9.7429    227.9002      1.1645   3.5148957145e+02   2.8932041043e+01    0.1935148   0.07480852  80.09 0.0009460963    2.701    0.630
        65  -9.6087    154.8289      1.9584   3.5626309545e+02   4.5401599066e+01    0.1796157    0.1659756  45.03 0.0006912124    1.264    0.209
        66 -13.0415     51.3983     44.8919   4.0399155966e+01   6.4327130854e+01     1.090719    0.5177026  23.11  0.003714748    3.586    0.721
        67 -10.6611    171.9591    116.5929   2.7324388888e+01   2.4343219339e+01    0.2534557    0.1917311 -44.16  0.001309174    1.256    0.204
        68 -10.6658    125.9373    115.9457   3.7614363010e+01   3.3849094791e+01    0.2274895    0.2196914 -27.49 0.0003071315    1.041    0.040
        69 -10.2288    182.7074    115.1509   2.4946410163e+01   2.2485769426e+01    0.2187809    0.1950129  67.75 0.0003546749    1.333    0.250
        70  -9.9637    203.3251    116.0555   2.1639468041e+01   1.8434424476e+01    0.3219944    0.1841579  71.10  0.001288839    3.535    0.717
        71 -13.3875     79.5099     41.3643   2.7029055169e+01   5.9417248615e+01     1.310412    0.5335073  50.97  0.004885138    2.452    0.592
        72 -14.2916     76.3495     58.9012   3.5471989155e+01   5.6738042698e+01    0.8258523    0.5110315  49.20  0.002172848    1.692    0.409
        73 -13.5318     79.1569     50.1111   3.0909705564e+01   5.7902492221e+01    0.9631261    0.7157091  35.71  0.004397172    1.415    0.293
        74 -10.1063    158.2971     95.5383   2.4657530657e+01   3.1145952657e+01    0.3969154    0.1529083  58.07  0.001295918    3.386    0.705
        75 -12.0363     45.8028     93.1057   5.8544015495e+01   5.3577746930e+01    0.5097928    0.2272646  28.83  0.001172824    2.383    0.580
        76 -10.8071    227.2149     92.0307   1.2753479803e+01   1.7825442377e+01    0.1899529    0.1775487 -35.36 0.0003757593    1.141    0.124
        77 -13.7121    176.5003     84.1482   1.8155910452e+01   2.9189441846e+01     1.806585     1.081146  16.05  0.006335279    3.802    0.737
        78 -10.7724     71.9990    109.9593   5.2536653656e+01   4.5366007846e+01    0.2245088      0.21429 -74.48   0.00121315    1.003    0.003
        79 -10.8894    196.2587    107.6685   2.0818149542e+01   2.1146902505e+01    0.3763825    0.1933115 -47.76  0.001662914    1.973    0.493
        80 -13.2287    181.5193     70.9812   1.3766413684e+01   3.0237296821e+01       1.9764    0.6793569  64.74  0.006610603    3.807    0.737
        81 -12.7336    160.7018     64.8114   1.5408556896e+01   3.6012916766e+01     1.664893    0.6837483  64.98  0.004933969    2.901    0.655
        82 -13.3397    187.2640     58.8381   9.6183551433e+00   3.0797446198e+01     1.366972     1.169696  66.42  0.004892699    1.278    0.217
        83 -13.4247    243.0938     60.8312   4.0331149204e+00   1.9259884491e+01     1.332596    0.6846119  66.93  0.001246325    2.407    0.585
        84 -12.0265    245.8546     52.1951   1.8871455269e+00   1.9854533050e+01    0.6589919    0.2034413 -42.35  0.002952627    2.344    0.573
        85 -14.1466    205.2872     79.4306   1.2572442200e+01   2.3876473871e+01     1.278321    0.7430078 -49.62  0.004429987    1.647    0.393
        86 -11.3534     63.4316    108.0863   5.5145677167e+01   4.7186530621e+01    0.2724016     0.214684  45.77 0.0003473217    1.304    0.233
        87 -13.7755    206.1038     68.5890   9.7540225679e+00   2.5320477126e+01    0.9932949    0.6003801  58.53  0.005145703    1.879    0.468
        88 -14.0216    218.3707     70.4586   8.7557482985e+00   2.2588648281e+01     1.292114    0.6421184  48.94  0.005112707    2.483    0.597
        89 -12.1164    160.8052    105.1048   2.6681174795e+01   2.8794793064e+01    0.3050407    0.2549646 -53.57 0.0002910397    1.208    0.172
        90 -10.5227    160.8854    100.1459   2.5364715085e+01   2.9717504086e+01    0.3051295    0.2109184 -31.90 0.0009273759    1.440    0.305
        91 -10.2936     86.1895    107.1876   4.7067178529e+01   4.3636053376e+01    0.2183269    0.1831699  78.55 0.0007245051    1.339    0.253
        92 -10.6268    210.4054    105.2029   1.8049104831e+01   1.8881888182e+01    0.3011922    0.2666039  85.13   0.00135522    1.418    0.295
        93 -11.2753    144.4077    103.2197   2.9752044764e+01   3.2668873372e+01    0.3771689    0.3229044  15.35  0.001379949    1.354    0.261
        94 -11.9688    238.3532     51.2764   2.2956343501e+00   2.1332880325e+01    0.3935175    0.2178876 -53.01  0.001882019    1.625    0.385
        95 -12.6909    230.9370     46.6364   1.8524929410e+00   2.3313033067e+01    0.6726365    0.4087729  57.84  0.003151229    1.994    0.499
        96 -11.8846    213.2658     89.7186   1.4006003497e+01   2.0746723445e+01    0.2920483    0.2454371  57.43 0.0006220018    1.404    0.288
        97 -11.1269    112.9484     75.5017   2.9496629867e+01   4.5352116223e+01    0.3320141    0.2494154 -27.02 0.0007128558    1.494    0.331
        98 -11.9544    114.8757     86.3823   3.2401595787e+01   4.2655579412e+01    0.4245302    0.3482665  14.66 0.0004538229    1.513    0.339
        99 -12.6136    115.0911     80.8291   3.0616260854e+01   4.3774105627e+01    0.8718298    0.5883405 -14.06  0.003480648    2.298    0.565
       100 -10.3279    248.0181     87.4969   9.3931352090e+00   1.4891003410e+01    0.1643719    0.1363162 -35.70 -0.0001282288    1.068    0.064
       101 -11.9096    249.0720     83.1708   8.3556636672e+00   1.5298564976e+01    0.3749987    0.2361711 -66.19            0    2.110    0.526
       102 -11.7977    236.6638     86.3770   1.0372999058e+01   1.6965619953e+01    0.4259377    0.2968842  86.41  0.002010389    2.064    0.516
       103 -11.7688    224.0907     87.4792   1.2094016834e+01   1.9054792160e+01    0.3349093     0.215799  27.31  0.001707588    2.317    0.568
       104 -11.6041    105.8161     86.9862   3.5201246781e+01   4.4497030651e+01    0.3485229     0.314134 -76.14  0.001166554    1.173    0.147
       105 -10.0727     15.9508    106.5235   7.3003829709e+01   5.2971222763e+01    0.1917327    0.1410439  15.08 0.0009241354    1.570    0.363
       106 -11.2119    202.0105     85.2181   1.4461847424e+01   2.3647301846e+01    0.2563407    0.1711804 -37.19 0.0007349367    1.289    0.224
       107 -10.5171    156.2428     86.0076   2.2432994608e+01   3.3372898016e+01    0.3587049    0.2200747  68.37  0.001190934    2.077    0.519
       108 -11.6000    162.2340     83.7274   2.0615179408e+01   3.2432438394e+01    0.4784156    0.4046332  57.87  0.001875013    1.264    0.209
       109 -12.1320    168.9059     80.6452   1.8522812052e+01   3.1469682758e+01    0.4283651    0.3473527 -74.91 0.0008054483    1.390    0.281
       110 -11.8010    168.2452     75.9129   1.7312571706e+01   3.2423521633e+01    0.6374619    0.4099841 -83.53  0.002142518    2.352    0.575
       111 -11.6323    147.9786     84.5249   2.3724483287e+01   3.5526145615e+01    0.4470439    0.4033341  74.09  0.001314169    1.178    0.151
       112 -12.0862    147.3595     79.3367   2.2330500432e+01   3.6631919206e+01    0.3699458    0.2868141 -49.44 0.0001928725    1.245    0.197
       113 -13.1513     61.3892     43.7083   3.5256189835e+01   6.2746246728e+01    0.7195945    0.5471157 -82.16 0.0005653275    1.986    0.497
       114 -10.0428     80.2084     84.4883   4.2832200961e+01   5.0261228326e+01    0.2861488    0.2085064 -50.64 0.0008153319    1.327    0.246
       115 -13.6403    218.7359     53.8757   4.6976776551e+00   2.4786204011e+01     1.157812     0.875731 -62.60  0.005549589    1.279    0.218
       116 -11.8688    215.1691     82.9837   1.2150334913e+01   2.1393833422e+01    0.3032902    0.1930529 -64.63  0.001526234    1.988    0.497
       117 -10.7855     17.8484     82.7135   6.8625298551e+01   5.9215885735e+01    0.3992361    0.1776814 -21.80  0.001390088    3.728    0.732
       118  -9.7682    238.0262     80.8006   8.9813657787e+00   1.7500891026e+01    0.1636959    0.1343529 -38.70            0    1.035    0.034
       119 -11.8949    230.2457     78.5975   9.3300550514e+00   1.9198071905e+01    0.3118956    0.2754656 -63.47  0.001829041    1.217    0.178
       120 -12.3564     74.7495     74.6624   4.1720949643e+01   5.3589079779e+01    0.9995389    0.6663778  53.71  0.004470774    1.693    0.409
       121 -11.2438     66.6512     70.5494   4.3513692171e+01   5.6025160390e+01    0.5034105    0.2246983  38.35  0.001803312    2.327    0.570
       122 -11.7936     86.7132     76.4481   3.7982855526e+01   5.0839022308e+01    0.4949855    0.3688043 -20.23 0.0002149153    1.702    0.413
       123 -12.2474     82.8869     71.8113   3.7763472251e+01   5.2644898995e+01    0.5249182    0.4079769  46.08 0.0009515886    1.322    0.244
       124  -9.8748    155.5573     76.8133   1.9919408018e+01   3.5184183985e+01     0.241342    0.1773035  64.15  0.001100728    1.474    0.322
       125 -11.7877    249.8885     73.9329   6.2855055500e+00   1.6383696643e+01    0.3620336    0.2285141 -33.27  0.002208729    1.249    0.199
       126 -10.3395    250.0000     68.5110   5.1027569896e+00   1.7068651128e+01    0.2820775    0.1317161 -29.64  0.001448138    1.810    0.447
       127 -11.0287    240.8867     72.7944   6.9027420496e+00   1.8084061707e+01    0.3529322    0.2325767  60.66  0.002139745    1.879    0.468
       128 -10.5120    239.0110     68.1963   6.0577968808e+00   1.9029631144e+01    0.3013907    0.1959381 -66.74  0.001028913    1.798    0.444
       129 -10.4505    136.4633     62.0363   1.9245255871e+01   4.2306092328e+01    0.2704962    0.2256468  58.70 0.0004137696    1.225    0.184
       130 -11.4598    136.9954     57.5620   1.7651515659e+01   4.2930881140e+01    0.5431845      0.29773 -46.69  0.001410364    1.812    0.448
       131 -12.1203    137.7043     71.2597   2.1946309339e+01   4.0377250482e+01    0.8192399    0.4556747  58.95  0.002369369    1.915    0.478
       132 -11.3323    143.9056     68.0773   1.9614176913e+01   3.9464914672e+01    0.3927668    0.3769351 -34.01 0.0009079613    1.078    0.072
       133 -10.9814    149.5704     66.7181   1.8050541159e+01   3.8344289913e+01    0.7854617    0.4235054 -63.67  0.002844635    2.817    0.645
       134 -11.1321    144.0683     60.3533   1.7127236320e+01   4.0740121489e+01    0.7474638     0.480237  23.77  0.002852312    2.510    0.602
       135 -11.4643     90.5986     34.2656   2.0240167694e+01   5.8015765425e+01    0.6261274    0.3153719  47.62   0.00185164    1.953    0.488
       136 -10.8907    127.0945     58.9588   2.0299538543e+01   4.5117397818e+01     0.582267    0.3008536  34.85  0.002050118    2.947    0.661
       137 -12.0781    173.6315     56.9716   1.1012457826e+01   3.4192503444e+01     0.356093    0.2921653  73.92 0.0005011318    1.285    0.222
       138 -11.2626    160.5188     51.0509   1.1257879783e+01   3.8193854793e+01    0.4198425    0.3534233  -1.94  0.001680708    1.459    0.315
       139 -10.3713    156.7971     54.5144   1.2942057770e+01   3.8574779845e+01     0.437907    0.2250134  58.46  0.001239848    1.983    0.496
       140 -11.5064    144.2457     53.5132   1.4870325033e+01   4.1800879072e+01    0.7774255     0.413626  28.60  0.002531002    3.915    0.745
       141 -11.1100    142.4619     46.4243   1.2846607733e+01   4.3326897267e+01    0.4057707     0.265883  35.96  0.001820968    1.946    0.486
       142 -11.2729    155.0225     42.7750   9.5231324919e+00   4.0730180552e+01    0.3616818    0.3404163  40.59  0.001392994    1.205    0.170
       143 -12.1079    150.6047     41.7616   9.8968295566e+00   4.1967674699e+01    0.5202953    0.4967054 -50.69   0.00129752    1.073    0.068
       144 -10.8526    146.4588     39.5600   9.8448469956e+00   4.3309307777e+01    0.4156517     0.255466 -63.50  0.001854488    1.860    0.462
       145 -11.3975    123.1309     53.5759   1.9337383455e+01   4.7003113742e+01    0.3314348    0.2563273  71.13  0.000488875    1.364    0.267
       146 -11.8454    172.2581     44.3172   7.4999697409e+00   3.6328974363e+01    0.3988704    0.3231081 -11.12   0.00120731    1.471    0.320
       147 -10.8448    168.0392     51.5700   1.0256299917e+01   3.6309555153e+01    0.3919643    0.2216637  50.86  0.001658979    1.950    0.487
       148 -11.0609    130.5253     51.7268   1.7030494471e+01   4.5480014317e+01    0.3445682    0.2589563  75.86  0.001679077    1.433    0.302
       149 -13.6077    120.5599     97.6429   3.4153227159e+01   3.8992963787e+01     1.078933    0.5777159 -52.53  0.004226452    1.960    0.490
       150 -10.5298     34.0960     49.7859   5.1423879426e+01   6.5860409238e+01    0.2239559    0.1871411 -53.85 0.0006656235    1.152    0.132
       151 -12.1078    248.4710     43.2360   3.5972169710e+02   2.0473009104e+01    0.6429135    0.2193558 -39.67 0.0007049728    2.047    0.511
       152 -12.7856    201.4763     61.9314   8.6249410272e+00   2.7248856899e+01    0.6930668    0.5633479  42.44  0.002459425    1.501    0.334
       153 -10.6862    133.1770     46.4487   1.4634455221e+01   4.5645007372e+01    0.3852212    0.2774154 -64.62  0.001842328    1.534    0.348
       154 -11.6706    133.8593     40.8295   1.2519244407e+01   4.6303863521e+01    0.5558081    0.3931235 -53.48  0.002717714    1.435    0.303
       155 -13.6016    195.8863     82.9612   1.4776739906e+01   2.5252770052e+01     1.091286    0.6015694 -23.09  0.002318589    2.097    0.523
       156 -11.1700    162.9485     56.8756   1.2643923014e+01   3.6731681457e+01    0.4360976    0.3588829 -80.45  0.001637976    1.270    0.213
       157 -11.9374     96.5368     42.5280   2.2034732203e+01   5.5298943973e+01    0.6143099     0.411455  67.64  0.002816514    1.679    0.404
       158  -9.7364    121.5101     45.4691   1.6766331161e+01   4.8713556841e+01    0.2412256    0.1452097 -33.46 0.0006582115    1.669    0.401
       159 -10.3904    125.7281     45.3468   1.5791365258e+01   4.7678450438e+01    0.3967474    0.1879679  55.61  0.001457391    2.056    0.514
       160 -12.8048     95.1853     57.6827   2.8478791909e+01   5.2919710149e+01      2.24518     1.033925  35.00  0.007459523    3.168    0.684
       161 -10.9126    131.8406     33.1509   1.0134226485e+01   4.7874997719e+01    0.3907339    0.2078515 -42.76  0.001221137    1.831    0.454
       162 -11.6784    141.7350     96.1102   2.8421994452e+01   3.4681987499e+01    0.5358809    0.3494761  47.57  0.001433581    1.602    0.376
       163 -10.3173    121.8549     33.0438   1.2008614638e+01   5.0432562424e+01    0.2079463    0.1984581  86.21 0.0004893191    1.012    0.012
       164 -10.1586    111.6708     32.8432   1.4120232351e+01   5.3038852676e+01    0.2567661      0.18931  52.28 0.0008948709    1.336    0.251
       165 -11.5730     83.0508     29.5229   2.0395667827e+01   6.0503511002e+01     0.731708    0.2357698  48.45  0.002504324    2.954    0.662
       166 -10.0052    241.3077     29.7767   3.5723588020e+02   2.3343933506e+01    0.2217723    0.1445513 -39.16 0.0008433962    1.199    0.166
       167  -9.7407    237.6684     30.6847   3.5767766273e+02   2.3926740663e+01    0.1661704    0.1177468  73.70 0.0006079688    1.638    0.390
       168 -11.7934    127.9381     77.9097   2.6333871771e+01   4.1420807681e+01    0.9506912    0.3864247 -33.65  0.003001255    2.858    0.650
       169 -10.4635    148.1851     25.0458   4.6897533532e+00   4.4726942087e+01    0.2377323      0.21823  56.84 0.0007432417    1.177    0.151
       170 -11.2619    162.9833     21.0223   1.5360826534e+00   4.1485643194e+01    0.3093623    0.2431815  50.54 0.0003522306    1.436    0.304
       171  -9.9969    159.4573     18.4699   1.1227966925e+00   4.2638968916e+01    0.2587873    0.1616853 -38.22 0.0006007574    1.488    0.328
       172 -11.8081    158.8918     26.9193   3.8918207121e+00   4.1820348802e+01    0.4140753    0.2558781 -11.44  0.001774556    2.105    0.525
       173 -11.2763    153.2777     25.2946   4.0874764860e+00   4.3414401060e+01    0.4959847    0.2960209 -83.46  0.002280643    1.892    0.471
       174 -10.4645    103.6167     28.9024   1.4379271053e+01   5.5596117863e+01    0.4337221    0.3263667 -36.82  0.002232468    1.349    0.259
       175 -11.5683     97.6422     22.3325   1.2956189516e+01   5.7932959272e+01    0.2660471    0.2554858 -30.57 0.0005327901    1.085    0.078
       176 -10.9986    101.9986     20.0068   1.0889857929e+01   5.7119342742e+01    0.3680092    0.3077798  -6.62  0.001226764    1.336    0.252
       177  -9.2609    138.5826     29.7741   7.7648694729e+00   4.6591995411e+01    0.1473226   0.09837849  44.23 0.0006871675    1.687    0.407
       178  -9.2357    114.5163     28.3162   1.1667533625e+01   5.2923166055e+01    0.1437853    0.1257508  54.21 -0.0001335016    1.135    0.119
       179 -10.6847    234.7714     24.2071   3.5639277157e+02   2.5208401949e+01    0.2654425      0.24432 -26.42  0.001933415    1.307    0.235
       180 -10.4733    130.5783     19.3150   5.2345763651e+00   4.9878182281e+01      0.34872    0.1990988  89.01 0.0003630183    1.995    0.499
       181  -9.1699    139.7362     17.2994   3.1635493909e+00   4.7746280165e+01     0.141596     0.131538  56.09 0.0002856102    1.157    0.136
       182 -11.1850    135.9171     24.0194   6.1311219078e+00   4.7971922181e+01    0.4920031    0.4151232  56.75  0.002755441    1.214    0.176
       183 -10.3559    136.3524     19.7700   4.5284113699e+00   4.8344596980e+01     0.240499    0.1999213  57.40 0.0008887476    1.228    0.185
       184 -11.4865    176.1250     23.7878   9.6987925815e-01   3.7980607880e+01    0.2808859    0.2322792 -19.61 0.0003286175    1.355    0.262
       185 -10.5242    180.6736     21.2964   3.5979796679e+02   3.7180687727e+01     0.437907    0.1952056 -85.88  0.001749827    2.855    0.650
       186 -12.5472    122.4341     86.7325   3.0460025586e+01   4.0900069194e+01    0.7160484    0.5660204 -28.60  0.003445223    1.370    0.270
       187 -10.8390    103.9668     75.6758   3.2155543750e+01   4.7333824398e+01    0.2556982    0.2201413 -43.52 0.0004650039    1.139    0.122
       188 -13.0121    190.0885     44.1870   5.2492057687e+00   3.2200475802e+01     1.116506    0.8087645  64.75  0.002796139    1.493    0.330
       189 -10.9459    113.0423     22.8510   9.7446873531e+00   5.3977619273e+01     0.410788    0.2635882  50.20   0.00197662    1.547    0.354
       190 -11.3411    202.1772     20.5465   3.5775741142e+02   3.2353629888e+01    0.3283611    0.2109254 -34.28  0.001745815    1.390    0.280
       191 -13.5120    129.1398     96.3671   3.1546992587e+01   3.7402127828e+01     1.039155    0.6281461  57.88  0.004326614    1.900    0.474
       192 -10.5113    174.9581     18.7174   3.5959117423e+02   3.8824106522e+01    0.2210719    0.1587908 -45.05 0.0003075427    1.244    0.196
       193  -9.0562    170.3544     19.3025   2.2063245980e-01   3.9871106784e+01    0.1341835   0.09888387  39.65 0.0007039185    1.707    0.414
       194 -13.3949    134.8829     84.2380   2.6593462733e+01   3.8580252732e+01     1.427737      1.04455   9.30  0.006193792    2.048    0.512
       195 -12.9400    104.7198     65.7009   2.8516159976e+01   4.9191220572e+01    0.7735679    0.5189272  37.42 0.0005645359    1.663    0.399
       196 -13.4455     98.5402     76.9918   3.4260230079e+01   4.8239908394e+01      1.52848    0.8989972 -73.33  0.005030401    3.408    0.707
       197 -12.4157     96.3472     70.4686   3.2751310226e+01   5.0100035010e+01    0.6240776    0.4961283 -45.26  0.002254528    1.233    0.189
       198 -11.5865    123.9611     69.3455   2.4559278596e+01   4.3995437410e+01    0.4727114     0.321829 -59.54  0.001089177    1.671    0.402
       199 -10.0954    194.2328     17.9614   3.5769353625e+02   3.4409102701e+01    0.2092761    0.1375898 -53.61 0.0009541886    1.307    0.235
       200  -9.7109     14.3313     18.2208   4.9971562247e+01   7.4932207904e+01    0.1637671    0.1127099 -57.82 0.0004191598    1.589    0.371
       201 -13.6278    117.5698     61.6478   2.3554981848e+01   4.6943016842e+01    0.9865703    0.7056339 -35.51 0.0009268316    1.406    0.289
       202 -11.6563     75.0893    102.0394   4.9543571241e+01   4.6871719784e+01    0.4460606    0.2592377 -82.52  0.001556427    2.930    0.659
       203 -11.5275    169.0895     98.2170   2.3240132698e+01   2.8317877030e+01    0.6565379    0.4460607  -8.96  0.002879892    2.130    0.530
       204 -10.5781     46.9500    101.9949   6.0024153860e+01   5.1080166246e+01    0.2212576    0.2043162 -71.89  0.001224909    1.007    0.007
       205 -11.3278    216.0263     99.7884   1.5993642570e+01   1.8691520268e+01    0.3159316    0.1687484 -34.66  0.001558002    1.575    0.365
       206 -12.0001    152.0959     98.4041   2.6738659571e+01   3.1954382545e+01    0.6487459    0.4010354 -60.03  0.002710606    2.025    0.506
       207 -11.6080     83.9742     98.0088   4.5408153906e+01   4.6299337443e+01    0.6352392    0.4078379 -36.28   0.00269804    1.783    0.439
       208 -10.0553     87.7956     97.5962   4.4008868790e+01   4.5686607871e+01    0.3191847    0.2675034  32.95 0.0009849919    1.265    0.209
       209 -10.4303     94.2330     16.0631   1.0898182327e+01   5.9519613555e+01    0.2049396    0.1771368  29.72 0.0006574587    1.211    0.174
       210 -12.6218    199.5091     96.6008   1.7633331785e+01   2.2335363233e+01     0.405894    0.2675743 -29.78  0.001456048    1.405    0.288
       211  -9.5001    102.2327     15.0105   8.6158349385e+00   5.7619655281e+01    0.1695645    0.1175498 -24.22 0.0006330517    1.531    0.347
       212 -12.9973    102.3804     95.7265   3.8826410738e+01   4.3249776843e+01    0.6773145    0.5499199  55.80   0.00188738    1.298    0.230
       213 -11.7622     95.3763     90.1322   3.9386921576e+01   4.5965988525e+01     0.473144    0.4223068 -86.70  0.001296894    1.218    0.179
       214 -11.8249     56.8032     99.1424   5.5572585015e+01   5.0497207587e+01    0.3671378    0.1813219  40.46  0.001391336    2.075    0.518
       215 -13.1242     55.4499     72.0016   4.8695862942e+01   5.7562526079e+01    0.7440481    0.7099571  35.26  0.000851581    1.103    0.093
       216 -11.2178     11.6861     98.3618   7.3693647263e+01   5.5470477252e+01    0.2606001    0.2124568 -59.44 0.0006439846    1.156    0.135
       217  -8.9346     13.9519     12.9284   4.7113042233e+01   7.5988184903e+01    0.1722546    0.1545307  86.35  0.001091555    1.633    0.388
       218 -10.5616    250.3241     97.4416   1.1263721082e+01   1.3170155442e+01     0.239161    0.1383314 -39.97 0.0007892146    1.378    0.274
       219 -10.3077    250.5172     93.5409   1.0418810022e+01   1.3668490188e+01    0.2305315   0.09256342 -35.25 0.0004743799    1.879    0.468
       220 -12.5067    111.8696     94.8709   3.5774713530e+01   4.1460786756e+01    0.5075359    0.3142999  59.98  0.001717023    1.964    0.491
       221 -12.2626    185.3071     95.6775   1.9678054419e+01   2.5355966070e+01    0.7060451    0.3940539  56.30    0.0026488    2.041    0.510
       222  -9.5242    244.5816     96.7633   1.1755095817e+01   1.4185797027e+01    0.1714869   0.09198542 -39.41 0.0005410413    1.479    0.324
       223 -11.7610     70.1911     95.3239   4.9570668161e+01   4.9391562570e+01    0.5734463    0.2812795  56.05  0.001959946    2.976    0.664
       224 -10.1357     17.1424     96.8572   7.1223065888e+01   5.5486529282e+01    0.1906992    0.1494844 -45.60            0    1.300    0.231
       225  -9.8115    165.2932     96.5514   2.3532169739e+01   2.9436737121e+01    0.1867544    0.1406243  37.02 0.0003169106    1.501    0.334
       226 -15.2751     64.3593     84.7465   4.8873378443e+01   5.3005030079e+01     3.292736     1.415406  47.87   0.01160184    2.755    0.637
       227 -14.2996     49.9493     84.9415   5.4811951384e+01   5.5146965387e+01     2.638443    0.5176934  34.88  0.005599823    4.518    0.779
       228 -10.8910     36.3409    249.3191   7.8070284794e+01   1.7947805811e+01    0.1550277    0.1293186 -18.62  0.001131003    1.759    0.432
       229 -10.7705    181.0395    244.0723   4.8837470983e+01   2.0289081879e+00    0.1749465    0.1331678  12.36  0.001219868    1.029    0.028
       230  -9.6016    218.6022    239.7806   4.1811471866e+01  -1.6103225864e+00     0.127063   0.09010936 -31.33 0.0006697483    1.611    0.379
       231 -13.9997      8.5962     67.2715   7.0321735194e+01   6.3899330557e+01     1.492296     1.079696 -50.21  0.005559275    1.245    0.197
       232 -10.2120     15.9266    238.6535   8.1767154862e+01   2.1805641596e+01    0.1677262    0.1407187 -87.39 0.0005517914    1.367    0.268
       233  -9.8041    236.7256    145.9955   2.2962679298e+01   8.4139254102e+00    0.1704759    0.1274201 -23.49 0.0003983914    1.064    0.060
       234 -10.1375    221.7402    121.5611   2.0063743533e+01   1.4346313148e+01    0.2244202    0.1241004  43.28  0.001156136    2.110    0.526
       235  -9.9037    228.6821    118.8604   1.8500039004e+01   1.3607460933e+01    0.2637292    0.1341487  44.51  0.001028733    2.332    0.571
       236  -9.8007     73.1320    119.0953   5.4168156470e+01   4.2834497571e+01     0.202004    0.1701362  74.02            0    1.259    0.206
