#   1 NUMBER                 Running object number                                     
#   2 MAG_AUTO               Kron-like elliptical aperture magnitude                    [mag]
#   3 X_IMAGE                Object position along x                                    [pixel]
#   4 Y_IMAGE                Object position along y                                    [pixel]
#   5 X_WORLD                Barycenter position along world x axis                     [deg]
#   6 Y_WORLD                Barycenter position along world y axis                     [deg]
#   7 A_WORLD                Profile RMS along major axis (world units)                 [deg]
#   8 B_WORLD                Profile RMS along minor axis (world units)                 [deg]
#   9 THETA_WORLD            Position angle (CCW/world-x)                               [deg]
#  10 FWHM_WORLD             FWHM assuming a gaussian core                              [deg]
#  11 ELONGATION             A_IMAGE/B_IMAGE                                           
#  12 ELLIPTICITY            1 - B_IMAGE/A_IMAGE                                       
         1 -12.1485     40.3414     30.3488   9.1250945161e+01   6.5899671530e+01    0.6611047    0.3791946  -0.94  0.001336324    2.401    0.583
         2 -10.2383     97.8267     26.3093   6.8439885897e+01   5.7036601778e+01    0.2885194    0.1896575 -11.56 0.0007534315    1.641    0.391
         3 -10.9612     14.3432     21.3334   9.9742462253e+01   6.9962545759e+01    0.2679085    0.2445146  56.50  0.002006496    1.722    0.419
         4 -11.7173     76.1587     20.9388   7.2996619086e+01   6.1995615299e+01    0.3980483    0.3862411   2.49  0.001940381    1.271    0.213
         5 -11.1284     41.9621     19.4392   8.5789099654e+01   6.7496349144e+01    0.4076362    0.2369968   0.71  0.002027414    2.194    0.544
         6 -10.4664     41.0458      6.8681   8.0034120633e+01   6.9417072656e+01    0.2502699    0.1546631 -18.43  0.001504337    1.424    0.298
         7 -10.1493     37.0039      6.4741   8.1685613879e+01   6.9999507246e+01    0.2787993    0.1833629 -43.31  0.001399895    1.868    0.465
         8 -11.8626     34.6763     12.9233   8.6033530278e+01   6.9372803013e+01    0.5173721     0.258746 -46.33  0.002690662    2.284    0.562
         9  -9.9270     22.6803      8.7298   8.9875487971e+01   7.1308175585e+01    0.5268496    0.2271137 -29.88  0.002733153    2.105    0.525
        10 -11.6441     30.3316      7.2685   8.5293027096e+01   7.0700119920e+01     0.348561    0.2634654   9.35  0.001697332    1.244    0.196
        11 -11.0024     20.4574      2.3293   8.7750001214e+01   7.2468643351e+01     0.262518    0.1683933   3.88 0.0006866576    1.505    0.335
        12 -10.0838     16.5271      3.5416   9.0497890647e+01   7.2675338113e+01    0.1780212     0.108696 -28.51 0.0006091197    1.268    0.211
        13 -10.1288     26.6234     15.9876   9.1358352491e+01   6.9782318787e+01    0.2519976    0.1460756 -43.21  0.001508012    1.560    0.359
        14 -10.7355     88.7787      7.6977   6.2966873888e+01   6.1106871188e+01    0.5270744    0.2595357  -4.24  0.002211911    2.688    0.628
        15 -11.3483     89.7336     13.8830   6.5475455610e+01   6.0244393813e+01     0.340518    0.2557593 -40.55 0.0009175016    1.569    0.362
        16 -10.2007     93.1661      8.6546   6.2157035593e+01   6.0095684296e+01    0.3909276    0.2186901  -6.42  0.001868712    2.037    0.509
        17 -10.8014    190.9168     13.7194   4.5902466870e+01   3.5523057319e+01    0.2687105    0.2074836  62.97 0.0008639904    1.236    0.191
        18 -10.5165     68.5319     13.5003   7.2238878770e+01   6.4314440417e+01    0.4352186    0.1915186  49.23  0.001990986    2.471    0.595
        19 -10.1526    126.0140     11.0229   5.5269715537e+01   5.2383504557e+01    0.1639948     0.147201  42.98            0    1.009    0.009
        20  -9.9025    104.9463     10.2520   5.9745142296e+01   5.7375462841e+01    0.1904638     0.152787  38.62 0.0003810253    1.116    0.104
        21  -9.5563     15.4021      8.7237   9.3683772203e+01   7.1986271547e+01    0.1486259   0.08062881 -33.82 0.0002922486    1.431    0.301
        22  -9.8428    156.1619      7.8213   4.8776856005e+01   4.5124324670e+01    0.1892049    0.1458548  44.01 0.0002278865    1.279    0.218
        23  -9.5870    210.5278      7.4997   4.2064025499e+01   3.1197642797e+01    0.1353087    0.1194967 -80.38 0.0001456583    1.009    0.009
        24  -9.4004    183.7738      7.4159   4.4925910738e+01   3.8019469098e+01    0.2033119    0.1106494  58.35 0.0006180811    1.693    0.409
        25 -10.7088    144.1885      6.7386   5.0313182276e+01   4.8281969961e+01    0.2755059    0.1605987  23.33  0.001093497    2.166    0.538
        26  -9.8766     65.1022      6.8743   7.0249602323e+01   6.5698428137e+01    0.1790717    0.1617845  -7.78 0.0006766997    1.231    0.188
        27 -11.8487     57.3890      3.0041   7.1162933317e+01   6.7435949385e+01    0.4015931    0.2652306  -1.46  0.002396242    1.423    0.297
        28 -10.1087      9.0588      5.8085   9.5742457529e+01   7.2963052740e+01    0.3625774    0.1948979  44.39  0.001881768    3.857    0.741
        29 -10.0168      2.0285      6.4736   1.0001142946e+02   7.3348392118e+01    0.1903699    0.1432869  -4.91 0.0008939778    1.316    0.240
        30  -9.5629      2.0449      3.3033   9.8536538536e+01   7.3861334383e+01    0.1996016    0.1131688 -14.72  0.001114818    1.681    0.405
        31  -9.8002    151.3091      6.6284   4.9122862594e+01   4.6480764526e+01    0.1466536   0.09838709 -61.15 6.240973e-05    1.769    0.435
        32 -10.2968    194.0000      4.9713   4.3065067489e+01   3.5632570611e+01    0.2089401   0.07754742 -24.25 0.0005070624    2.910    0.656
        33  -9.7243    107.7017      4.9244   5.6833035021e+01   5.7266596063e+01    0.1770863    0.1569623  15.32 0.0001491272    1.081    0.075
        34  -9.6590    104.4465      4.4962   5.7422388933e+01   5.8040703722e+01    0.2432399    0.1273137  63.74 0.0005329038    1.994    0.499
        35 -10.4086    101.9869      2.0109   5.6946049568e+01   5.8811333089e+01    0.4218543    0.1677369  55.49  0.001650906    2.173    0.540
        36  -9.4237    176.3269      2.3211   4.4301377054e+01   4.0428454860e+01    0.1965928    0.1861068 -24.10  0.001209412    1.187    0.158
        37 -10.1908    173.0335      2.7730   4.4841285732e+01   4.1237466147e+01    0.2653693    0.1734832  84.85 0.0008193854    1.509    0.337
        38 -10.4593    129.9923      3.1117   5.1482471174e+01   5.2144180204e+01    0.2058198    0.1859982  53.52 0.0004887983    1.033    0.032
        39  -9.9890    120.9459      4.0726   5.3602281637e+01   5.4251798588e+01    0.2029573    0.1769198  39.28 0.0004120133    1.029    0.028
        40 -11.2833     90.2637      2.4087   6.0133605966e+01   6.1309721559e+01    0.2473657    0.2204133  69.07 0.0004115563    1.374    0.272
        41 -11.0736     70.8585      5.8125   6.7698040755e+01   6.4789450553e+01    0.3009441    0.2472987  -2.55  0.001441697    1.094    0.086
        42 -11.2316     80.2797      1.7242   6.2681025062e+01   6.3407209417e+01    0.3057904    0.1605594  48.24 0.0009750545    1.727    0.421
        43 -10.4213      9.9777      1.7090   9.3186757566e+01   7.3521768389e+01    0.1616983    0.1209781 -17.54 0.0006734804    1.067    0.063
        44  -9.9271    187.1264      1.2795   4.2760537980e+01   3.7745456522e+01    0.1876721    0.1103307  83.61 0.0002611631    1.646    0.393
        45  -9.6726     67.1141      1.4965   6.6829823757e+01   6.5918351323e+01    0.1689384    0.1119248  43.83 0.0003355264    1.461    0.316
        46  -9.3411    153.9885      1.0000   4.6820562119e+01   4.6295885119e+01    0.2231192   0.07115333  68.76 0.0004643234    2.818    0.645
        47  -9.9550    248.6795    129.3205   6.7718686193e+01   4.5747720740e+00    0.1360256    0.1058678 -60.55 0.0003809158    1.669    0.401
        48 -11.6910     17.8725    248.9184   1.3011873325e+02   2.1792314384e+01    0.2974257    0.2009631  19.92   0.00193714    3.195    0.687
        49 -10.6114     12.3020    249.3447   1.3097864113e+02   2.2298432286e+01     0.176255    0.1429595 -64.38  0.001482108    1.924    0.480
        50 -12.7231      3.8526    231.9440   1.3156113916e+02   2.6145416486e+01    0.5657867    0.2267039  83.16 0.0007840666    2.081    0.519
        51 -12.8105      9.8175    228.3633   1.3046007037e+02   2.6207844235e+01    0.5350093    0.2482135 -85.79  0.003462227    1.790    0.441
        52 -12.1691      6.0904    241.4469   1.3159880107e+02   2.4264283568e+01    0.3794297    0.2310633  87.39  0.002972156    1.310    0.237
        53  -9.8375     28.6233    128.1904   1.1879760919e+02   4.5612271891e+01    0.1710399   0.09321921 -63.85 0.0002205883    1.503    0.334
        54  -9.5788     20.2903    125.0503   1.2058997270e+02   4.7064867822e+01    0.1741399    0.1217664 -77.81  0.001087613    1.129    0.114
        55 -11.5876     23.8606    121.1598   1.1915687307e+02   4.7677342909e+01    0.4489258    0.2372711  83.03  0.001244264    2.149    0.535
        56 -10.2728      7.8711    121.1597   1.2338956506e+02   4.8893059980e+01    0.1750578    0.1289312  84.28 0.0003973187    1.205    0.170
        57 -11.4260     17.2422    115.5842   1.2023834493e+02   4.9507960504e+01    0.3444088    0.1743446 -67.64  0.001139373    1.521    0.343
        58  -9.7253     72.2686    112.9867   1.0408942780e+02   4.4197110450e+01    0.1949824    0.1590691 -63.36  0.000252818    1.094    0.086
        59  -9.6399     17.7023    121.9944   1.2090508945e+02   4.7982103026e+01    0.1714313    0.1245175 -73.97 0.0003889745    1.082    0.075
        60 -10.9423     65.6358    110.7370   1.0555488797e+02   4.5649870386e+01    0.3045978    0.2234919 -89.92 0.0008019761    1.546    0.353
        61 -11.8326      4.2562    108.9609   1.2300790674e+02   5.1921036958e+01    0.3547804    0.2694924  -9.64   0.00216744    1.868    0.465
        62  -9.5017     35.5265    109.4910   1.1417086732e+02   4.9383026139e+01    0.1301197     0.105634 -66.95 9.227584e-05    1.037    0.035
        63 -10.3081     22.5297    109.5302   1.1793803770e+02   5.0509145188e+01    0.1254432   0.09921778 -73.43 6.403511e-05    1.004    0.004
        64 -11.2176     56.8780    108.0856   1.0760616293e+02   4.7402435243e+01    0.2693319    0.2007754  24.13   0.00117595    1.646    0.392
        65  -9.9780     89.4663    105.4907   9.7374943167e+01   4.3306835424e+01    0.1464749      0.13461 -57.03 0.0003587553    1.013    0.013
        66 -10.3490     52.4626    104.9837   1.0831250898e+02   4.8665501680e+01    0.2081205    0.1169256 -64.60  0.001013204    1.564    0.360
        67 -10.4430     19.0132    104.4968   1.1822793932e+02   5.1955099718e+01    0.1562429    0.1256278  19.89 0.0009792534    1.612    0.380
        68  -9.8372    186.9387    103.1924   7.2307092989e+01   2.2755883794e+01    0.2292944    0.2095517 -85.92 0.0005174325    1.202    0.168
        69 -10.9093      8.8021    103.1023   1.2100693073e+02   5.2982440648e+01    0.1773927    0.1333135  87.82 0.0005934124    1.243    0.196
        70 -11.4989     19.4297    100.1618   1.1745651522e+02   5.2931296469e+01     0.307431    0.1638224 -38.55  0.001602782    2.195    0.544
        71 -10.0311     62.4004     97.7333   1.0371210490e+02   4.9151168389e+01    0.2068784    0.1101308 -49.73 0.0007701771    1.664    0.399
        72  -9.4248     91.6293     96.8168   9.4537886929e+01   4.4941956695e+01    0.1992903    0.1319543 -60.07 0.0001416858    1.534    0.348
        73 -10.4700      3.3728     95.5503   1.2161303153e+02   5.5031736089e+01    0.2004215    0.1526037 -70.88 0.0002494275    1.016    0.016
        74 -11.7303     20.2252     93.1928   1.1609661338e+02   5.4485439777e+01    0.4336635    0.2300217 -39.44 0.0009259012    2.072    0.517
        75 -10.3564     24.5788     89.2548   1.1402090649e+02   5.5061455120e+01     0.293433    0.1829129 -81.67   0.00162785    1.628    0.386
        76  -9.6293    119.2898     94.3293   8.5909076412e+01   4.0219114727e+01    0.1546194    0.1218236  -9.07 0.0005233513    1.621    0.383
        77  -9.6715     78.9149     94.5396   9.7805958880e+01   4.7541611726e+01    0.1890494    0.1436811  34.35 0.0002797365    1.466    0.318
        78 -10.1025    124.9906     93.2148   8.4041798001e+01   3.9252204473e+01    0.2206051    0.2049892  88.39 0.0002600725    1.165    0.141
        79 -10.3012     44.0139     92.7710   1.0844342464e+02   5.2469478943e+01    0.2719795    0.1305316 -43.15  0.001210294    2.108    0.526
        80 -10.9729     57.3271     91.8733   1.0396308807e+02   5.1160524753e+01    0.2782889    0.2188898   3.25 0.0009128839    1.620    0.383
        81  -9.8333     29.4770     92.0601   1.1296482151e+02   5.4012461869e+01    0.1704237    0.1652212 -60.54  0.000608263    1.200    0.167
        82 -11.3451     10.8615     90.9389   1.1866906509e+02   5.5640815464e+01     0.312696    0.2197607 -51.79  0.001512731    1.279    0.218
        83 -10.3837     11.3974     85.1717   1.1758177061e+02   5.6920098588e+01    0.2491573    0.1417427 -77.17 0.0007372154    1.557    0.358
        84 -10.1563     77.1800     88.7850   9.6843633495e+01   4.9122531435e+01    0.2688728    0.2026294  20.62  0.001395223    1.593    0.372
        85 -10.3525     64.9049     88.4183   1.0067727685e+02   5.0976827334e+01    0.2584452    0.1754911 -49.79 0.0005002757    1.291    0.225
        86 -10.2799     18.3395     87.8365   1.1578457068e+02   5.5852663235e+01    0.3270918    0.1972967 -54.72  0.001624723    1.343    0.255
        87  -8.9404    250.6832     87.7071   5.7638568860e+01   1.0738119621e+01    0.1357585    0.1068602  10.21 0.0002405126    1.601    0.375
        88  -9.3564     88.6468     86.7991   9.2709629655e+01   4.7709173571e+01    0.2024354    0.1294232 -56.25 0.0007077307    1.558    0.358
        89  -9.6005    113.8327     85.7664   8.4935382518e+01   4.3184917244e+01    0.2191418    0.1943045 -11.39  0.001131573    1.223    0.183
        90 -12.0271     54.7315     83.9267   1.0289499118e+02   5.3302583457e+01     0.288673    0.2000719 -56.45 0.0006617538    1.248    0.199
        91  -9.8869     38.8402     85.7034   1.0862179032e+02   5.4626133402e+01    0.2867575    0.1470301 -85.14  0.001099171    3.475    0.712
        92 -10.7273      4.1167     82.6817   1.1954800724e+02   5.7900968854e+01    0.3541193     0.171319 -73.86  0.001393248    1.680    0.405
        93 -10.5772      5.7017     76.1720   1.1796446552e+02   5.9272507411e+01    0.4199467   0.09571099 -44.93  0.001575237    4.015    0.751
        94 -10.2203    124.7362     82.7337   8.1001197639e+01   4.1501297490e+01    0.3209177      0.21662  39.78  0.001287178    1.559    0.358
        95  -9.4612    250.3211     81.2840   5.6143677889e+01   1.1806681620e+01    0.1341065    0.1070922  13.22 0.0005099304    1.592    0.372
        96  -9.9466     89.2448     80.5344   9.0706379760e+01   4.8978947169e+01    0.2777717    0.1842848 -64.43 0.0007489863    1.835    0.455
        97 -11.1648     64.4196     79.0092   9.8351814388e+01   5.3165060785e+01     0.433792    0.2327785 -56.32  0.001257921    1.730    0.422
        98  -9.7617     42.6920     81.4707   1.0636516510e+02   5.5206814114e+01    0.1536109     0.123215 -10.33 0.0009190073    1.493    0.330
        99 -10.4689     10.1902     79.1534   1.1696006904e+02   5.8351754028e+01    0.2560574    0.1624667 -51.24 0.0009672773    1.313    0.238
       100 -11.1722     27.4678     77.4236   1.1069869246e+02   5.7526810519e+01    0.3668004    0.2162004 -11.53 0.0006062698    2.479    0.597
       101  -9.9331    176.8321     76.8674   6.6968664120e+01   3.0112010801e+01    0.2443244    0.2201975  17.27  0.001232954    1.225    0.184
       102 -11.0235     55.6351     75.5994   1.0041743026e+02   5.5061139315e+01    0.3636494    0.2876349  13.15  0.001302499    1.489    0.328
       103 -10.6466     20.1233     73.8277   1.1251096211e+02   5.8895185782e+01    0.3747996    0.1987796 -38.29  0.001034897    1.894    0.472
       104 -10.6173     14.9288     75.4550   1.1465931693e+02   5.8886003525e+01    0.2318155    0.2029084  78.00  0.001046227    1.337    0.252
       105 -10.3913     70.1827     75.5642   9.5433488523e+01   5.3108803223e+01    0.1806245    0.1337909  13.00 0.0009368167    1.653    0.395
       106  -9.9878     37.1762     75.3776   1.0682839413e+02   5.7127545249e+01    0.2125662    0.2045913 -89.65 0.0008119947    1.217    0.179
       107 -10.4003     35.9159     71.9304   1.0643577470e+02   5.8013968600e+01    0.4385926    0.2428979 -15.81   0.00187207    2.840    0.648
       108  -9.2324    136.5343     74.4829   7.5343168063e+01   4.0458557277e+01    0.1540179     0.150608 -14.80 4.521573e-05    1.009    0.009
       109  -9.7860     92.3306     72.6513   8.7310959475e+01   5.0100160587e+01    0.3086689    0.1742143 -60.63 0.0005069316    2.411    0.585
       110  -9.6469     91.2144     69.4471   8.6634106935e+01   5.0959810244e+01    0.2028088    0.1450433  40.99 0.0004475368    1.494    0.331
       111  -9.3473     81.4315     73.2453   9.0998235311e+01   5.1859703486e+01    0.1982031    0.1296416 -55.98 0.0009402495    1.586    0.369
       112  -9.6825    216.8338     72.1901   5.8604954998e+01   2.0918737505e+01    0.1937873    0.1722167  -0.81  0.000431174    1.285    0.222
       113 -10.9145    106.2025     72.0763   8.2888814657e+01   4.7564553155e+01    0.3347485    0.2084201  47.60  0.001106156    1.708    0.414
       114  -9.3102     29.4554     70.9462   1.0852832506e+02   5.8808178528e+01    0.1638707    0.1007595 -86.67 0.0004863204    2.306    0.566
       115  -9.9980     56.6251     68.8904   9.8173677847e+01   5.6400885485e+01    0.3772749    0.1638923 -33.89 0.0005991557    3.041    0.671
       116 -10.7856     46.3390     69.2861   1.0198083054e+02   5.7532252329e+01    0.2622361    0.2067249  -3.65  0.000759606    1.478    0.323
       117 -10.3843     10.4276     67.8312   1.1475464965e+02   6.0852613126e+01    0.3350247    0.1446217 -70.88  0.001345698    2.083    0.520
       118 -11.8747      7.3279     63.9857   1.1511393244e+02   6.1867139188e+01    0.2871617    0.2062651 -58.28  0.001942095    1.049    0.047
       119 -10.1299     79.9076     68.8880   9.0132100743e+01   5.3022357562e+01    0.2229589    0.1816449 -19.68 0.0006492214    1.269    0.212
       120 -11.1551      9.8905     60.1424   1.1333328976e+02   6.2554231091e+01    0.1786308    0.1552838 -42.52 0.0003600562    1.170    0.145
       121 -11.1006     14.9277     64.4305   1.1237770819e+02   6.1319337237e+01    0.3709501    0.2748367 -73.06  0.001121511    1.302    0.232
       122 -13.8692     20.0254     57.5641   1.0878937761e+02   6.2449450570e+01    0.4049703    0.2912716 -62.56   0.00113143    1.239    0.193
       123  -9.8610      1.3657     66.7188   1.1781827483e+02   6.1574804037e+01     0.167634   0.07699939 -60.06 0.0006326311    1.541    0.351
       124  -9.9527    133.1861     65.8043   7.3389835948e+01   4.2863290437e+01    0.2205864    0.1812902  15.45 0.0005626888    1.383    0.277
       125 -10.4711     34.6095     65.0344   1.0514738775e+02   5.9645580273e+01    0.2657614     0.203273 -30.92 0.0008539673    1.276    0.216
       126 -10.6497     39.4156     61.1614   1.0226416095e+02   6.0009478605e+01    0.4071657    0.2125487 -50.36  0.002099752    1.551    0.355
       127  -9.0707     75.9601     64.7562   9.0126232896e+01   5.4508805435e+01    0.1597582    0.1189384  32.34 0.0002355793    1.461    0.316
       128 -10.6680     63.0404     62.6247   9.3956522909e+01   5.6870673628e+01    0.4249509      0.27163 -22.53  0.002085858    1.860    0.462
       129  -8.9187    150.2936     62.2627   6.8124667165e+01   3.9348157377e+01    0.1516569    0.1183075  22.23            0    1.503    0.335
       130 -10.0474    100.8215     60.9594   8.0782765461e+01   5.0804853973e+01    0.2757625    0.2012064 -57.50  0.001328632    1.641    0.390
       131  -9.4396    192.8054     58.6256   5.8696127401e+01   2.9083910164e+01     0.206668    0.1436384  76.65 0.0003809698    1.601    0.375
       132 -11.9606    114.8340     54.0441   7.4247825576e+01   4.9124892930e+01    0.4588323    0.3779337 -80.66 0.0009866398    1.633    0.388
       133 -12.0226     88.9148     53.1206   8.1754771530e+01   5.4538674952e+01    0.5188681    0.4219576  48.96  0.001724567    1.392    0.282
       134  -9.0737     48.3278     58.2698   9.8006730050e+01   5.9646864994e+01    0.1307171   0.08872105 -23.39 0.0002609688    1.579    0.367
       135 -10.8601     83.7272     56.7664   8.4777118376e+01   5.4789808005e+01    0.2730462    0.2394298 -39.06 0.0009837028    1.120    0.108
       136  -9.0578     71.6889     57.2854   8.9097352622e+01   5.6675101265e+01    0.1260234    0.1096165 -84.81 0.0004301368    1.575    0.365
       137  -9.4555    158.0034     56.4841   6.4578749132e+01   3.8372446128e+01    0.2324113    0.1508671  59.19  0.001015009    1.546    0.353
       138 -10.2061     33.4594     55.0659   1.0279763349e+02   6.1866978397e+01    0.3305237    0.1578883 -29.33 0.0009737291    2.578    0.612
       139  -9.8928    106.2149     53.1861   7.6410567093e+01   5.1120872699e+01    0.1947691    0.1755412  82.65 0.0006813884    1.379    0.275
       140 -12.1816     66.0074     52.4940   8.9460435926e+01   5.8467104825e+01    0.5724556    0.2360985  34.53  0.002386424    2.710    0.631
       141 -11.1228     17.4328     33.3413   1.0270339363e+02   6.7528795337e+01    0.7003722     0.300153 -14.47  0.002757201    4.484    0.777
       142 -10.2338     19.5545     45.0098   1.0550991441e+02   6.5085540968e+01    0.3068259    0.2386018 -43.50  0.001370177    1.009    0.009
       143 -11.1328     12.9168     41.1650   1.0723006337e+02   6.6316430707e+01    0.3916759    0.2831559  68.53  0.001703208    2.298    0.565
       144 -12.9604      5.6366     50.7954   1.1286836133e+02   6.4769149355e+01    0.3592585    0.2013481 -45.95 0.0004485016    1.390    0.280
       145 -11.6017     13.5606     48.7243   1.0908525909e+02   6.4739948993e+01    0.3587633    0.3055271  38.71 0.0009807051    1.548    0.354
       146  -9.8739    121.8849     51.2001   7.1317473982e+01   4.8026460268e+01    0.2137085    0.2028878 -82.31 0.0003967785    1.200    0.166
       147 -10.3502     76.2304     49.0553   8.4546598361e+01   5.7505511037e+01    0.3781108    0.2027157 -29.82  0.001692325    1.948    0.487
       148 -10.5510     79.0048     45.7610   8.2338669543e+01   5.7626465928e+01    0.2084475     0.182777 -19.43 0.0002389804    1.024    0.024
       149 -10.4308     98.3741     48.3435   7.6990243906e+01   5.3563388932e+01    0.2566239    0.2137089   1.74 0.0007390903    1.230    0.187
       150  -9.1489    211.6953     48.7408   5.3030959160e+01   2.5767188230e+01    0.1392033    0.1109443  33.09 0.0002208665    1.517    0.341
       151 -11.0367     57.4168     46.8742   9.0656017357e+01   6.0757709826e+01    0.3361128    0.2030732 -55.14 0.0008475333    1.896    0.473
       152  -9.2667    154.5766     47.5360   6.2375035560e+01   4.0646647587e+01    0.1476906    0.1462038  55.63 4.895272e-05    1.011    0.011
       153  -9.6033    135.5330     46.4654   6.6222840290e+01   4.5561255823e+01    0.1474749    0.1437881  25.24 8.528974e-05    1.015    0.015
       154  -9.3960     64.9776     46.4652   8.7644249977e+01   5.9755638732e+01    0.1684712    0.1176282  62.94 0.0008085067    2.460    0.594
       155 -11.7857     27.0818     43.6319   1.0187440200e+02   6.4757769149e+01    0.4139886    0.3608938 -53.93  0.002898974    1.241    0.194
       156  -9.8177     25.6287     29.7316   9.7611339167e+01   6.7524689346e+01    0.1613828    0.1426472 -76.52 0.0004060932    1.668    0.400
       157 -10.7315     22.8465     38.4915   1.0201468706e+02   6.6119022925e+01    0.2010506    0.1501851  30.60 0.0006445026    1.670    0.401
       158 -11.3312     26.7361     35.2310   9.9152898548e+01   6.6409303926e+01    0.3597713    0.2067822 -29.71 0.0007998355    1.605    0.377
       159  -9.9810    159.5472     42.1349   5.9601795180e+01   4.0166126689e+01    0.2697299     0.140799 -34.92 0.0009106192    1.912    0.477
       160 -11.8958    140.0856     40.5653   6.3108852031e+01   4.5323692380e+01    0.3255683    0.2738858 -54.04 0.0003382241    1.311    0.237
       161 -10.0911     69.7578     41.6063   8.4019262289e+01   5.9889416933e+01    0.3125331    0.2003903   0.39  0.001033088    2.092    0.522
       162 -11.1625      3.6559     41.4780   1.1136173700e+02   6.6785861360e+01    0.3757836    0.2016965 -28.99  0.002255527    1.847    0.459
       163  -9.7303     43.0682     40.8472   9.4171291710e+01   6.3689740711e+01    0.1657827    0.1571695 -16.06  0.000568221    1.233    0.189
       164 -10.3880     34.8755     41.3076   9.7774047017e+01   6.4483081321e+01    0.2600497    0.1558316  28.06 0.0009706648    1.914    0.478
       165 -10.2567    167.9833     38.9459   5.7003861584e+01   3.8426845842e+01    0.2117291    0.2041337  60.88  0.001178149    1.025    0.024
       166 -10.2537    128.0126     38.6554   6.5226201086e+01   4.8539110581e+01    0.3891296    0.2098211  52.01  0.001518688    1.772    0.436
       167 -11.9208    121.5811     37.1084   6.6243934826e+01   5.0278761074e+01    0.4476613    0.4080396  67.75  0.001293868    1.209    0.173
       168  -9.6614    115.0871     39.0693   6.8671338978e+01   5.1480805169e+01    0.2182131    0.1823643  14.40  0.000458282    1.219    0.180
       169  -9.6144     53.0438     48.5065   9.2934732928e+01   6.1023779014e+01    0.1817772    0.1269262  25.24   0.00102832    1.583    0.368
       170 -10.9647      3.5225     34.9537   1.0960752057e+02   6.8092880430e+01    0.4311793    0.1980928 -40.12  0.002484581    1.723    0.420
       171 -11.0706     38.9197     35.3796   9.3863211306e+01   6.5165713786e+01    0.2669275    0.1954242   4.02  0.001449758    1.445    0.308
       172  -9.9616    229.6674    248.0108   9.3784393789e+01  -8.4746978810e+00    0.1515829    0.1210418  11.40  0.000599939    1.125    0.111
       173 -11.1570     96.6963     33.1858   7.1598229463e+01   5.6309877240e+01    0.4010467    0.2114941 -35.85  0.001820625    1.875    0.467
       174  -9.6839     81.4829     34.6179   7.7063131307e+01   5.9040485399e+01    0.2933344     0.146935  25.74  0.001169029    2.773    0.639
       175 -10.6711    144.9499     33.0874   5.9450668625e+01   4.5138585802e+01    0.2692977    0.2042742 -42.40 0.0004822518    1.393    0.282
       176 -10.0312    134.2140     34.2463   6.2172707253e+01   4.7655601075e+01    0.2035288    0.1760315  29.38 0.0003224477    1.147    0.128
       177 -10.2964     90.7690     34.0859   7.3798875583e+01   5.7365047923e+01    0.2319521    0.1504123  -2.42 0.0008641324    1.921    0.479
       178  -9.3757     50.5345     33.7813   8.8341658360e+01   6.4045329841e+01    0.1638445    0.1112631 -48.20 0.0007023875    1.565    0.361
       179  -9.4804    166.4017     30.7724   5.4657942001e+01   3.9919874146e+01    0.1917615    0.1436748  -9.28 0.0005615483    1.566    0.361
       180 -10.3935    129.1236     30.8063   6.2072375398e+01   4.9353231428e+01    0.2583395    0.2056159 -36.47 0.0008077394    1.318    0.241
       181  -9.8278     77.8219     30.9622   7.6793796167e+01   6.0263210077e+01    0.2284986    0.1770849  35.07   0.00131548    1.304    0.233
       182  -9.6643     84.7191     30.6288   7.4322726876e+01   5.9045324660e+01    0.1834334    0.1279924  54.59 0.0009493421    1.715    0.417
       183 -10.7604      8.0974     28.6668   1.0549118531e+02   6.9046628704e+01    0.2291728    0.2113332  84.71  0.001756384    1.567    0.362
       184  -9.8957     69.7799     28.9716   7.8810965031e+01   6.1954821818e+01     0.172137   0.09779639 -32.60  0.000444716    1.628    0.386
       185  -9.8875    146.9231     27.0062   5.6935585029e+01   4.5412594526e+01    0.2504195    0.2052364 -27.26  0.001332208    1.277    0.217
       186 -10.7396    113.4543     25.3965   6.3795906349e+01   5.3732196479e+01    0.3183354    0.2430542 -36.18 6.193001e-05    1.394    0.283
       187  -9.7310     57.8230    248.3686   1.2375164770e+02   1.7263199737e+01      0.13849   0.08719444  40.78 0.0004248034    1.616    0.381
       188 -10.1038    105.3096     27.4146   6.6766877118e+01   5.5289849922e+01    0.2612689    0.1226482  48.36 0.0008790368    2.005    0.501
       189  -9.2570     18.9538     24.6139   9.8775370748e+01   6.9018579386e+01    0.3364426    0.1411149 -32.82  0.001673304    2.239    0.553
       190  -9.8653    224.9797    246.6966   9.4377739804e+01  -7.6450712459e+00     0.166424    0.1156058  26.13  0.001134027    1.102    0.093
       191 -10.4339     20.0357     17.0917   9.5119948234e+01   7.0225766474e+01    0.2000697    0.1634218  -5.53 0.0008192935    1.208    0.172
       192 -11.1125     14.0635     16.2451   9.7788865305e+01   7.0865470160e+01    0.2579673    0.1758577  22.54  0.001123166    1.707    0.414
       193  -9.3643    153.7792     25.6216   5.5173289617e+01   4.3826820639e+01    0.2015596    0.1347467  76.81 0.0005888508    1.623    0.384
       194 -10.2002     59.1125     24.2411   8.0788614844e+01   6.4375374502e+01    0.2276686    0.1629485 -23.32  0.001277482    1.229    0.186
       195  -9.8570     58.2766     19.4007   7.8908816221e+01   6.5214125910e+01    0.2670681    0.1657205 -51.87  0.001283727    2.509    0.601
       196  -9.2862    120.4435     24.5689   6.1745753838e+01   5.2215487291e+01    0.1426782    0.1272337  28.25            0    1.048    0.046
       197  -9.6130    123.6538     23.6955   6.0654714017e+01   5.1561344810e+01    0.1530215   0.09887435  28.96 0.0007041261    1.692    0.409
       198 -10.7618      1.9661     22.1183   1.0625983204e+02   7.0619145427e+01    0.2390181    0.1322333 -55.18   0.00070362    1.487    0.328
       199  -9.3795    136.3712    245.7165   1.0988309867e+02   6.3872324951e+00     0.123179   0.07481936  60.81 0.0007016223    1.703    0.413
       200  -8.7700     35.2704     22.2586   9.0082926183e+01   6.7843740155e+01    0.1168701   0.07644802 -15.93 0.0001996176    1.457    0.314
       201 -11.0634     30.4916     21.1355   9.1809689694e+01   6.8546103526e+01    0.2485714    0.1783897 -21.36 0.0009378747    1.154    0.134
       202 -10.0179    175.6928     21.1134   5.0136851323e+01   3.8659376391e+01    0.1900244    0.1804148 -47.31 0.0005134701    1.101    0.092
       203  -9.5760    165.1286     20.8606   5.1666659245e+01   4.1443104964e+01    0.1936962    0.1639923  27.50 0.0005973286    1.298    0.230
       204  -9.7244     84.5072     21.4617   7.0451107585e+01   6.0360022637e+01    0.2335863     0.107374  38.33 0.0008253571    2.176    0.540
       205  -9.5768     45.0403    244.7788   1.2561902038e+02   1.9445316235e+01    0.1325566   0.06784283  46.61 0.0003052414    1.586    0.369
       206  -9.9726    164.2980     27.3059   5.3892770979e+01   4.0899498369e+01     0.148846    0.1064593  32.56 0.0002296573    1.589    0.371
       207 -10.2015    146.8496     18.9151   5.4124691007e+01   4.6373658472e+01    0.3241261    0.2249816  60.84  0.001037677    1.335    0.251
       208  -9.6629     60.7422    241.0056   1.2275582629e+02   1.8150117645e+01    0.1917649   0.08651203  43.27  0.001104728    1.856    0.461
       209  -9.6365     49.7652    240.9616   1.2460055317e+02   1.9534033951e+01     0.131744    0.0775894 -80.69 0.0008825942    1.638    0.389
       210  -9.6028    202.4801    240.1259   9.7290790798e+01  -3.4329291972e+00    0.1485858    0.1149979 -27.12 0.0007143431    1.517    0.341
       211  -9.6266    148.5288    239.0006   1.0687933934e+02   5.4554585428e+00      0.15571    0.1216037 -54.60  0.001033919    1.598    0.374
       212 -11.4420     14.3008    238.6356   1.3021289163e+02   2.3928272612e+01    0.1843234    0.1133154  76.18  0.000442918    1.167    0.143
       213 -12.5656     25.9841    235.6923   1.2820652097e+02   2.3213562939e+01    0.3395748    0.2745357  61.42  0.002065814    1.321    0.243
       214  -9.9570    249.1966    234.0823   8.8332870951e+01  -9.7833714659e+00    0.1727251    0.1192202  12.50 0.0004255347    1.182    0.154
       215  -9.6175    199.5210     17.4788   4.5945589372e+01   3.2896646230e+01    0.1396491    0.1271081 -84.93 0.0002223245    1.008    0.008
       216 -10.3730    108.4183     16.3624   6.1422610862e+01   5.5946634229e+01    0.2179418    0.1793394  -2.23 0.0004955658    1.209    0.173
       217  -9.4863     82.4866     17.4902   6.9334370085e+01   6.1255572359e+01    0.1341486    0.1136814  10.05 -4.072781e-05    1.029    0.028
       218 -11.7224      1.8259    248.5361   1.3250332887e+02   2.3476855756e+01    0.6273081    0.3057896  84.36   0.00454039    1.589    0.371
       219 -11.2298    234.5688     15.0609   4.1741482409e+01   2.4513046675e+01    0.2711405     0.200575  89.72 1.925912e-05    1.277    0.217
       220  -9.3714    242.9624    230.2179   8.8735394536e+01  -8.4558514661e+00    0.1522783   0.07880488  36.72 0.0007682538    1.652    0.395
       221  -9.6587    209.5198    229.5251   9.4421193646e+01  -3.2112721925e+00    0.1227597    0.0977352  24.93  9.13347e-05    1.003    0.003
       222 -10.2930    140.7601    228.5137   1.0699696256e+02   8.3738254788e+00    0.2228382    0.1541201 -47.51 0.0008307907    1.784    0.440
       223  -9.1864     30.3099     16.2977   8.9715545636e+01   6.9348331924e+01    0.1215124   0.07459924 -15.19 0.0001808164    1.596    0.374
       224  -9.8424    250.5456     15.0289   4.0393803909e+01   2.0835328455e+01    0.1870565    0.1147565 -34.71 0.0003476454    1.531    0.347
       225  -9.4446    175.3467     15.3230   4.8397120194e+01   3.9391711864e+01     0.151164   0.09891945  38.10 7.738238e-05    1.740    0.425
       226 -10.4166    154.4993     15.0202   5.1457533754e+01   4.4833590059e+01    0.2680575    0.1953624  65.20 0.0004839544    1.272    0.214
       227  -9.4936    223.2931    226.6993   9.1531186585e+01  -5.0467938822e+00     0.104078   0.09250118  53.38 0.0001815891    1.569    0.363
       228  -9.7536     91.0137    237.0338   1.1714032553e+02   1.4702544079e+01    0.1496498     0.141686 -26.34  0.000937455    1.649    0.394
       229  -9.1946    162.2831     13.3288   4.9662902310e+01   4.2998197348e+01    0.1446822    0.1004009  34.24 0.0003698475    1.606    0.377
       230  -9.7600    118.6834     12.2971   5.7338148359e+01   5.4009361350e+01    0.1324745    0.1059081 -67.26 0.0002655172    1.609    0.379
       231  -9.7381    134.9796     11.5185   5.3681323047e+01   5.0134823339e+01    0.2053291    0.1283697  62.64 0.0003464745    1.487    0.328
       232 -11.1432      8.4056    218.4835   1.3023102646e+02   2.8164375787e+01    0.2590822    0.1914415  19.31  0.001859508    2.391    0.582
       233  -9.2984    209.6584    211.2957   9.1390106466e+01  -7.7978994066e-01    0.1175801   0.09848725  63.59 0.0007031633    1.661    0.398
       234  -8.9417     56.2940     10.3392   7.5331196797e+01   6.6742451518e+01    0.1296032   0.08235658   3.70 0.0003634537    1.652    0.395
       235 -12.0521     10.6923    244.8631   1.3103755852e+02   2.3220058737e+01    0.3112579    0.2627317  15.27  0.002501257    2.361    0.576
       236 -10.1716     20.1516    209.8291   1.2775587234e+02   2.8649089339e+01    0.1771649    0.1043862  67.06 0.0008679291    1.303    0.232
       237 -10.1354     10.1932    203.4009   1.2915536642e+02   3.0888875129e+01    0.1498022   0.07375994  52.30 0.0005534526    1.673    0.402
       238  -9.6724      7.3025    199.3634   1.2945152177e+02   3.1956707703e+01   0.09957743   0.07128111 -62.41 0.0007036368    1.730    0.422
       239  -9.8686     23.1293    197.1807   1.2642053396e+02   3.0859484055e+01     0.161017      0.13165 -85.41 0.0005838416    1.269    0.212
       240 -10.7005     13.9108    192.6804   1.2785654988e+02   3.2685002910e+01    0.1966389    0.1191224  84.08 0.0004179613    1.268    0.212
       241 -10.3759      6.5154    191.4561   1.2915765902e+02   3.3615658467e+01    0.1877225    0.1308342  79.62 2.264777e-05    1.024    0.024
       242  -9.3516     22.5251    179.5809   1.2528355898e+02   3.4588060412e+01     0.116185   0.08825908  82.58 6.784396e-05    1.022    0.021
       243 -10.6684      5.3821    167.5827   1.2790328866e+02   3.8705248997e+01    0.2344054    0.1344017  86.43  0.001055453    1.360    0.265
       244  -9.3169    226.5928    164.1746   7.9207786854e+01   3.2777258522e+00    0.1925191    0.1230754 -20.76 0.0007137912    1.643    0.391
       245 -10.0058     14.9833    163.5130   1.2560119672e+02   3.8774166523e+01    0.1370945    0.0963047 -26.06 0.0008104235    2.563    0.610
       246  -8.9954    247.4866    155.4964   7.3718051097e+01   7.4686753854e-01    0.1361511    0.1171504  -6.50 0.0001236253    1.008    0.008
       247 -10.4151      2.4544    153.5044   1.2753248910e+02   4.1994934953e+01    0.1976419    0.1096136  30.39  0.001221152    2.200    0.545
       248  -9.5730     15.8329    150.3493   1.2430492884e+02   4.1629633883e+01       0.1372    0.1150226  12.09 0.0009524163    1.753    0.429
       249  -9.7784     23.5224    150.5146   1.2255589456e+02   4.0912888799e+01    0.1225128   0.09489872 -88.29 0.0001169122    1.002    0.002
       250  -9.8466     43.0528    145.0771   1.1728149124e+02   4.0204356508e+01    0.1835158    0.1490812 -85.33 -0.001320134    1.005    0.005
       251  -9.7997     22.7045    142.9946   1.2198860503e+02   4.2705417026e+01    0.1781525    0.1246662 -78.47 0.0005353913    1.135    0.119
       252 -10.1636     33.9299    142.2127   1.1917534405e+02   4.1827497995e+01    0.1839368    0.1391314  82.19 0.0003912163    1.173    0.147
       253  -9.3635     24.5995    139.1189   1.2111406747e+02   4.3429245733e+01    0.1800038   0.08624288 -62.26 0.0009339257    1.756    0.430
       254  -9.2117     41.9692    138.7367   1.1673289800e+02   4.1808605115e+01    0.1372139    0.1107706  40.94 0.0005295332    1.423    0.297
       255 -10.2104    212.5692    133.9549   7.5040085359e+01   1.1214155392e+01    0.2588575    0.2090187  68.45 0.0006581565    1.537    0.349
       256 -10.5618      2.5936    133.1763   1.2587259232e+02   4.6516013509e+01    0.2857407    0.1354362  57.57  0.001563031    2.208    0.547
       257  -9.2260     96.0174    133.7521   1.0180784864e+02   3.5547652804e+01    0.1775013    0.1226579  42.71 0.0003937522    1.504    0.335
       258  -9.6211     35.2513    130.8503   1.1741285037e+02   4.4358355480e+01    0.1722526    0.1240175 -56.45 0.0005260147    1.351    0.260
       259 -10.9129     11.6624    129.6585   1.2331259405e+02   4.6672360662e+01    0.3064145    0.1769935  49.49  0.001348613    1.849    0.459
