#   1 NUMBER                 Running object number                                     
#   2 MAG_AUTO               Kron-like elliptical aperture magnitude                    [mag]
#   3 X_IMAGE                Object position along x                                    [pixel]
#   4 Y_IMAGE                Object position along y                                    [pixel]
#   5 X_WORLD                Barycenter position along world x axis                     [deg]
#   6 Y_WORLD                Barycenter position along world y axis                     [deg]
#   7 A_WORLD                Profile RMS along major axis (world units)                 [deg]
#   8 B_WORLD                Profile RMS along minor axis (world units)                 [deg]
#   9 THETA_WORLD            Position angle (CCW/world-x)                               [deg]
#  10 FWHM_WORLD             FWHM assuming a gaussian core                              [deg]
#  11 ELONGATION             A_IMAGE/B_IMAGE                                           
#  12 ELLIPTICITY            1 - B_IMAGE/A_IMAGE                                       
         1 -11.0714     79.1533     31.0933   7.6470975029e+01   5.9779194588e+01    0.7016519    0.3665065 -14.07  0.002888387    2.631    0.620
         2 -10.3742     20.9997     28.0778   9.8976581724e+01   6.7964174068e+01    0.7744409     0.132366 -41.58  0.001288976    4.530    0.779
         3 -10.6243     24.6246     26.7733   9.6784013422e+01   6.7884321202e+01    0.9296507    0.1804619 -51.32  0.002953331    5.195    0.807
         4 -10.2483     10.1420     25.3213   1.0309001545e+02   6.9278411993e+01    0.4673482    0.2195098 -29.49  0.002576436    1.995    0.499
         5 -11.3106     18.6907     16.2892   9.5237948439e+01   7.0210916721e+01    0.3653822    0.2725604  40.69   0.00235584    2.034    0.508
         6 -11.2597    177.4099     30.3462   5.2795589222e+01   3.6981373415e+01    0.4951912    0.2569106 -35.88  0.002114725    1.907    0.476
         7 -11.0186     91.9609      6.6168   6.1633461803e+01   6.0314566031e+01    0.4400033     0.281969  29.15  0.001322581    1.460    0.315
         8 -11.8474     60.3746     23.5861   8.0021984327e+01   6.4031775390e+01    0.7817429    0.4094585 -42.34  0.003865875    2.047    0.511
         9 -11.5352     74.0467      7.1623   6.7317806045e+01   6.3803544005e+01    0.2699065    0.2070955  -9.92 0.0003093665    1.191    0.160
        10 -10.4921     66.1127     13.4976   7.3143888201e+01   6.4481050440e+01    0.4428718    0.2223106  30.74  0.001317974    2.059    0.514
        11 -12.2857     80.7670      7.1950   6.5180304296e+01   6.2520319112e+01    0.7058072    0.3765751  19.28  0.003291878    2.189    0.543
        12 -11.4210     70.4050     14.8419   7.2242470478e+01   6.3570682974e+01    0.4474659    0.2162731 -17.57  0.001594383    2.263    0.558
        13 -11.2762     75.2883     16.0667   7.1123461290e+01   6.2543619093e+01    0.3693524    0.2590696  30.04   0.00212051    1.332    0.249
        14 -11.3038    237.4367     25.4428   4.3992967886e+01   2.2508579858e+01    0.2576329    0.2219883 -64.92 0.0005039744    1.031    0.030
        15 -12.2572     84.7390     20.2258   6.9902494352e+01   6.0244716874e+01    0.4667837    0.3925802 -39.74 0.0009249903    1.421    0.296
        16 -11.4188      4.8638     18.6219   1.0319667832e+02   7.0826691477e+01    0.3832997    0.2704141  30.76  0.002415742    1.922    0.480
        17 -10.0767     34.9722     15.4450   8.7005958964e+01   6.8692465995e+01    0.2943969    0.1696277  -8.48 0.0008140725    1.966    0.491
        18 -10.3745    158.3039     13.3224   5.0319298488e+01   4.3856630785e+01    0.3070813    0.1352036 -45.52  0.001190923    2.636    0.621
        19 -10.5754    100.2046     12.7424   6.2100351390e+01   5.7936328901e+01    0.3038169    0.2140984  -3.70 0.0009505968    1.436    0.304
        20 -10.1717     55.0688     13.5400   7.7393143592e+01   6.6257892277e+01    0.2623707    0.1558196 -31.80 0.0008668302    1.563    0.360
        21 -10.0588     58.7558     10.3465   7.4367158603e+01   6.6090439366e+01    0.2880215    0.1836745  37.27 0.0004868582    1.562    0.360
        22 -11.1525     26.6646     13.9800   9.0249287700e+01   6.9828821491e+01     0.203337     0.140066 -15.57 0.0003487587    1.226    0.184
        23 -10.2762     30.7113     13.0077   8.7835931332e+01   6.9546508570e+01    0.2100633    0.1461436 -23.48 0.0003871852    1.127    0.113
        24 -10.2416    138.3752     12.1031   5.3313777141e+01   4.9038446112e+01    0.2563853    0.1959981  73.31 0.0005436768    1.355    0.262
        25 -11.7042    116.9631      8.5288   5.6276542584e+01   5.4570982446e+01    0.5777196    0.2840276 -34.52  0.001953377    2.189    0.543
        26  -9.9765     50.4981     11.4394   7.8219585776e+01   6.7219698523e+01    0.2633097    0.1484208   2.89 0.0009671293    2.214    0.548
        27 -11.8275     22.8727      7.0578   8.8745573103e+01   7.1267977394e+01    0.5007157    0.3769383 -40.56  0.002579086    1.508    0.337
        28 -11.1586     16.8733      3.3683   8.9971400308e+01   7.2396782639e+01    0.3365187    0.1924431 -33.14  0.001093507    1.370    0.270
        29 -11.8826     11.4831      2.9053   9.2652228607e+01   7.2946322353e+01    0.3298068    0.1794374 -19.27  0.001311827    1.671    0.402
        30 -13.0109     32.0114      2.0880   8.1597176454e+01   7.0931401142e+01    0.2809439    0.1923908  16.96 0.0006012756    1.372    0.271
        31 -10.6495     27.2420      3.3624   8.4619038532e+01   7.1324019691e+01    0.1936947     0.157495  -9.49 0.0006563732    1.170    0.146
        32 -10.1525      5.5077     11.4598   9.9939518618e+01   7.2028809427e+01    0.1981542   0.09778591 -31.35 4.780797e-05    1.632    0.387
        33 -10.0988      6.4808      8.0290   9.7884866905e+01   7.2530700199e+01    0.1752235    0.1485159 -43.77 0.0004414949    1.441    0.306
        34 -11.2219    235.5697     10.1258   4.0434443269e+01   2.4709443006e+01    0.3005798    0.2303946  12.06  0.001215364    1.862    0.463
        35  -9.9220    133.1561     11.0000   5.3896314310e+01   5.0439488308e+01    0.2385406    0.1432785  19.78  0.001080507    2.004    0.501
        36 -10.2526     39.1029     10.0857   8.2483088056e+01   6.8968466192e+01    0.2844303    0.2281579 -73.19 0.0009838148    3.062    0.673
        37 -10.0143    183.5307     10.2125   4.5794404571e+01   3.7641942159e+01    0.3432172    0.1772889 -86.51  0.001194108    2.486    0.598
        38 -10.7840    127.3181      8.3586   5.4041281939e+01   5.2116470337e+01    0.2550139    0.2137164 -68.27  0.000211472    1.459    0.314
        39 -10.7420    149.3869      6.5921   4.9451224196e+01   4.6781727487e+01    0.5094878    0.1737399  50.90  0.001918045    2.530    0.605
        40  -9.5511    145.5675      4.4786   4.9329838966e+01   4.7936954492e+01    0.1980578    0.1234587 -31.57 0.0005077915    1.713    0.416
        41  -9.4303    107.6745      9.2683   5.8724231268e+01   5.6637274249e+01    0.1792745    0.1187252  -4.63 0.0009189589    1.593    0.372
        42  -9.4869     43.4423      7.9371   7.9451784760e+01   6.8682531213e+01    0.1529333   0.09542829 -47.96 0.0008068014    2.456    0.593
        43 -10.0437    228.5105      5.1480   3.9819105205e+01   2.6908211565e+01    0.2221442    0.1570943 -70.98  0.001056628    1.316    0.240
        44  -9.7200    243.5322      3.7693   3.8306288169e+01   2.3548781954e+01    0.1804706   0.09794141 -44.65 0.0005613277    1.604    0.376
        45 -11.7885    167.9317      2.3154   4.5359037639e+01   4.2408155522e+01    0.2330669    0.2189514 -79.62 0.0002723952    1.085    0.079
        46 -10.4018    237.0018      2.4801   3.8498336621e+01   2.5185735013e+01    0.1949039    0.1157518  77.05  0.001035743    1.604    0.377
        47 -10.2058    125.7904      2.0269   5.1900602700e+01   5.3041093665e+01    0.2816711     0.167844 -80.65  0.001202062    2.699    0.630
        48  -9.7907     37.9837    217.4902   1.2528292043e+02   2.5249043949e+01    0.1546808   0.09351519  44.89 0.0006969665    1.556    0.357
        49 -10.7519    250.3683    246.0790   9.0547964921e+01  -1.0930444285e+01    0.3602845    0.1536591 -23.98  0.001976616    2.582    0.613
        50  -9.9000     72.6158    250.0706   1.2171768118e+02   1.5211156469e+01    0.1596606    0.1421608  37.70  0.001259555    1.573    0.364
        51 -10.3611      5.5929    235.3208   1.3157168669e+02   2.5390892493e+01    0.2794329    0.1546302  67.91  0.001362648    1.269    0.212
        52 -12.8433     20.1579    248.6770   1.2994523910e+02   2.1652573823e+01    0.9887512    0.2263189  39.46  0.004907201    3.547    0.718
        53 -13.0736      7.0349    244.5082   1.3173038136e+02   2.3679803255e+01     1.050141    0.6787842  27.15  0.007568802    2.566    0.610
        54 -11.4330    236.1501    214.8258   8.7728270011e+01  -5.3504722207e+00    0.4790592    0.2551202  22.99  0.002285439    1.879    0.468
        55  -9.2627    201.2626    215.9398   9.4178782697e+01   2.4458364461e-01    0.2028857    0.1314676   3.93  0.001057764    1.992    0.498
        56  -9.6618    194.5298    215.4755   9.5352294903e+01   1.4622301159e+00    0.1287505    0.1067612  26.59 -6.298716e-05    1.015    0.015
        57  -9.4538    136.8367    216.1531   1.0652776859e+02   1.1308956837e+01    0.1720717    0.1407498  27.84  0.001066337    1.338    0.252
        58 -10.4513     31.0705    215.8585   1.2638459716e+02   2.6325877897e+01    0.2375006    0.1378947  45.38  0.001581816    1.592    0.372
        59  -9.9125     23.7413    216.5804   1.2769541842e+02   2.6969973078e+01    0.1498726   0.07519457  52.34 0.0007995497    1.610    0.379
        60  -9.5604    170.2985    213.3298   9.9609889367e+01   6.0034614743e+00    0.1273968   0.09488172  10.43 0.0004330159    1.641    0.390
        61 -10.9177     21.2453    212.2463   1.2786812956e+02   2.8049110015e+01    0.3148884    0.1282833  58.73  0.001797124    2.019    0.505
        62 -10.1677    208.9750    212.0753   9.2102020258e+01  -5.2661895898e-01    0.1943647    0.1583543  20.44 0.0004718243    1.035    0.034
        63  -9.0592     76.3353    212.3148   1.1781109834e+02   2.1409002740e+01    0.1037962   0.09592618 -21.34 0.0007046902    1.691    0.409
        64  -9.3586      2.2818    212.3350   1.3108300608e+02   2.9855024784e+01     0.143991     0.101381  66.09 0.0004879541    1.147    0.128
        65 -11.6041      4.5891    207.3365   1.3045504531e+02   3.0592423124e+01    0.4892099    0.2059777  82.55  0.002854077    2.013    0.503
        66  -9.8220     10.9917    208.2824   1.2941149642e+02   2.9817325244e+01    0.1469827    0.1090698  75.21 0.0005180518    1.082    0.075
        67  -9.1331    218.3114    207.3451   8.9566187100e+01  -1.4564135914e+00    0.1340008   0.08729191   9.12 0.0003969537    1.706    0.414
        68  -9.7879    124.0338    205.9591   1.0766588290e+02   1.5285043247e+01    0.1835404    0.1581234  55.64            0    1.015    0.015
        69  -9.3202     67.9743    203.9451   1.1859851994e+02   2.4184946764e+01    0.1447809     0.115323  69.49 0.0003924502    1.028    0.027
        70 -11.3027     18.9736    202.9835   1.2770676943e+02   3.0071801458e+01    0.3299184    0.2267229  85.58  0.001197033    1.115    0.103
        71 -10.3330    175.3616    202.6526   9.6884776737e+01   6.8246355292e+00    0.2309488    0.1844911  45.53 0.0005513001    1.165    0.142
        72  -9.2809    242.6851    202.2895   8.4324158843e+01  -4.8106041900e+00    0.1049554    0.1012919  55.18 0.0003734474    1.590    0.371
        73  -9.4177    223.5816    201.7883   8.7603863963e+01  -1.5847396641e+00    0.1596287    0.1184364 -42.01 0.0005607586    1.672    0.402
        74  -9.4358     34.7279    201.2146   1.2471036303e+02   2.8778241595e+01    0.1358463    0.1179402 -82.88  0.000580843    1.332    0.249
        75  -9.3154     44.3085    199.3052   1.2275130971e+02   2.8078852611e+01    0.1012537    0.0863069 -54.92 0.0007017924    1.609    0.378
        76  -9.3163    227.1620    196.8526   8.6039098321e+01  -1.5105300106e+00    0.1848884     0.131919  10.07  0.000733823    1.362    0.266
        77 -10.1105    215.6386    194.8096   8.7757647099e+01   7.8698227981e-01    0.2006794    0.1507546  -4.53 0.0006106753    1.360    0.264
        78  -9.4550      7.2892    195.6600   1.2936430988e+02   3.2623353598e+01    0.1158079    0.0576854  70.17 0.0004325733    1.643    0.391
        79  -9.9278    163.2894    190.3412   9.7193585937e+01   1.1158776695e+01    0.1355271    0.1051125   3.54 0.0004735812    1.646    0.393
        80  -9.9947      2.1275    188.9789   1.2992196045e+02   3.4409293402e+01    0.3077036    0.1127173  75.77  0.001523366    2.674    0.626
        81  -9.5166    211.4058    188.7467   8.7393812896e+01   2.4548455891e+00    0.1878882    0.1205547 -20.23 0.0009492097    1.728    0.421
        82 -11.3498     15.9699    182.7928   1.2694186605e+02   3.4446421119e+01    0.4022027    0.1805349  85.93  0.002171518    2.028    0.507
        83 -10.0495    167.4513    183.4956   9.5105551220e+01   1.1607842571e+01    0.1388787    0.1274343  36.40 0.0001891644    1.007    0.007
        84  -9.4293     58.5081    182.4339   1.1830774645e+02   2.9871021796e+01    0.1236906    0.1016759  80.48 0.0002540533    1.020    0.019
        85  -9.7335      2.0327    180.2901   1.2944236608e+02   3.6184330889e+01    0.1514878    0.1096409  74.55 0.0005021385    1.101    0.091
        86 -10.0460    244.1452    178.5345   7.9450860694e+01  -1.8565947912e+00    0.2638544    0.1516476 -13.92 0.0009623428    1.930    0.482
        87 -10.9697    224.2120    178.4822   8.2984224665e+01   1.6830462191e+00    0.2663458    0.2304853  30.53 0.0004319073    1.166    0.143
        88  -9.5774     70.1744    177.7391   1.1527770449e+02   2.9351520327e+01    0.1525303    0.1466348 -54.22 0.0005012082    1.357    0.263
        89  -9.2795     36.4496    178.4594   1.2250751183e+02   3.3310304528e+01    0.1194525   0.09350364  84.65 0.0001822503    1.015    0.015
        90  -9.9013    200.1856    176.7871   8.7195210630e+01   6.4663212128e+00    0.1962957    0.1538181   9.19 0.0005877709    1.334    0.250
        91  -9.8294     46.4967    177.2189   1.2029525610e+02   3.2453153929e+01    0.2188622     0.157087  48.22   0.00139321    1.395    0.283
        92 -11.0183     18.0852    172.8737   1.2579622979e+02   3.6343297090e+01    0.3845991    0.1635417  68.85  0.001911714    2.443    0.591
        93  -9.5384     75.0938    170.9121   1.1332260885e+02   3.0167728935e+01    0.1944854    0.1556199 -34.79  0.001118301    1.755    0.430
        94 -10.7092     12.8004    170.3130   1.2667480013e+02   3.7364734308e+01    0.3356329    0.1305175  89.66  0.001604613    2.489    0.598
        95  -9.5417      4.6286    168.2031   1.2817308222e+02   3.8499963636e+01    0.1670645   0.07675225 -70.51 0.0009631708    1.767    0.434
        96 -11.1729     44.5092    162.4828   1.1917180346e+02   3.5933535997e+01    0.3446431    0.1919142 -67.64  0.001501933    1.560    0.359
        97 -11.0938     50.5069    165.3558   1.1815188524e+02   3.4597472412e+01    0.4338391     0.205886 -53.77  0.002113249    2.246    0.555
        98 -10.1470     48.4773    159.4926   1.1792944449e+02   3.6155547596e+01    0.2753321     0.219225  61.75  0.001269946    1.217    0.178
        99 -12.2905     37.0983    159.0154   1.2046093753e+02   3.7518652946e+01    0.5758964    0.2231252 -72.42 0.0006356019    2.219    0.549
       100  -9.2772    210.0168    166.0000   8.3059490795e+01   6.3533130969e+00    0.2268142   0.07687782  45.00 0.0006292009    2.876    0.652
       101  -9.6553     67.1820    165.1678   1.1435631489e+02   3.2538000973e+01    0.1871993     0.133152  73.23 0.0007979923    1.358    0.264
       102  -9.4394    200.2633    162.6263   8.4241752936e+01   8.8637989125e+00    0.1924698    0.1280099  35.05 0.0005077717    1.467    0.318
       103 -11.3003     22.5384    156.4153   1.2345374636e+02   3.9530585442e+01    0.4413091    0.3249405  64.90  0.002985589    1.274    0.215
       104 -10.2258    247.4701    158.4782   7.4686664687e+01   4.5994169304e-01    0.1348481    0.1174086  -8.03 6.410925e-05    1.055    0.052
       105  -8.9658    147.6649    156.3310   9.4116197019e+01   2.0799879033e+01    0.1526606     0.116061  82.33 0.0007052165    1.731    0.422
       106  -8.8803    197.9834    154.3275   8.2887832825e+01   1.0793411215e+01    0.2348809    0.1220117  65.06 0.0007050761    4.408    0.773
       107 -10.3048     12.0379    153.3538   1.2549504458e+02   4.1119064836e+01    0.2247331     0.180677   9.46  0.001576253    1.892    0.472
       108  -9.8024    205.4055    151.8126   8.0859480220e+01   9.7058956307e+00    0.2138188     0.134269 -24.07 0.0009563403    1.742    0.426
       109 -10.3133    178.0595    151.4427   8.6362235904e+01   1.5497950682e+01    0.2709551    0.2494962 -65.71  0.001061766    1.231    0.188
       110 -11.6385     11.1260    145.3970   1.2500573034e+02   4.2961705571e+01    0.3924257    0.2572445  48.12  0.002583171    1.616    0.381
       111 -10.0076    206.9378    146.1862   7.9285771064e+01   1.0376707428e+01     0.211518     0.203464  82.71 0.0007463342    1.250    0.200
       112  -9.6131     30.6172    144.7420   1.2039620335e+02   4.1414681111e+01    0.1751699   0.09712068 -82.85 0.0005529383    1.589    0.370
       113  -9.6134    220.3190    144.2741   7.6313668988e+01   7.9375101076e+00    0.1463512    0.1065221  10.75 0.0002043882    1.569    0.363
       114 -12.0954     18.9255    141.2412   1.2279657834e+02   4.3265695899e+01     0.569394    0.2499683  52.69  0.001872954    2.423    0.587
       115 -10.4419      2.8722    143.8972   1.2674186932e+02   4.3912501990e+01    0.1774026    0.1262292 -65.13  0.001227853    1.335    0.251
       116  -9.1256     50.6551    140.6941   1.1497552080e+02   4.0239334384e+01     0.127015   0.09267697 -40.74 0.0007042285    1.692    0.409
       117 -11.0125     55.4977    135.1641   1.1292311772e+02   4.0968381517e+01    0.6248139    0.3156064 -83.63  0.002414067    2.469    0.595
       118 -11.5764      3.4523    136.3739   1.2597183733e+02   4.5546310671e+01    0.5672774    0.1637971 -60.30  0.002147403    2.720    0.632
       119 -11.3428      9.0950    136.7533   1.2468040160e+02   4.5058190092e+01    0.2116476    0.1452013 -77.81 0.0002326355    1.117    0.105
       120 -10.3537     21.3217    135.9202   1.2165306383e+02   4.4278954894e+01    0.2276125    0.1738061  78.47  0.000891017    1.205    0.170
       121  -9.4191    137.8357    135.4059   9.1888150983e+01   2.7270019978e+01    0.2165914    0.1441756  32.85 0.0009470105    1.685    0.407
       122  -9.2036    250.3099    134.3144   6.8854502851e+01   3.5987716271e+00    0.1420458   0.09983513   4.30 0.0007030061    1.631    0.387
       123 -10.1653    106.8734    133.1868   9.9157361663e+01   3.3741823114e+01    0.2478387    0.2366532 -83.60 0.0009360384    1.021    0.020
       124  -9.3885     79.6390    133.2670   1.0628678992e+02   3.8179464008e+01    0.1427297    0.1006164  72.01 0.0006990992    1.643    0.391
       125 -11.5059     37.6447    130.5089   1.1686709113e+02   4.4030428936e+01    0.3858308    0.2478421 -69.65  0.001290279    1.280    0.219
       126 -11.0504     33.2961    125.9909   1.1737882250e+02   4.5512384961e+01    0.2538953    0.1797588  81.57  0.001017256    1.399    0.285
       127  -9.2703    227.0342    131.7790   7.2186170914e+01   8.6544151062e+00      0.18185    0.1190715  47.61 0.0004431976    1.617    0.382
       128 -10.4655     73.9817    129.3009   1.0705271022e+02   3.9938229817e+01    0.2419095    0.1842824 -63.90 0.0006604903    1.177    0.150
       129 -10.4945     14.8347    125.6438   1.2212077087e+02   4.7159268189e+01    0.2270083    0.1798751 -84.67  0.001565006    1.054    0.052
       130 -11.4327     10.1623    122.0984   1.2291794370e+02   4.8312149773e+01    0.3920517    0.2164367  74.43   0.00209402    1.937    0.484
       131 -11.4646      2.3022    123.9874   1.2510031358e+02   4.8407827815e+01    0.4953479    0.1261359 -67.01  0.001550049    2.620    0.618
       132 -10.0201     82.0349    125.0961   1.0406626741e+02   3.9752522614e+01    0.2116385     0.187933 -67.10 0.0005644488    1.022    0.022
       133  -9.9514    226.0165    124.2221   7.0558292454e+01   1.0140540893e+01    0.1895853    0.1205403  48.12 0.0008724218    1.664    0.399
       134 -10.0288    219.9451    124.3308   7.1664117235e+01   1.1424811289e+01     0.202738    0.1898057  14.57 0.0005650591    1.072    0.067
       135  -9.7962    244.3028    123.6534   6.7350610015e+01   6.4476827281e+00    0.1415227    0.1064805 -57.83 0.0003513771    1.689    0.408
       136 -10.7120     20.8869    121.4528   1.2005013129e+02   4.7654890745e+01    0.1990518    0.1365197 -55.55  0.001235637    1.371    0.271
       137  -9.7760     32.8492    118.7614   1.1646572011e+02   4.7250408892e+01    0.2236565    0.1341332 -61.11 0.0007175891    1.373    0.272
       138 -11.2751     17.3163    115.6080   1.2025712413e+02   4.9286629881e+01    0.2824503    0.2307497 -63.72  0.001640378    1.155    0.134
       139  -9.5506    220.2974    116.9691   6.9791593347e+01   1.2616815663e+01    0.2141383    0.1769519 -31.80 0.0004377174    1.136    0.120
       140  -9.8814     86.0414    116.6839   1.0118806894e+02   4.1117792704e+01    0.1935947    0.1806664 -64.25 0.0005254713    1.030    0.029
       141 -10.6849     51.0558    116.4964   1.1103123737e+02   4.5912346412e+01    0.3055579    0.1593282 -60.86            0    1.603    0.376
       142  -9.5851    166.0683    115.6957   8.0379709719e+01   2.5270765050e+01    0.2134668    0.2081595  38.69 0.0004586478    1.038    0.037
       143  -9.2063    214.1677    115.5980   7.0551657821e+01   1.4217064546e+01    0.2053678    0.1376355  37.32 0.0005713095    1.606    0.377
       144 -11.9787     35.4726    108.4009   1.1409360654e+02   4.9441286474e+01    0.4344503    0.2584686  86.72  0.001698305    2.037    0.509
       145 -10.9365    249.0486    112.1847   6.3894990371e+01   7.3055366445e+00    0.2559418    0.1868465 -31.01 0.0007747113    1.214    0.177
       146  -9.9467     35.1812    114.2032   1.1512240247e+02   4.8104171859e+01    0.2515837    0.1569962 -77.64  0.001241088    1.448    0.310
       147 -12.6835     15.3107    109.0638   1.1994640728e+02   5.0946301639e+01    0.5030169    0.4051413  77.25 0.0006811685    1.279    0.218
       148 -11.6205     23.2668    106.7824   1.1736408623e+02   5.0875995021e+01    0.3002894    0.2367119  63.63 0.0007803518    1.418    0.295
       149  -8.9957    223.3530    111.7326   6.7952840900e+01   1.2839159289e+01    0.1448211    0.1165611 -73.50 0.0006989836    1.627    0.385
       150 -11.4058     54.9265    110.1356   1.0873936876e+02   4.6971713251e+01    0.2995555    0.2417877 -55.26 0.0006477819    1.118    0.105
       151  -9.5870     29.4773    109.4671   1.1599511478e+02   4.9732941940e+01    0.1273953    0.1019815 -69.11 0.0001533968    1.013    0.013
       152 -12.5433      2.6804     99.3425   1.2225211401e+02   5.3974126842e+01    0.7709066    0.2662036 -82.09  0.002061879    3.073    0.675
       153 -10.7197      6.2283    105.9260   1.2207536946e+02   5.2268583588e+01    0.2501003    0.1170155 -71.39 0.0006566173    1.602    0.376
       154 -11.3542      2.5023    105.9103   1.2310667813e+02   5.2493713502e+01    0.4028372    0.1374958 -67.04  0.001849122    2.043    0.510
       155 -11.0072     62.8711    106.8293   1.0573251980e+02   4.6772539914e+01    0.2828773     0.253702  49.80 0.0009085167    1.253    0.202
       156 -10.6607    243.4977    104.5153   6.2897400409e+01   9.6696389145e+00    0.2469427     0.183298   8.52 0.0006236385    1.652    0.395
       157  -9.8680    223.3068    104.0034   6.6014629018e+01   1.4161239709e+01    0.2146516    0.1786228 -31.45 0.0004171607    1.118    0.105
       158  -9.2951     89.2856    103.3063   9.7120681041e+01   4.3715026924e+01     0.144106    0.1097793 -24.86 0.0002085235    1.566    0.361
       159 -10.8586    247.6529    102.1259   6.1694533210e+01   9.1764120307e+00    0.2297197    0.2033868  79.63 0.0008639465    1.368    0.269
       160 -10.5316     36.5644    101.7279   1.1260446447e+02   5.0903834606e+01    0.3542524    0.2090145  42.00  0.001592354    1.979    0.495
       161  -9.6637    119.7849    101.4068   8.8008988991e+01   3.8495658776e+01    0.2141374    0.1467856  30.65 0.0009410001    1.689    0.408
       162  -9.2590     67.2977     93.3060   1.0129276319e+02   4.9342544105e+01    0.2269828     0.153907 -47.69 0.0007754233    1.309    0.236
       163 -11.2811     62.3150     98.5950   1.0409324260e+02   4.8776571986e+01    0.3412306    0.2891425 -31.37 0.0006677945    1.268    0.211
       164 -10.5086     66.8188     98.1929   1.0261606556e+02   4.8276674026e+01    0.2795905    0.1682169 -52.90 0.0009588101    1.443    0.307
       165 -11.3700     92.6995     96.9011   9.4467678618e+01   4.4604576622e+01    0.6274337    0.2129301 -42.81   0.00205511    3.041    0.671
       166  -9.7719    145.4820    100.0220   8.0977289842e+01   3.3221079311e+01    0.2512769    0.1532003 -41.71  0.001037127    1.605    0.377
       167 -11.6172     20.2843     97.0890   1.1672740823e+02   5.3351458105e+01    0.4242088    0.2295077 -75.68  0.001987499    1.640    0.390
       168 -10.6401    161.5999     99.1701   7.6914702481e+01   2.9638925722e+01    0.2384236    0.1504003 -26.88   0.00095786    1.800    0.444
       169  -9.4825     85.3885     98.6923   9.7107260196e+01   4.5412305146e+01    0.2051101    0.1243221 -44.90  0.000723788    1.541    0.351
       170  -9.9443     40.8248     97.1085   1.1042549019e+02   5.1570682654e+01    0.2541081    0.1451994 -48.74  0.000991561    1.552    0.356
       171 -11.0733     14.1126     96.3238   1.1846921266e+02   5.3962524144e+01    0.3603425    0.1237966 -61.38  0.001688651    2.058    0.514
       172  -9.8008     57.4479     96.5239   1.0513018907e+02   4.9869018170e+01    0.1369283    0.1169249 -57.26 2.217412e-05    1.004    0.004
       173  -8.7961     47.3097     96.2985   1.0824261232e+02   5.1087104790e+01    0.1335539   0.08914413 -37.27 0.0002817846    1.598    0.374
       174  -9.8861    249.9067     95.5049   5.9767654244e+01   9.7401559859e+00     0.188715    0.1418708  54.60  0.000367559    1.498    0.332
       175  -9.9768     31.5424     92.7722   1.1248502888e+02   5.3443324779e+01    0.3361375    0.1325007 -65.59  0.001488178    2.130    0.530
       176 -10.9087     25.7874     91.4332   1.1405061201e+02   5.4232384131e+01    0.2484757     0.225685 -31.48 0.0009531199    1.270    0.213
       177 -10.5775     23.0683     86.6619   1.1403572282e+02   5.5537838106e+01    0.2824793    0.1606945 -56.22  0.001181677    1.370    0.270
       178 -10.7787    103.9649     92.0170   8.9822297623e+01   4.3665993125e+01    0.2209174    0.2064233 -35.54 0.0003048036    1.024    0.024
       179 -11.5667     10.2644     90.9216   1.1881216085e+02   5.5443581766e+01    0.2345119    0.2192204  68.39  0.001763457    1.301    0.231
       180 -10.4356      4.5802     86.3739   1.1988321438e+02   5.6801907906e+01    0.2879943    0.1949423 -85.17  0.001846854    1.381    0.276
       181 -12.1164      5.5797     76.0537   1.1788682438e+02   5.9057200587e+01    0.7818577    0.3752232 -52.94  0.004250135    1.588    0.370
       182 -11.9650     13.6673     77.1051   1.1534770789e+02   5.8351353942e+01     0.573056    0.2113797 -46.33  0.002329782    2.306    0.566
       183 -11.0692     14.8133     83.3618   1.1611485905e+02   5.6870488312e+01    0.4929251     0.165888 -48.11  0.002223017    2.479    0.597
       184 -11.0754     21.0554     81.2375   1.1365822820e+02   5.6919833466e+01    0.3245534    0.2080311 -17.28  0.001714414    2.044    0.511
       185 -12.0565     21.2423     77.0132   1.1274755083e+02   5.7857176319e+01    0.3773549    0.2217309 -46.06 0.0002123462    1.462    0.316
       186 -11.0937    158.0210     90.4882   7.5248716997e+01   3.2201688947e+01     0.337363    0.2412734 -36.11  0.001512425    1.381    0.276
       187  -9.3289     21.2809     91.3506   1.1545438422e+02   5.4598431610e+01    0.1304365   0.07231588 -46.60 0.0003883317    1.649    0.394
       188  -9.5210    139.0462     87.6742   7.8995924673e+01   3.7215945310e+01    0.2128059    0.1961097  44.29 0.0007102674    1.110    0.099
       189  -9.4673     39.6234     79.2492   1.0694654347e+02   5.5789223258e+01    0.1841048    0.1291201 -39.27 0.0002544282    1.342    0.255
       190 -10.9796     47.3644     84.9244   1.0568887468e+02   5.3704637754e+01    0.6127331    0.4536613 -84.71  0.002826293    1.618    0.382
       191  -9.9072     42.0461     82.5167   1.0689494993e+02   5.4809647488e+01    0.1900899    0.1396502  67.32 0.0004414483    1.821    0.451
       192 -10.8248     67.1400     84.8946   9.9189879928e+01   5.1278923487e+01    0.3422072    0.2092673 -29.66  0.001273899    1.965    0.491
       193 -11.1759    167.2480     84.4280   7.1402259808e+01   3.1111659849e+01    0.4206938    0.3177964  64.31  0.001927058    1.459    0.315
       194 -10.2266     29.8639     82.7290   1.1102042674e+02   5.5890014108e+01    0.3660506    0.1325601 -56.75  0.001642621    2.051    0.512
       195 -10.4113     87.9423     83.3406   9.2133887089e+01   4.8431869563e+01    0.2297591    0.1833941 -54.63 0.0003390945    1.230    0.187
       196 -10.2639    117.9142     82.9216   8.3158705712e+01   4.2827198778e+01     0.284714    0.2122601 -38.23  0.001357868    1.290    0.225
       197  -9.6252    130.4953     82.4966   7.9625256231e+01   4.0189241191e+01    0.1549464    0.1495221 -22.79 0.0008106706    1.001    0.001
       198 -10.3359     71.0505     79.5104   9.6430701507e+01   5.1924180427e+01    0.2666211    0.1983439  76.35 0.0009572493    2.029    0.507
       199 -10.1095     92.7081     77.8882   8.9019632948e+01   4.8775231782e+01    0.2689903    0.2079322  -1.28  0.001127727    1.586    0.369
       200 -11.6145     58.6139     75.1888   9.9383486587e+01   5.4563288785e+01    0.4697414    0.3328267  88.08  0.001693844    2.275    0.560
       201 -11.0818     62.0505     72.1145   9.7322426332e+01   5.4785505518e+01    0.3927569    0.2058792 -38.73  0.001067683    1.829    0.453
       202  -9.5481    150.5258     77.0499   7.2949182123e+01   3.6572543576e+01    0.2384731    0.1531343 -36.03 0.0004073183    1.536    0.349
       203  -9.8798    122.1194     76.2888   7.9923586191e+01   4.3269201031e+01    0.2143779    0.1954876  49.41  0.001020176    1.158    0.137
       204  -9.9350     74.8712     76.1349   9.4191524534e+01   5.2092491135e+01    0.2068317    0.1940171 -74.52  0.001225596    1.217    0.178
       205 -12.3014     44.6395     75.2403   1.0422697194e+02   5.6175546785e+01      0.27433    0.2328087  49.66   0.00029664    1.454    0.312
       206  -9.9666     38.4888     71.5506   1.0544609876e+02   5.7614458214e+01    0.2593179    0.2202044  -8.16 0.0008101074    1.334    0.250
       207 -10.3961     36.0206     68.5464   1.0555826316e+02   5.8508520021e+01    0.2638573    0.2373388  14.47   0.00172934    1.323    0.244
       208  -9.6851     32.8959     75.8546   1.0846677604e+02   5.7177902194e+01    0.1879516    0.1404389 -42.97            0    1.190    0.160
       209  -9.8976    145.4931     73.9493   7.3174640922e+01   3.8359891614e+01    0.2451191    0.1525411 -35.72  0.001031537    1.586    0.370
       210 -12.0261    102.8113     72.4885   8.4229179626e+01   4.8007516654e+01    0.4996884    0.2864228 -35.66 0.0007052512    1.716    0.417
       211 -10.7033    128.9263     71.7906   7.6649687376e+01   4.2630222564e+01    0.2544352    0.2133061 -41.27            0    1.182    0.154
       212 -11.2508     76.9512     71.2214   9.2005427182e+01   5.2817646387e+01    0.4928973     0.350628  63.75  0.001549259    2.096    0.523
       213 -10.0539    116.3463     71.4274   7.9951954393e+01   4.5461573515e+01    0.2825822    0.1451901  42.03 0.0007516914    2.031    0.508
       214 -12.2728     94.2472     68.3418   8.5492483807e+01   5.0460242805e+01    0.4353109    0.2509781 -37.97 0.0006045329    1.637    0.389
       215 -10.2717     68.8250     67.7236   9.3655893392e+01   5.4776747963e+01    0.4126546    0.1654066 -46.02  0.001189112    2.175    0.540
       216 -11.6675     50.8250     67.8254   1.0001777952e+02   5.7109417533e+01    0.4634183    0.2718723 -30.99  0.001547268    1.835    0.455
       217 -10.6336     51.4898     63.0207   9.8350865793e+01   5.8051393895e+01    0.3255671    0.1967002 -38.66  0.001427252    1.470    0.320
       218 -10.6462     31.0719     66.0670   1.0672497200e+02   5.9495096927e+01    0.4331377     0.196452 -50.62  0.001323748    1.699    0.412
       219  -9.9990     28.0068     68.2004   1.0838013019e+02   5.9288787125e+01    0.2119962     0.146889 -51.80            0    1.135    0.119
       220  -9.3214    160.7485     69.6605   6.8335060531e+01   3.5391386165e+01    0.1558442    0.1215257   6.78 0.0002507508    1.570    0.363
       221 -10.9043    139.8808     68.5933   7.2822053547e+01   4.0680467484e+01    0.3911015    0.2378846 -51.75   0.00101086    1.911    0.477
       222 -10.1548    123.0389     68.4258   7.7115478462e+01   4.4583007548e+01    0.2410566    0.1879815 -35.69 0.0006627398    1.244    0.196
       223  -9.9656    146.1304     68.5685   7.1305927325e+01   3.9185459160e+01    0.2475258    0.1861497 -25.52 0.0002761423    1.375    0.273
       224 -12.5731      4.3244     65.1197   1.1630796801e+02   6.1525935485e+01    0.3730913    0.2720978  82.20 0.0005602533    1.665    0.399
       225 -10.9323     10.9376     62.6536   1.1337185808e+02   6.1698329394e+01    0.2040506     0.162721 -57.76 0.0003507058    1.065    0.061
       226 -10.8297      5.9063     58.4899   1.1435051469e+02   6.2873472021e+01    0.4092753    0.2032999 -70.32  0.002084619    1.810    0.447
       227 -11.2718      5.3211     51.8683   1.1307225737e+02   6.4305283905e+01    0.3266606    0.2147101 -43.11  0.001009648    1.241    0.194
       228 -11.0236      6.4760     42.5638   1.1022559468e+02   6.6160580895e+01    0.6902429   0.05810286 -50.64  0.001393715    3.769    0.735
       229 -11.1047     11.2499     44.3300   1.0868952626e+02   6.5525997099e+01    0.4860066    0.1956586 -39.41  0.001610795    2.101    0.524
       230  -9.2323     83.8157     72.3860   9.0121016657e+01   5.1463694465e+01    0.1746588    0.1352503  19.89 0.0001865524    1.457    0.313
       231 -10.5951     77.2717     64.0435   8.9585411777e+01   5.4244909592e+01    0.3692346    0.2808797 -40.15   0.00154541    1.181    0.153
       232 -11.5948     56.5002     65.5068   9.7296350987e+01   5.6914240422e+01    0.5008747    0.1721633 -38.45  0.001756085    3.297    0.697
       233 -11.4782     64.2962     60.0988   9.2784299767e+01   5.6991935227e+01    0.5876431    0.2513317  36.00  0.002373431    2.607    0.616
       234 -10.9233     56.4518     58.9896   9.5262004937e+01   5.8272217526e+01    0.3310664    0.2132152 -47.51 0.0009117007    1.358    0.264
       235 -12.3755     17.9030     65.9574   1.1153963654e+02   6.0538119348e+01     0.744131    0.4838886 -45.47  0.001400818    1.272    0.214
       236 -10.2583     99.5180     64.9785   8.2733756507e+01   5.0128033646e+01    0.2296717    0.1367765 -37.06  0.001023489    1.592    0.372
       237  -9.2822    216.1725     64.3744   5.6727787222e+01   2.2302083148e+01    0.2089127    0.1408126  79.71 0.0009428147    1.774    0.436
       238  -8.9061    150.4679     64.5172   6.8989634786e+01   3.8836589571e+01    0.1543372    0.1497888   6.12 2.504564e-05    1.017    0.017
       239 -10.2407    150.4411     72.0234   7.1395726316e+01   3.7516426169e+01    0.2402479    0.2066803  49.67 0.0003048732    1.173    0.148
       240  -9.3747     41.4477     64.2158   1.0239564614e+02   5.8911175672e+01    0.1628924    0.1111012 -62.29 0.0003733964    1.454    0.312
       241 -11.4175     86.9976     52.0790   8.2137881120e+01   5.4883335175e+01     0.339145    0.2580175 -49.77 0.0004123449    1.458    0.314
       242 -11.0064     83.5071     61.4047   8.6609058518e+01   5.3738346058e+01    0.4176439    0.3054815  48.69  0.001833797    1.611    0.379
       243 -10.4757     86.2434     57.6285   8.4390397253e+01   5.3990142485e+01    0.3600578    0.2442328 -34.41  0.001811102    1.363    0.266
       244 -10.2339    201.0840     61.9837   5.8415141329e+01   2.6422380430e+01    0.2177689    0.2138231 -41.60 0.0003460324    1.033    0.032
       245 -10.8818     45.1768     50.0553   9.6575713852e+01   6.1428316055e+01    0.4901274    0.1904306 -47.05  0.002173978    2.107    0.525
       246 -10.1100     47.4323     58.1971   9.8363938272e+01   5.9527376391e+01    0.3097736    0.1872862 -68.16   0.00139415    2.302    0.566
       247  -9.9989     43.8880     56.9327   9.9311388536e+01   6.0182484025e+01    0.1996301    0.1599933 -36.63 0.0003757918    1.040    0.039
       248 -11.4636     29.5090     60.8796   1.0594391106e+02   6.0745988791e+01     0.581726    0.2658103  10.61  0.002625127    3.309    0.698
       249 -12.8215     37.7181     50.8415   9.9782348242e+01   6.2069584568e+01    0.7677351    0.5561654 -20.00  0.003158911    1.389    0.280
       250 -10.7476    146.9391     57.0960   6.7357682257e+01   4.0956055474e+01    0.2844485    0.2241379 -31.46            0    1.267    0.211
       251 -10.2367    103.3275     58.2035   7.9226364509e+01   5.0650684357e+01     0.473967    0.1864276 -28.91  0.001506182    3.432    0.709
       252 -10.4080    129.8169     55.9224   7.1081763942e+01   4.5269238354e+01    0.5237307    0.2350609  38.36   0.00185259    2.621    0.618
       253 -10.4643    123.0225     56.0650   7.2897763856e+01   4.6807441472e+01    0.2690742     0.200654 -52.32 0.0005645468    1.541    0.351
       254 -12.8206    128.6290     50.5785   6.9507900653e+01   4.6426909497e+01    0.4642912    0.3511336   9.84  0.002225412    1.538    0.350
       255 -10.2222     61.4861     54.1105   9.1771127076e+01   5.8575966617e+01    0.2430573    0.2244861  61.71 0.0009468865    1.439    0.305
       256 -11.8347     75.4169     56.0466   8.7479998068e+01   5.6117168136e+01    0.2369793    0.2119232 -19.13 0.0002082184    1.031    0.030
       257  -9.5798    143.4895     53.0595   6.6789234526e+01   4.2459144472e+01    0.2286959    0.1495282 -30.21 0.0008287376    1.542    0.351
       258 -11.0845     12.6720     51.5910   1.1006308153e+02   6.3944696326e+01    0.2459609    0.2073249 -77.47 0.0007174433    1.376    0.273
       259 -10.8725     70.2494     50.5333   8.7314116850e+01   5.7975956306e+01    0.4134341    0.3349003  77.06  0.002216526    2.022    0.506
       260  -9.6369    186.7180     50.0548   5.7305605972e+01   3.1894036766e+01    0.2038978    0.1938779 -41.60 0.0003285055    1.050    0.048
       261 -11.5283    103.4647     48.3465   7.5594944663e+01   5.2348697296e+01    0.4588874    0.4022804 -29.57    0.0025646    1.124    0.110
       262 -11.0981     78.0857     48.6736   8.3869995230e+01   5.7052132049e+01    0.4621443    0.2175605 -30.99  0.001442431    2.222    0.550
       263 -10.0574    220.5642     48.9738   5.1964505740e+01   2.3489051153e+01    0.2087253    0.1891041  83.55 3.549821e-06    1.115    0.103
       264  -9.7799    166.7139     49.0707   6.0585362591e+01   3.7208464555e+01    0.2020949    0.1960619   5.24 0.0003479083    1.053    0.050
       265 -11.5510    152.0465     47.7981   6.3122691927e+01   4.1141775182e+01    0.7082247    0.3146276  48.63  0.001682381    2.179    0.541
       266  -9.7117    115.6778     48.5466   7.2182298934e+01   4.9706296193e+01    0.2215711    0.1630082  15.56 0.0001974049    1.554    0.356
       267 -10.6840     95.4603     48.6771   7.8158086524e+01   5.3895860134e+01    0.3118429    0.2287966 -20.51  0.001004839    1.349    0.259
       268 -10.4119    120.1203     47.3711   7.0554268157e+01   4.8900898500e+01    0.2485901    0.2033336 -34.85 0.0005190248    1.231    0.188
       269 -10.0333    142.9023     45.9857   6.4496314893e+01   4.3698726017e+01    0.2245628    0.2181239  11.71 0.0004873473    1.017    0.017
       270 -10.3381     86.1435     45.6462   7.9997345555e+01   5.6171941810e+01    0.1930391    0.1710666   3.99 0.0005870283    1.068    0.064
       271 -10.5202    100.0466     55.5474   7.9270239915e+01   5.1787075666e+01    0.3732567    0.2322588  49.66  0.001129668    1.772    0.436
       272  -9.0452     18.3127     46.2784   1.0628641352e+02   6.4661857515e+01     0.122865   0.07044992 -34.11 0.0002701775    1.565    0.361
       273  -8.8357    233.3092     45.3573   4.9429890943e+01   2.0918194042e+01    0.1397321    0.1079155  20.97 0.0007042341    1.731    0.422
       274  -9.9719     51.2220     44.9790   9.2410412282e+01   6.1686826465e+01    0.1973643    0.1617663 -24.34  0.000314739    1.040    0.039
       275 -10.5430     51.7445     40.5128   9.0528012152e+01   6.2447234629e+01    0.3046688    0.2357956 -79.79  0.001405612    2.395    0.582
       276  -9.6754    165.8401     42.7967   5.8732155471e+01   3.8341729513e+01    0.3759957    0.2135764 -85.96  0.001283996    3.252    0.692
       277 -10.9507     89.4322     39.1479   7.6376565093e+01   5.6632633801e+01    0.5242169    0.2437767 -46.35  0.001338269    2.622    0.619
       278  -9.7694    110.7274     41.9287   7.1078155131e+01   5.1840826765e+01    0.1958812    0.1822404 -16.74 0.0004285983    1.081    0.075
       279 -11.0094     97.0193     40.9504   7.4708289068e+01   5.4863331794e+01    0.4082121    0.2682719  25.38  0.001335188    1.675    0.403
       280 -10.5830    101.7813     36.8706   7.1672292645e+01   5.4516084998e+01    0.2578408    0.1926242  19.60 0.0006168734    1.384    0.278
       281 -10.2332    104.6933     34.2799   6.9802105133e+01   5.4280131545e+01    0.2939572    0.2340183 -75.60  0.001087526    1.906    0.475
       282 -10.3865     66.2365     41.1837   8.5224413639e+01   6.0284530755e+01    0.3088076    0.2167094  -8.22  0.001392215    1.536    0.349
       283 -10.6868     69.9415     37.3426   8.2325695091e+01   6.0358283924e+01    0.3041837     0.198165 -16.25 0.0007350905    1.609    0.379
       284 -11.1239     34.3701     34.0878   9.5276004622e+01   6.5629084313e+01    0.4906008    0.1789308  37.40  0.002166197    3.450    0.710
       285 -10.7789     23.2458     41.1751   1.0261428331e+02   6.5305117370e+01    0.2133829    0.2091871   8.34 0.0007921589    1.358    0.263
       286 -12.8564     25.6466     36.3040   9.9909599126e+01   6.6043494824e+01    0.4688639    0.3908786  70.29  0.002364415    1.983    0.496
       287 -11.1817     19.9047     38.0524   1.0303279022e+02   6.6177361662e+01    0.3134758    0.1888905 -33.45  0.001511749    1.410    0.291
       288  -9.3757    193.3910     41.2437   5.3630629140e+01   3.1414619568e+01    0.2203921    0.1248828 -41.72 0.0009495554    1.730    0.422
       289  -9.7178    172.7601     41.5662   5.7087488672e+01   3.6720760336e+01    0.1932313    0.1436107  78.62 0.0002471276    1.467    0.318
       290 -11.8047     81.8015     36.4045   7.7781848221e+01   5.8483298283e+01    0.5601336    0.3687066 -43.37  0.002091042    1.644    0.392
       291 -11.8488    232.5983    245.3652   9.3379507169e+01  -8.3344246136e+00    0.5842461    0.2543569 -24.76  0.003079417    2.764    0.638
       292  -9.5518    226.4516     40.4599   4.8980626940e+01   2.3220069022e+01    0.1405398    0.1277322 -60.71   0.00010124    1.005    0.005
       293  -9.3795    215.5184     40.4988   5.0341845282e+01   2.5898387405e+01    0.1429129    0.1327836 -65.13 2.827976e-05    1.002    0.002
       294  -8.7597     71.6517     40.7186   8.3064303373e+01   5.9512060119e+01    0.1386829   0.09618079  -0.64 0.0007013942    1.645    0.392
       295 -10.0641     42.3993     37.0442   9.2997304017e+01   6.4217261771e+01    0.3631243    0.2652885 -88.50  0.001733304    3.381    0.704
       296  -9.9871     61.8725     37.8135   8.5521265155e+01   6.1524516533e+01    0.1891526    0.1506743 -13.75 0.0002920223    1.120    0.107
       297 -10.4325    166.5458     36.7657   5.6652022775e+01   3.8983696273e+01    0.2724883    0.1977497  61.67 0.0004557114    1.335    0.251
       298 -10.2117    155.3102     36.1553   5.8538161320e+01   4.1960747013e+01    0.2702117    0.2072129  22.92 0.0007382256    1.466    0.318
       299 -10.1285    127.4390     36.4425   6.4670646365e+01   4.8830975035e+01    0.2312487     0.141556 -27.22 9.995686e-05    1.655    0.396
       300  -9.7723    125.7137     33.0245   6.3809772149e+01   4.9707128559e+01    0.2327521    0.1848041  51.71  0.000662041    1.234    0.189
       301 -11.6832     98.0301     31.6976   7.0699035462e+01   5.6046623628e+01    0.6384216    0.3673595   0.52  0.002249046    2.575    0.612
       302 -11.1814    101.0955     28.6222   6.8544791017e+01   5.5831926179e+01    0.2693536     0.234859 -36.39 0.0003718991    1.276    0.216
       303  -9.7191    110.4725     34.2332   6.8174650643e+01   5.3032067677e+01     0.317446    0.1131405 -39.27  0.001123337    2.940    0.660
       304  -9.3043     57.2674     34.9955   8.6155330473e+01   6.2671988043e+01    0.1778543    0.1442239 -53.48  0.001055811    1.583    0.368
       305 -10.1411     56.0166     31.0335   8.4997757442e+01   6.3511661816e+01    0.2646498    0.1580725 -27.83 0.0009502133    1.509    0.337
       306  -9.3945    156.6634    245.7184   1.0668858241e+02   3.4292487455e+00     0.114918   0.08118027  22.14 0.0002804726    1.620    0.383
       307 -10.5370    147.6032    245.2025   1.0824183822e+02   4.9424045051e+00    0.1434613    0.1112936 -32.71 0.0009565572    1.753    0.429
       308 -11.0329     10.5465     34.3034   1.0597991753e+02   6.7557484111e+01      0.47816    0.2041697  19.85  0.002575197    2.786    0.641
       309 -10.9513      7.2624     30.1889   1.0614948437e+02   6.8548390789e+01    0.3145385    0.1786531 -38.15 0.0007232474    1.360    0.265
       310 -11.3356     73.9999    233.0085   1.2012772160e+02   1.7920067396e+01    0.2424485    0.1857474  55.30   0.00104934    1.148    0.129
       311 -10.8211     17.4400     31.1662   1.0176569522e+02   6.7677322380e+01    0.3246412    0.1942526  33.65  0.001969564    2.172    0.540
       312  -9.7966     13.5252     28.5353   1.0264248252e+02   6.8453542489e+01    0.1839556    0.1375404  11.96  0.001175696    1.540    0.351
       313  -9.3819     16.4905     26.5756   1.0052072769e+02   6.8596617407e+01    0.1866641    0.1108065 -39.84 0.0001001952    1.269    0.212
       314 -11.2978     20.6711     18.7020   9.5314753996e+01   6.9633863570e+01    0.3129628    0.1999111   8.00  0.001045319    1.670    0.401
       315 -11.4852     74.8304    240.0089   1.2056172164e+02   1.6595343723e+01    0.2982477    0.2784982 -34.48  0.002115326    1.752    0.429
       316  -9.6076    206.0010     33.9453   4.9770896250e+01   2.9148846562e+01    0.1685316    0.1580208 -72.04  0.000965156    1.005    0.005
       317  -9.6354    150.9721     34.4900   5.8821057932e+01   4.3287567849e+01    0.2243086    0.1401868  58.30 0.0006439331    1.532    0.347
       318  -9.6210    129.5863     32.6750   6.2764535258e+01   4.8829475729e+01    0.1919744    0.1345105 -36.14 0.0008344053    1.483    0.326
       319  -9.3298     60.4632     33.4953   8.4292217471e+01   6.2461605171e+01    0.1304538    0.1110759 -18.37 3.527126e-05    1.064    0.060
       320 -11.2050     73.7718    237.0185   1.2050083079e+02   1.7250870112e+01    0.2918851    0.2361946  13.32   0.00195785    2.187    0.543
       321 -10.0765     42.9712     31.8618   9.0701194503e+01   6.5072585742e+01    0.1877384    0.1504698 -19.59 0.0004923044    1.038    0.036
       322  -9.5887    168.7180     30.0968   5.4123631388e+01   3.9274824170e+01    0.1944976    0.1860299 -14.03 0.0003068104    1.100    0.091
       323  -9.7602    139.5711     30.2497   5.9663980173e+01   4.6701453358e+01    0.1988023    0.1397052  -6.11 0.0009401021    1.627    0.385
       324 -10.5280    112.3218     24.6607   6.3886989059e+01   5.3885906797e+01    0.4197436     0.231703  22.76  0.001127632    2.356    0.575
       325 -10.3299    109.2382     28.8386   6.6371224198e+01   5.4041363742e+01    0.2173498    0.2013791 -28.35 0.0003434698    1.178    0.151
       326 -10.5991    108.0819     24.8217   6.5059871433e+01   5.4814089843e+01    0.2955281    0.1890921 -37.51  0.001127303    1.676    0.404
       327  -9.3805    115.5281    244.5195   1.1387016841e+02   1.0024957743e+01    0.1163004    0.0914167  52.85 0.0003605786    1.035    0.034
       328 -10.9245     37.3437    242.6885   1.2696909153e+02   2.0785914871e+01     0.234131    0.1231746  50.64  0.001596574    1.475    0.322
       329 -10.5318     35.4988    239.5011   1.2708182555e+02   2.1543696549e+01    0.3158696     0.177002 -57.50  0.002041373    2.499    0.600
       330 -10.4461    156.4407    241.2758   1.0616853935e+02   4.0978389475e+00    0.1389537    0.1158706 -75.74 0.0009474481    1.578    0.366
       331  -9.8151     88.6427    241.1655   1.1826930516e+02   1.4500378559e+01    0.1396363   0.09871306 -59.15 0.0009424133    1.764    0.433
       332  -9.2930     47.2472    241.3622   1.2528845474e+02   1.9859501837e+01   0.08868007   0.07621912 -69.78 0.0006079138    1.609    0.378
       333  -9.2996     50.3205    240.3091   1.2471533729e+02   1.9671771602e+01   0.08647586   0.08383143 -79.78 0.0003695026    1.643    0.391
       334 -11.0839    214.5205     27.3476   4.6915772809e+01   2.7828935899e+01    0.2870327    0.2421326 -39.60 0.0002085728    1.169    0.145
       335  -9.7969    152.9796     28.3218   5.6318991180e+01   4.3556780904e+01    0.2389742    0.1204505  88.80 0.0007050366    4.355    0.770
       336  -9.3812    247.6848     27.3304   4.3478443949e+01   1.9915126806e+01    0.1443577   0.08425582 -59.48 0.0003813784    1.680    0.405
       337  -9.5130    130.7325     26.4659   6.0190978279e+01   4.9342793019e+01    0.2408182    0.1565245  27.27  0.001045212    1.709    0.415
       338 -10.4358    127.0599     23.2082   5.9781703186e+01   5.0619783833e+01    0.5437506     0.266668  71.67 0.0009106217    2.863    0.651
       339 -10.7413    134.8567     22.8804   5.7970027516e+01   4.8760137071e+01    0.3635417    0.2083278  35.41  0.001052784    1.864    0.464
       340 -10.8480    130.2171     20.0646   5.7899812301e+01   5.0216005030e+01    0.4260876    0.2979904 -72.13  0.001334553    2.062    0.515
       341 -11.6750     70.5606     25.5983   7.7109433412e+01   6.2089314545e+01    0.3029294     0.244899  21.62  0.001848227    1.189    0.159
       342  -8.9545    243.2807     26.3097   4.3644986568e+01   2.1045722788e+01     0.122222    0.1027083  26.25 0.0001437219    1.563    0.360
       343 -10.3545    195.5997    238.4680   9.8743638955e+01  -1.8458597427e+00     0.251055     0.173937  21.92  0.001513635    1.350    0.259
       344 -11.8036    224.7043    247.2705   9.5001397448e+01  -7.3808138687e+00    0.4217016    0.2073721 -22.04  0.002325292    2.534    0.605
       345 -10.9236     48.9065     30.9651   8.7848018319e+01   6.4488452831e+01    0.4359762    0.2273409 -26.56  0.002152683    1.919    0.479
       346 -10.6079     94.7913     24.2582   6.8563492608e+01   5.7722504243e+01    0.3593126    0.1669559  51.40  0.001556644    2.176    0.540
       347 -11.0934    120.2570     21.3684   6.0632206461e+01   5.2450545885e+01    0.2767376    0.2239123   9.36 0.0002803775    1.245    0.197
       348  -9.8945     54.2976     23.8491   8.2547382482e+01   6.4897003704e+01    0.1941674    0.1638329  23.64 0.0007146178    1.296    0.228
       349  -9.0073     35.2640     22.8354   9.0251832209e+01   6.7487453576e+01    0.2922424    0.1304862  18.73  0.001338399    2.997    0.666
       350  -8.8254    146.2819     26.2833   5.6890144438e+01   4.5506792290e+01    0.1463979    0.1039036  30.13            0    1.517    0.341
       351  -9.5808     28.5807     21.8075   9.2876039859e+01   6.8365593387e+01      0.32028    0.1278085 -29.09  0.001405889    2.769    0.639
       352 -10.6865    191.0402     21.0350   4.8032157755e+01   3.4545685807e+01    0.2180411    0.2004704 -81.27 0.0004349276    1.038    0.037
       353 -10.0583     65.6284     20.6679   7.6693854596e+01   6.3614204577e+01    0.2642846     0.206715  58.11  0.000838928    1.886    0.470
       354 -10.3761     45.3829     20.7169   8.4835648538e+01   6.6600108854e+01    0.2425136    0.1700746  32.24  0.001212867    1.580    0.367
       355  -9.4157    135.3727    237.3063   1.0950376463e+02   8.0759108418e+00     0.116569   0.08757138  18.41 0.0007032075    1.765    0.433
       356 -10.0312    161.9130     19.8772   5.1916403057e+01   4.2234954261e+01    0.2159854    0.1782975  39.42  0.001163905    1.221    0.181
       357 -10.6481    197.1248     24.9754   4.8384423528e+01   3.2521618607e+01    0.2091347    0.1950579 -79.48 0.0003345598    1.013    0.013
       358 -10.1885    215.9610     16.8159   4.3956940771e+01   2.8702374519e+01    0.5193112   0.09284915  60.39   0.00159367    4.203    0.762
       359 -10.1481    108.1718     17.0174   6.1833252223e+01   5.5717215684e+01    0.2131832    0.1887217  10.83  0.001265145    1.052    0.050
       360 -11.3811     29.7141    233.5456   1.2767862117e+02   2.3229908913e+01    0.3815124    0.1746713  85.61  0.002305648    2.021    0.505
       361 -10.7428     10.1546     15.5391   9.9242737459e+01   7.1014264610e+01    0.2089716    0.1365725 -25.33 0.0005752743    1.241    0.194
       362  -9.6155     50.2661     15.4010   8.0261013563e+01   6.6713407468e+01    0.2277332    0.1091122  33.38  0.001146643    2.150    0.535
       363 -10.2539    159.9034    235.8965   1.0483718805e+02   4.3176197784e+00    0.1879755    0.1456336  26.64 0.0007134038    1.292    0.226
       364 -11.1347    178.5130    243.7272   1.0253306695e+02   2.0771659530e-01    0.2650156    0.1190403  49.50  0.001306429    2.178    0.541
       365 -10.2632    177.5657    234.8289   1.0146320573e+02   1.5692062705e+00    0.2313299    0.1639953  21.44 0.0009472102    1.456    0.313
       366 -11.3147    153.5654    233.8901   1.0573592913e+02   5.6556453775e+00    0.2335386    0.1991455 -28.82 0.0008353167    1.488    0.328
       367 -10.2780    109.6022    243.0761   1.1477042154e+02   1.1143856738e+01    0.2539362    0.1577127  70.87 0.0009641246    1.749    0.428
       368 -10.1189    167.0562    233.7116   1.0322828133e+02   3.4597676625e+00    0.1754832    0.1347776  39.02 0.0007672658    1.054    0.051
       369 -10.9130    169.0933     13.1404   4.8630784682e+01   4.1086025399e+01    0.2460112    0.1824413  63.40 0.0004221777    1.240    0.194
       370  -9.3951     90.0371     13.0176   6.5063834815e+01   6.0046551029e+01    0.1570667    0.1332767  22.36  0.000341944    1.041    0.039
       371 -10.4220     85.9977    232.9692   1.1799510193e+02   1.6272216325e+01    0.1830566    0.1389769  62.52 0.0005986075    1.023    0.022
       372  -9.7936     24.1179    232.2998   1.2851665163e+02   2.4053267061e+01    0.1614299    0.1122789 -86.30 0.0005730829    1.312    0.238
       373  -9.6736    142.0499    232.2286   1.0765118277e+02   7.7958565477e+00    0.1661151   0.08445368  41.82  0.000429061    1.615    0.381
       374  -9.9343     79.9948    231.7475   1.1895642333e+02   1.7324446359e+01    0.1852977    0.1181266  62.28  0.000667212    1.295    0.228
       375  -9.4370     58.0223    230.2202   1.2269909518e+02   2.0498503893e+01    0.1403065   0.07569548  44.46 0.0003658601    1.620    0.383
       376 -10.0659      5.1948    226.8601   1.3127094292e+02   2.6922045546e+01    0.3963464    0.1336501  69.97  0.002107566    2.662    0.624
       377 -10.1554    190.5249    227.3802   9.7991020543e+01   4.5760659353e-01     0.330043    0.1228297 -41.17  0.001477495    3.204    0.688
       378  -9.8754    248.7303    227.6252   8.7800749374e+01  -8.7598463767e+00    0.1912209    0.1097965  11.69 0.0009585979    1.754    0.430
       379  -9.9035    129.7834    226.7312   1.0925546294e+02   1.0679999156e+01    0.2664899    0.1176193  56.38  0.001176817    2.565    0.610
       380 -10.9620    120.1973    226.6693   1.1105139340e+02   1.2226379736e+01    0.1948773     0.125444  55.90 0.0006390439    1.364    0.267
       381  -9.9751     87.8361    227.1530   1.1711361790e+02   1.7036467404e+01    0.1442944     0.136239  66.96   0.00107416    1.324    0.245
       382 -10.2924     66.4944    226.3107   1.2089756453e+02   2.0117561477e+01    0.2507333     0.126362  46.42 0.0009048435    1.650    0.394
       383  -9.1611     37.6903    224.7016   1.2581434566e+02   2.3938093134e+01   0.08989536   0.08132435 -68.82 0.0004585479    1.597    0.374
       384 -10.4952    123.4365    222.2684   1.0990710793e+02   1.2462736179e+01    0.2031618    0.1474182 -63.13 0.0006996354    1.588    0.370
       385  -9.0514     80.6764    223.3446   1.1806302477e+02   1.8737670216e+01     0.127274   0.07190776  68.02 0.0007050334    1.736    0.424
       386 -10.3470    141.3097    221.3246   1.0636542096e+02   9.6825556059e+00    0.2464407    0.1897809  17.59  0.001471536    1.643    0.391
       387 -10.2222     13.4529    221.9171   1.2971067916e+02   2.7020848094e+01    0.1522726    0.1084622  69.04 0.0008720868    1.083    0.077
       388 -10.2994     21.9470    220.6376   1.2823397959e+02   2.6398326408e+01    0.1490508     0.103935  67.08 0.0004620855    1.085    0.078
       389  -9.3186     41.6686    220.7098   1.2485903480e+02   2.4221568092e+01   0.09121383   0.08472671 -62.19 0.0007018966    1.626    0.385
       390  -9.3962    250.5023    219.4467   8.6095025310e+01  -8.0998012474e+00    0.1214492   0.09123965  11.91 9.957655e-05    1.032    0.031
       391  -9.9534    174.7040    219.2735   9.9691025535e+01   4.3148294759e+00    0.3355832    0.1314717  35.33  0.001402062    2.496    0.599
       392  -9.9305     25.7473    225.4082   1.2786979552e+02   2.5121706877e+01    0.1941587    0.1438274 -47.53  0.001366481    2.322    0.569
       393 -10.7921      9.6589    217.0536   1.3009092815e+02   2.8287758987e+01    0.2712058    0.1379015  60.37  0.001171643    1.506    0.336
