#   1 NUMBER                 Running object number                                     
#   2 MAG_AUTO               Kron-like elliptical aperture magnitude                    [mag]
#   3 X_IMAGE                Object position along x                                    [pixel]
#   4 Y_IMAGE                Object position along y                                    [pixel]
#   5 X_WORLD                Barycenter position along world x axis                     [deg]
#   6 Y_WORLD                Barycenter position along world y axis                     [deg]
#   7 A_WORLD                Profile RMS along major axis (world units)                 [deg]
#   8 B_WORLD                Profile RMS along minor axis (world units)                 [deg]
#   9 THETA_WORLD            Position angle (CCW/world-x)                               [deg]
#  10 FWHM_WORLD             FWHM assuming a gaussian core                              [deg]
#  11 ELONGATION             A_IMAGE/B_IMAGE                                           
#  12 ELLIPTICITY            1 - B_IMAGE/A_IMAGE                                       
         1 -11.1751    103.8922     30.5720   8.9335154875e+01   5.5511665740e+01    0.4810175    0.2624222  60.80  0.001557684    2.183    0.542
         2 -12.2615    216.6868     16.2407   6.4579502622e+01   2.8729004924e+01    0.4888357    0.4133522 -88.52  0.001552615    1.080    0.074
         3 -12.0506     43.2007     20.0984   1.0653931335e+02   6.7571701337e+01    0.5351763    0.3198202  27.44  0.002088058    1.762    0.432
         4 -13.3998    189.2914      8.4479   6.5399392567e+01   3.6612407234e+01    0.7445925    0.3878007  88.37  0.003175882    2.120    0.528
         5 -12.2875     59.2304      7.3935   9.3661600673e+01   6.6986548021e+01    0.5290526    0.3012823  38.52  0.002011089    1.696    0.410
         6 -11.5763     43.7604      8.5293   1.0069156070e+02   6.9172972816e+01    0.2733908    0.2192551  21.85  0.001124472    1.266    0.210
         7 -11.9364    165.9812      1.9406   6.6284428264e+01   4.3333326506e+01    0.5885272    0.1861429  73.41  0.001999874    3.137    0.681
         8 -10.3033    103.6400    225.1791   1.3383617726e+02   1.6086604723e+01    0.1493476    0.1083979 -56.39 0.0009484383    1.712    0.416
         9 -10.2856     14.4861    250.4363   1.5078956502e+02   2.3170900482e+01    0.1009681   0.06481505  67.21 0.0001500489    1.013    0.013
        10 -10.9722     95.7288    224.8503   1.3528091105e+02   1.7347601569e+01    0.3136178    0.1380114  57.32  0.001539404    2.141    0.533
        11 -10.9278    149.2856    222.3778   1.2486144096e+02   9.0814843350e+00    0.3251632    0.2129343 -57.75  0.001890149    1.898    0.473
        12 -10.6439    226.4780    221.4904   1.1061491513e+02  -3.9294483581e+00    0.1213217   0.09723797  23.26 9.459884e-05    1.031    0.030
        13 -10.3476    211.3925    218.2234   1.1272637036e+02  -1.0292296913e+00    0.1529572    0.1170314 -45.00  0.000923297    1.711    0.416
        14  -9.9164    218.6640    212.3391   1.1045131722e+02  -1.4863597359e+00    0.1143186   0.09810276  70.31 0.0007051285    1.754    0.430
        15 -10.6104    115.8197    209.9962   1.2974114543e+02   1.6858349521e+01    0.2101063    0.1317734  79.40  0.001085859    2.010    0.502
        16 -10.7061    185.9910    204.2900   1.1510963462e+02   5.4123337010e+00    0.2434442    0.1701576 -76.49  0.001178695    2.684    0.627
        17 -10.2310     49.3251    202.6617   1.4204745429e+02   2.7900352170e+01    0.1276696   0.06702942  68.02 0.0007051355    1.724    0.420
        18 -10.7547      5.5905    199.4870   1.4995271299e+02   3.3159995714e+01    0.2116146    0.0952281  56.23 0.0007465618    1.753    0.430
        19 -10.3619    112.3197    197.6367   1.2885362288e+02   1.9760726971e+01    0.1396588   0.08884864  72.03 0.0007041034    1.776    0.437
        20  -9.5874     12.3126    197.2898   1.4862344395e+02   3.2965598576e+01   0.09283029   0.07540074 -66.26 0.0002651764    1.586    0.370
        21 -12.1634    159.8092    192.6261   1.1831868795e+02   1.2195599849e+01    0.5431896    0.3977353 -89.22  0.002722837    1.983    0.496
        22 -10.6016    183.4816    183.2841   1.1190374283e+02   9.2749173040e+00    0.3450619    0.1371926 -39.49   0.00135903    2.852    0.649
        23 -10.0523    224.3082    183.6725   1.0424000292e+02   1.4758196719e+00    0.1195461    0.1073716 -88.04 0.0007038524    1.657    0.396
        24  -9.9352    210.3901    182.7990   1.0662048166e+02   4.1863770185e+00    0.1887659    0.1232923 -21.81  0.000958464    1.735    0.424
        25 -10.2619    100.9947    176.0004   1.2826453981e+02   2.6021670001e+01     0.187471    0.1630537  71.71            0    1.006    0.006
        26 -11.2325     34.8284    173.7108   1.4250890826e+02   3.5536326968e+01    0.2968183     0.127611  62.92  0.001440648    2.377    0.579
        27 -10.9052    120.9923    168.6609   1.2261159803e+02   2.4096784433e+01    0.2854348     0.148939 -67.46  0.001179715    2.446    0.591
        28 -10.3361     55.4341    167.3302   1.3736651068e+02   3.4533656226e+01    0.2265595    0.1233624  58.63  0.001185325    1.769    0.435
        29 -11.7190    106.1413    157.6285   1.2417220269e+02   2.9115930700e+01    0.5809752    0.3706192  86.10  0.002627377    2.097    0.523
        30 -10.8401    167.6644    157.5282   1.1013249042e+02   1.7128630472e+01    0.3244237    0.2202595 -83.89  0.001331659    2.561    0.610
        31 -10.8211    119.5231    156.8674   1.2087667178e+02   2.6877888269e+01    0.3127138    0.1738078  57.47  0.001344383    1.962    0.490
        32 -10.7419     28.7399    156.2746   1.4223884333e+02   3.9952745945e+01    0.2973413    0.1342663  76.72  0.001381643    2.548    0.608
        33 -10.2208    218.3157    156.6714   9.9835411393e+01   6.7595461520e+00    0.1340753    0.1135451 -78.19  0.000384738    1.677    0.404
        34 -10.1725      6.7683    155.9652   1.4708349410e+02   4.1966079490e+01    0.1526167   0.07335564 -78.87 0.0007177217    1.627    0.385
        35  -9.7169     40.0172    152.5060   1.3924283262e+02   3.9629109079e+01    0.1769648   0.07675193  56.84 0.0008094704    2.458    0.593
        36 -10.5437    189.6397    149.9589   1.0392059485e+02   1.3881977396e+01    0.2889493    0.1888447 -54.78  0.001302518    1.868    0.465
        37 -11.1894    107.5186    145.7975   1.2171384874e+02   3.1502110420e+01    0.5280215    0.2892467  74.90   0.00181828    3.549    0.718
        38 -10.3225    148.9415    145.4432   1.1174218680e+02   2.3474075330e+01    0.3129888    0.1910565 -84.27  0.001047255    3.593    0.722
        39 -10.4542     55.3406    145.6561   1.3469358582e+02   3.9416057513e+01    0.1401772    0.0851907  72.71 0.0007048015    1.781    0.438
        40 -11.6983     82.8213    129.8711   1.2504180344e+02   3.9273373720e+01    0.6420667    0.1717275 -60.07  0.002004289    3.784    0.736
        41 -11.9428     98.8616    128.6650   1.2054536057e+02   3.6919530152e+01    0.5440283    0.3229882 -86.98  0.002092587    2.803    0.643
        42 -11.3771     43.0580    122.3826   1.3455367542e+02   4.6207728662e+01     0.558338    0.2515143 -85.70  0.002201136    3.115    0.679
        43 -11.3525     28.0017    122.5790   1.3866522275e+02   4.7634187672e+01    0.4500748    0.1853216  83.71  0.001566957    4.459    0.776
        44 -11.5557    193.2272    118.7423   9.5872645210e+01   1.8816797667e+01    0.6050925    0.4493288 -72.36  0.002727001    1.830    0.454
        45 -10.5094     71.4746    120.4738   1.2634800507e+02   4.3142995633e+01    0.4002457    0.2172602  82.96  0.001445721    3.548    0.718
        46 -10.6370     37.7970    121.0848   1.3580262361e+02   4.7051470849e+01    0.1832038    0.1661605  78.25 0.0003267937    1.155    0.134
        47 -10.6661     14.5244    120.6349   1.4201872582e+02   4.9183283118e+01    0.1769972    0.1124821  28.77  0.001099317    1.936    0.483
        48 -11.4509    140.9706    114.8303   1.0649726242e+02   3.1649040602e+01    0.6663403    0.2096631 -40.02  0.001941542    3.634    0.725
        49 -10.7615    108.6894    113.3441   1.1449048702e+02   3.8626893957e+01    0.5086163    0.2076578 -62.50  0.001513345    3.945    0.747
        50 -10.7862     78.1486    112.2624   1.2279566255e+02   4.4081717584e+01    0.2806427    0.1780818 -86.27  0.001247261    2.148    0.535
        51 -10.7851    174.5887    111.3261   9.7838156407e+01   2.4608327597e+01    0.3773195    0.2708622 -45.85  0.001725551    1.416    0.294
        52 -12.0321    159.6435    111.2800   1.0114430731e+02   2.8139694810e+01    0.5091317    0.3800295 -53.33  0.002364019    1.412    0.292
        53 -10.3673     91.6212    111.8347   1.1886318793e+02   4.2028708048e+01    0.2157459    0.1303001 -65.19 0.0009577326    1.765    0.433
        54 -11.9318     15.0027    110.7489   1.4071452003e+02   5.1386606145e+01    0.5167522    0.2618102  66.92   0.00263774    2.407    0.585
        55 -12.3422    140.8226    104.9525   1.0395912985e+02   3.3763193169e+01    0.3973095    0.2755736  52.52  0.001792668    1.461    0.315
        56 -10.0203     59.8109    109.8357   1.2762574643e+02   4.7188050774e+01    0.1818626    0.1456729  85.83 0.0005149342    1.301    0.231
        57 -11.8989    112.0215    101.2902   1.1053729530e+02   4.0664890939e+01    0.3773614    0.2764804  63.91  0.001193989    1.589    0.371
        58 -11.5380    107.2950     98.4706   1.1110857034e+02   4.2206401181e+01    0.5872993    0.3267248 -63.26  0.002188859    2.315    0.568
        59 -12.2397     43.8936    100.4448   1.3059511081e+02   5.1208526583e+01      0.69398    0.3640392  88.14  0.002821027    3.170    0.685
        60 -10.4082     81.6523    100.3632   1.1906239300e+02   4.6280370359e+01    0.2191582    0.1654043  84.10 0.0009148872    1.656    0.396
        61 -10.7809     19.8297     98.3571   1.3759670918e+02   5.3844253239e+01    0.2872046    0.1251496 -84.89  0.001241099    2.794    0.642
        62 -11.0291     62.9917     95.7168   1.2367747332e+02   5.0040181143e+01    0.2905558    0.1684791 -85.13  0.001187252    2.812    0.644
        63 -12.9842    170.1186     90.7972   9.3235839832e+01   2.9609959654e+01    0.4137778    0.3574222  82.19 0.0009208092    1.276    0.216
        64 -10.2148    151.3096     89.6506   9.7143542149e+01   3.4419527013e+01    0.1634499    0.1236001 -76.10 0.0003704352    1.713    0.416
        65 -11.8288    128.0160    101.5370   1.0630052323e+02   3.7306145693e+01    0.4662001    0.2506532 -57.10  0.001779665    2.208    0.547
        66 -11.7275     41.4008     88.0451   1.2890451234e+02   5.4300461218e+01     0.299058    0.1882374   4.79  0.001544686    2.355    0.575
        67 -10.0061    173.4648     86.4738   9.1300991842e+01   2.9576511908e+01    0.2264854    0.1885764   9.19 0.0005284065    1.445    0.308
        68 -11.6091     86.9337     87.0107   1.1400533263e+02   4.8405650880e+01    0.4289187    0.2271888  51.08  0.001812738    2.261    0.558
        69 -11.1093    104.4918     83.3431   1.0766409076e+02   4.6002715916e+01    0.3692735    0.2425382 -71.97  0.001534391    2.287    0.563
        70 -10.1844    140.7640     83.0251   9.7743172865e+01   3.8215788127e+01    0.2152784    0.1294259 -40.25  0.000890793    1.659    0.397
        71 -10.9127     23.8064     79.5636   1.3305976254e+02   5.7771780121e+01    0.3576179    0.1552784 -80.22  0.001444459    3.273    0.695
        72 -11.2937     46.8108     81.5244   1.2564141760e+02   5.5196627197e+01    0.6259702    0.3276983 -66.25   0.00267008    1.899    0.473
        73 -11.0900     62.4952     70.0077   1.1718405464e+02   5.5789375776e+01    0.2817387    0.1116992 -47.73  0.001163286    2.196    0.545
        74 -11.2915     82.3505     73.2789   1.1147244553e+02   5.2107176205e+01    0.3572495    0.2381677 -82.98  0.001484595    2.785    0.641
        75 -11.2719    223.5220     71.0425   7.8208018315e+01   1.9659165729e+01     0.338473    0.2565358  89.98 0.0005686245    1.520    0.342
        76 -10.0475    219.9201     66.0221   7.7414031880e+01   2.1303591476e+01     0.318543    0.2335563   4.55   0.00147945    1.886    0.470
        77 -10.0257    115.6651     72.3423   1.0105459776e+02   4.5947316060e+01    0.1542854    0.1197552 -80.51            0    1.760    0.432
        78 -10.7745     51.5154     69.9436   1.2103980632e+02   5.7196278664e+01    0.2958783    0.1207164 -60.27  0.001203399    2.541    0.607
        79 -13.5397     27.8122     59.7740   1.2711094636e+02   6.1744581092e+01    0.8164978    0.7302462  44.27  0.005777201    1.393    0.282
        80 -11.5951      9.4074     57.4779   1.3370722699e+02   6.3518933442e+01      0.51858    0.3054257  57.70  0.002909101    2.574    0.611
        81 -10.4234     72.6650     58.3470   1.0994230128e+02   5.6684199715e+01    0.1334672    0.1084854 -85.11   0.00070486    1.773    0.436
        82 -11.4167    232.1557     60.2989   7.4238177524e+01   1.9182833384e+01    0.3295947    0.1334423  66.78  0.001225725    2.754    0.637
        83 -11.2151    149.7588     52.5974   8.5964009984e+01   4.1392947336e+01    0.2640395    0.1890907  67.17 0.0005127551    1.481    0.325
        84 -11.2638     39.6408     52.7919   1.2048152949e+02   6.2080644242e+01    0.2365512     0.160473 -26.84 0.0008392438    1.500    0.333
        85 -10.6113     92.0000     50.0156   1.0048316895e+02   5.4876038046e+01    0.2356956   0.07629479 -39.32 0.0008061528    2.968    0.663
        86 -11.1529     82.5423     45.1667   1.0177998484e+02   5.7462872555e+01    0.3082115    0.2297998 -37.26 0.0005871049    1.280    0.219
        87 -10.2433    157.0376     44.9655   8.1916641108e+01   4.0683672698e+01    0.2280356    0.2145095  61.76 0.0004297936    1.028    0.027
        88 -10.0512      9.9636     44.0000   1.3020644322e+02   6.6262176029e+01    0.1763687    0.1128138  12.87 0.0006780421    1.894    0.472
        89 -10.5477      5.6483     42.5588   1.3168564574e+02   6.6794148515e+01    0.2678446    0.1677186  77.94  0.001481338    2.748    0.636
        90 -11.7138     71.0982     42.3104   1.0469564464e+02   5.9900256868e+01    0.5389698    0.3042479  55.58  0.002399396    2.731    0.634
        91 -10.4657     30.6643     35.6802   1.1851148065e+02   6.6289796675e+01    0.1274733   0.07573479 -25.62 0.0007049544    1.704    0.413
        92 -10.7741    119.6374     33.4978   8.6263809453e+01   5.1569948239e+01     0.306276    0.2396035 -56.26  0.001577177    1.550    0.355
        93 -11.9170     42.5236     38.6462   1.1449119212e+02   6.4497686321e+01    0.3582763    0.3190593 -33.04  0.001444611    1.137    0.121
        94 -11.3742    221.1429    249.1429   1.1579170804e+02  -6.2594185324e+00    0.1835626    0.1252368  21.40  0.001251289    1.241    0.194
        95 -10.2548    239.8425     20.8908   6.3528957223e+01   2.2523094514e+01    0.1848177    0.1783209  72.16 0.0005151178    1.210    0.174
        96 -12.1988     24.4177    241.5459   1.4886598118e+02   2.3607560279e+01    0.4165267     0.132116  65.55  0.002116623    2.880    0.653
        97 -10.4781      7.5345    240.5134   1.5145142432e+02   2.5526345873e+01    0.1010425   0.06639411  69.96 0.0003615973    1.011    0.011
        98 -11.7171     29.9286    233.4986   1.4756581570e+02   2.4396534364e+01    0.4650813    0.1639603  66.61  0.001935938    2.657    0.624
        99 -11.0362     12.7650    227.2042   1.5006279711e+02   2.7319887394e+01    0.1787051    0.1155241  70.16 0.0005527451    1.059    0.056
       100 -10.2959     76.5120    225.9798   1.3893340373e+02   1.9925835962e+01    0.1911849    0.1234083  50.26  0.001232409    1.271    0.213
