#   1 NUMBER                 Running object number                                     
#   2 MAG_AUTO               Kron-like elliptical aperture magnitude                    [mag]
#   3 X_IMAGE                Object position along x                                    [pixel]
#   4 Y_IMAGE                Object position along y                                    [pixel]
#   5 X_WORLD                Barycenter position along world x axis                     [deg]
#   6 Y_WORLD                Barycenter position along world y axis                     [deg]
#   7 A_WORLD                Profile RMS along major axis (world units)                 [deg]
#   8 B_WORLD                Profile RMS along minor axis (world units)                 [deg]
#   9 THETA_WORLD            Position angle (CCW/world-x)                               [deg]
#  10 FWHM_WORLD             FWHM assuming a gaussian core                              [deg]
#  11 ELONGATION             A_IMAGE/B_IMAGE                                           
#  12 ELLIPTICITY            1 - B_IMAGE/A_IMAGE                                       
         1  -8.4513     55.6867     10.1277   7.5538314660e+01   6.8464939722e+01    0.1972385    0.1887322  51.34 0.0005970144    1.302    0.232
         2  -7.9441     47.5699      9.8414   7.9151072959e+01   6.9945323705e+01    0.1841146    0.1136339 -43.82 0.0009324874    1.707    0.414
         3  -8.3721     90.5176      9.1333   6.2630840534e+01   6.1214454864e+01    0.2177146    0.1980282 -59.96 0.0006220429    1.300    0.231
         4  -7.6525    101.4464      8.4490   5.9448440882e+01   5.8659478234e+01    0.1395295    0.1349517   3.21 8.741856e-05    1.066    0.062
         5  -7.8610    171.0596      7.0788   4.7426512074e+01   4.0626406655e+01    0.1651899     0.159331 -23.10 0.0005347924    1.042    0.040
         6  -8.9496    137.4756      6.3457   5.1533489329e+01   4.9585197574e+01    0.2680828    0.2145704  86.55 0.0002759278    1.335    0.251
         7  -8.4923     33.3051      5.0059   8.3765591147e+01   7.2965072796e+01    0.3320984    0.1754193 -55.38  0.001392328    3.213    0.689
         8  -8.5083     79.2341      4.3016   6.3326195852e+01   6.4352728175e+01    0.2700919    0.1663416 -32.94 0.0008418708    1.629    0.386
         9  -8.3074     62.4173      1.4698   6.7429421423e+01   6.8298493941e+01    0.1952365    0.1346031  67.72 0.0004740811    1.934    0.483
        10  -8.8610    169.2108    243.4777   1.0283969940e+02   7.5544270434e+00     0.200619    0.1861228 -51.95  0.001019871    1.630    0.386
        11  -9.9192    248.6455    242.4193   9.0292257343e+01  -2.2998919560e+00    0.3031825    0.1497403 -28.57  0.001875866    2.339    0.573
        12  -9.3148    211.3550    247.3636   9.6524205572e+01   1.7773018677e+00    0.2541862    0.2107762 -61.99  0.001738991    2.856    0.650
        13  -8.6287    201.6471    249.3872   9.8288273127e+01   2.8009631437e+00    0.2681139    0.1252204  16.17  0.001477494    2.722    0.633
        14  -8.8671    132.7556    248.3136   1.0951030693e+02   1.1702619865e+01    0.2581196    0.1554495  58.79  0.001152306    2.098    0.523
        15  -7.5737    125.2923    250.6459   1.1099733319e+02   1.2356331468e+01    0.1004521   0.06371607  55.88  0.000410369    1.682    0.406
        16  -8.5338     93.8732    249.7066   1.1629380873e+02   1.6292133570e+01    0.1863411    0.1027809  64.86  0.001222765    2.173    0.540
        17  -8.9708    147.0873    245.9742   1.0683833718e+02   1.0148207860e+01    0.2161516    0.1547362  79.20   0.00112954    2.609    0.617
        18  -8.6870    146.9399    240.3749   1.0627503378e+02   1.0831230103e+01    0.2938053    0.1898118  68.36  0.001775765    2.851    0.649
        19  -9.0277    120.0077    245.3562   1.1142699289e+02   1.3677674502e+01    0.2561397    0.1661026  66.45  0.001699611    2.041    0.510
        20  -8.3511     68.0231    245.8829   1.2048525318e+02   1.9763209586e+01     0.253053    0.1193036  71.73  0.001505749    2.781    0.640
        21  -9.3734    192.3134    245.0257   9.9238160642e+01   4.4004290299e+00    0.3182236     0.158111  13.96  0.001760798    2.712    0.631
        22  -9.0761    194.0366    239.7834   9.8310638389e+01   4.7005829423e+00    0.1493226    0.1285106  19.58 0.0005418592    1.301    0.231
        23  -8.7248    194.7386    232.9758   9.7322664934e+01   5.3032393463e+00    0.1625009      0.15012 -75.36 0.0008707222    1.996    0.499
        24  -9.1655     78.0492    243.6971   1.1860682544e+02   1.8949339428e+01    0.3779281   0.09909462  51.80  0.001651049    3.932    0.746
        25  -8.8732      9.5274    244.4284   1.3027598185e+02   2.5711006267e+01    0.1557893   0.06204919  75.99 0.0008906474    2.337    0.572
        26  -8.6850    202.0070    242.7044   9.7401232406e+01   3.3866139759e+00    0.2402277    0.1420287 -30.01  0.001253864    2.051    0.513
        27  -8.2994     34.4258    244.1999   1.2613648888e+02   2.3478110818e+01    0.1269653   0.06993137  72.85 0.0009378347    1.690    0.408
        28  -9.4444    160.3322    240.6057   1.0400783045e+02   9.0411446285e+00    0.2407495    0.1912227 -86.59  0.001482702    2.326    0.570
        29  -8.0706     49.4860    242.9831   1.2351621441e+02   2.2155200215e+01    0.1352289   0.05878254  67.55 0.0008095591    2.467    0.595
        30  -9.2547    183.2489    239.9045   1.0008820272e+02   6.0982750536e+00     0.308817    0.2701956  65.04  0.002187202    1.868    0.465
        31  -8.0675    153.3984    242.1717   1.0536124862e+02   9.7715375530e+00    0.1144229    0.1024635 -76.80 0.0005547871    1.689    0.408
        32  -8.0503     88.4246    242.0903   1.1667579048e+02   1.7970728500e+01    0.1230675    0.0972633 -83.30 0.0004232454    1.555    0.357
        33  -8.4494    214.4864    241.0544   9.5227587281e+01   1.9590309218e+00    0.1327861   0.09079637 -16.09 0.0006163265    1.580    0.367
        34  -9.5092    135.5880    239.4183   1.0814529538e+02   1.2434514170e+01    0.2279433    0.1878062  39.56   0.00156128    1.130    0.115
        35  -8.9980    241.0325    239.0482   9.0937612315e+01  -1.1313855228e+00    0.2996644    0.1295241  -6.27  0.001562775    3.462    0.711
        36  -9.8109    127.6833    238.9914   1.0948773582e+02   1.3515198599e+01    0.2329509    0.1540165  30.72 0.0007769301    1.265    0.210
        37  -7.7793     41.3014    239.9545   1.2477860997e+02   2.3433178550e+01    0.1507159   0.05264877  73.81 0.0007038625    4.231    0.764
        38  -8.6870    230.8365    237.0742   9.2186596916e+01   2.7490963875e-01    0.1601491    0.1387798 -29.81 0.0008580891    1.917    0.478
        39  -8.2304    208.6107    238.2690   9.5783557554e+01   2.9655376780e+00    0.1249943   0.08508499  -6.89 0.0009373189    1.505    0.336
        40  -8.7846     25.7072    237.2014   1.2734261300e+02   2.5352244296e+01     0.230836   0.08571174  68.23  0.001355963    2.629    0.620
        41  -9.8670    214.7271    233.2102   9.4142363015e+01   2.6595233210e+00    0.3506334    0.2927386 -86.72  0.002248847    3.611    0.723
        42  -8.8283    203.3272    235.0123   9.6196805331e+01   3.9652857595e+00    0.1945028    0.1727068 -65.09  0.001344879    2.240    0.554
        43  -8.0298    204.2708    230.6133   9.5457150566e+01   4.2798720154e+00     0.185519   0.09393183  20.04 0.0007612402    1.941    0.485
        44  -9.8882    175.7314    233.4061   1.0054389788e+02   7.8027480435e+00    0.3254665    0.2046052 -53.46  0.002120162    2.662    0.624
        45  -8.5103    170.0868    235.2455   1.0172554927e+02   8.3544114812e+00    0.2188177     0.137602 -37.87  0.001078162    2.033    0.508
        46  -9.3907    109.2064    234.7126   1.1236976543e+02   1.6452958803e+01    0.4314878     0.154159  48.13  0.001808396    2.506    0.601
        47  -8.0656     57.9809    237.0000   1.2171139538e+02   2.2146806949e+01    0.1657315   0.04432924  34.38 0.0007294302    2.923    0.658
        48  -8.9572    247.7507    234.9664   8.9384571651e+01  -1.6002304444e+00    0.1698166    0.1071928  22.61 0.0007378845    1.143    0.125
        49  -8.4368     99.8107    234.5133   1.1404405479e+02   1.7657655060e+01    0.1893847     0.123536  73.15  0.001030528    1.926    0.481
        50  -8.8476     78.6196    234.4007   1.1785703007e+02   2.0222185557e+01    0.2070338    0.1319035  76.34  0.001051053    1.796    0.443
        51  -8.2424    122.9716    234.0372   1.0983580090e+02   1.4776429362e+01    0.1657182    0.1079605  58.78 0.0008270862    1.721    0.419
        52  -9.0933     68.5095    232.6849   1.1956160601e+02   2.1635710328e+01    0.3964953    0.1342638  58.27  0.001829652    3.654    0.726
        53  -8.8746    141.6219    231.0342   1.0619135622e+02   1.2697945789e+01    0.5249419    0.1975744  52.33  0.002128223    4.405    0.773
        54  -8.5191    132.7687    232.9459   1.0797410328e+02   1.3633294050e+01    0.1609925     0.109958  65.39   0.00107063    1.982    0.495
        55  -8.6089     92.9185    232.4206   1.1511642133e+02   1.8805163007e+01     0.205949    0.1197784  78.93  0.001261212    2.491    0.599
        56  -9.3162    186.3811    230.7493   9.8415959403e+01   6.6589045212e+00    0.2020703    0.1846671  79.51  0.001036923    1.892    0.471
        57  -8.8351    236.1219    230.8771   9.0524412837e+01   1.5944232714e-01    0.1684425    0.1320043   8.54 0.0006334054    1.241    0.195
        58  -8.9891      1.7562    230.9386   1.3122633911e+02   2.8413564013e+01     0.179413   0.08427957  64.79 0.0009879296    1.605    0.377
        59  -9.2559    246.4355    229.2296   8.8756001411e+01  -9.6813861378e-01    0.2276736     0.146824 -13.22 0.0009306878    1.481    0.325
        60 -10.0246    149.7934    226.3644   1.0420186298e+02   1.2182961039e+01    0.4558067    0.3044615  88.05  0.002407789    3.854    0.741
        61  -8.8959    230.5895    227.6378   9.0900877263e+01   1.1431322322e+00    0.4241556    0.1906687  -8.71  0.002188129    3.283    0.695
        62  -7.6611    196.3321    229.2896   9.6573280625e+01   5.4742105343e+00    0.1106945    0.0655744  15.83 0.0004053637    1.627    0.385
        63  -8.7062    162.0593    227.7749   1.0220296841e+02   1.0320158333e+01     0.205022    0.1524443  62.48  0.001184189    1.969    0.492
        64  -8.9205    127.9217    227.3415   1.0825727670e+02   1.5026253584e+01    0.2654862    0.1572784  57.66  0.001209226    2.005    0.501
        65  -8.1147    120.0184    227.9697   1.0976375213e+02   1.5989954156e+01    0.1702503    0.1091149  58.54 0.0009111344    1.723    0.420
        66  -9.2047      7.8654    227.7274   1.3009810205e+02   2.8411489892e+01    0.2405217   0.05812878  57.74  0.001263191    2.950    0.661
        67  -7.9118    223.4460    227.0348   9.1917073193e+01   2.1154929635e+00    0.1375814    0.0922107 -17.99 0.0004775526    1.561    0.360
        68  -7.8985    111.3056    227.6661   1.1133042890e+02   1.7171840049e+01    0.1094497   0.06864148  57.91 0.0003539643    1.666    0.400
        69  -8.3052     49.0151    226.6719   1.2273063574e+02   2.4685401126e+01    0.1811666    0.1059764  75.49  0.001268861    1.706    0.414
        70  -9.2112    216.2566    224.4519   9.2679891935e+01   3.3047101531e+00    0.2890075    0.1736752 -23.25  0.002006139    1.806    0.446
        71  -8.4506    206.1041    225.7082   9.4487300349e+01   4.5323843847e+00    0.2005199    0.1374668 -24.92  0.001008499    1.660    0.397
        72  -8.2618    199.9108    226.1320   9.5557008380e+01   5.3225239703e+00    0.1662872    0.1380365 -16.76  0.000877242    1.426    0.299
        73  -8.6401    202.6628    220.6548   9.4339752513e+01   5.5246142777e+00    0.2238656    0.1493735  -6.03  0.001549689    1.567    0.362
        74  -8.7597    180.5285    224.3466   9.8567773556e+01   8.1726151116e+00     0.185988    0.1547097  60.44 0.0004543194    1.804    0.446
        75  -8.9137    104.7406    223.6915   1.1216677978e+02   1.8596111839e+01    0.2616127    0.1693102  75.94  0.001672094    2.103    0.525
        76  -8.9575     94.1773    224.2844   1.1419375077e+02   1.9849760521e+01    0.3121317    0.1387842  56.73  0.001643077    2.546    0.607
        77  -9.1553    172.9472    222.9268   9.9689707324e+01   9.3926513057e+00    0.2321411    0.1568346 -48.38  0.001061927    2.099    0.524
        78  -8.0868    113.9738    224.0344   1.1048108843e+02   1.7342552412e+01    0.1711293     0.110268  60.28 0.0007275341    1.718    0.418
        79  -7.6782     38.2856    224.6475   1.2457757242e+02   2.6104402382e+01    0.1085325   0.05363447  59.51 0.0002922781    1.663    0.399
        80  -9.2231    160.3989    221.3937   1.0170278532e+02   1.1337984192e+01    0.4294503    0.1987425  53.27   0.00190811    3.345    0.701
        81  -8.5855    140.3486    222.9927   1.0551173285e+02   1.3924267907e+01    0.1432423    0.1270245  36.03 0.0005775855    1.156    0.135
        82  -9.1736    239.2093    221.5832   8.8708132813e+01   5.9339123164e-01    0.2009669    0.1859057  15.96  0.001185179    1.739    0.425
        83  -9.0727    225.5859    221.8727   9.0838677193e+01   2.3248501546e+00    0.2030056    0.1464595  41.73  0.001234537    1.705    0.413
        84  -9.2980    192.4147    221.4187   9.6153795785e+01   6.8548229670e+00    0.2074931    0.1888244  51.53 0.0009740935    1.627    0.385
        85  -9.0211    120.6419    219.3980   1.0875554272e+02   1.7120447067e+01     0.389051    0.1877634  59.65  0.001838781    3.295    0.697
        86  -8.7724     82.4609    220.2725   1.1605721623e+02   2.1909576413e+01    0.2463319    0.1346224  67.64  0.001005506    2.187    0.543
        87  -7.4543     27.4898    221.4951   1.2639482087e+02   2.7661570961e+01   0.09942485   0.07542542  56.81 -3.662815e-05    1.061    0.057
        88  -8.5227    210.3471    219.4893   9.2915812871e+01   4.5967004204e+00    0.1907409    0.1551589  51.00 0.0007543957    1.876    0.467
        89  -8.8620    180.3333    218.8868   9.7868629391e+01   8.8331128287e+00    0.3065603    0.2297288  74.86   0.00182072    2.945    0.660
        90  -9.1466    248.4191    217.8826   8.6779137569e+01  -2.4106785410e-01    0.2855905     0.236209  65.23  0.001869719    3.337    0.700
        91  -8.3232     62.1542    217.4206   1.1970026453e+02   2.4742944802e+01    0.2565294    0.1031288  62.92  0.001264067    3.020    0.669
        92  -9.0786     51.5186    217.4563   1.2172137954e+02   2.5904900269e+01    0.2231543    0.1391196  72.27 0.0009963447    1.528    0.346
        93  -8.8038    169.4464    216.2199   9.9418151615e+01   1.0702349194e+01    0.2083206    0.1773737  87.07 0.0008762292    1.977    0.494
        94  -8.8062    143.0339    216.6312   1.0426413696e+02   1.4409722286e+01    0.2119558    0.1579701  65.74    0.0011525    1.802    0.445
        95  -8.0437    111.4632    217.2380   1.1026129645e+02   1.8671725665e+01     0.132298    0.1031287  85.79 0.0006267097    1.617    0.381
        96  -8.3130    154.4744    215.4390   1.0201304130e+02   1.2944299268e+01    0.1827274    0.1366093  58.27 0.0006651735    1.677    0.404
        97  -8.6954    232.2467    214.9020   8.8764215969e+01   2.1123950227e+00     0.180393    0.1498425   9.96 0.0008492285    1.299    0.230
        98  -8.4885    185.6649    214.4916   9.6335537908e+01   8.5922631170e+00    0.1799565    0.1654992  72.80  0.001151219    1.740    0.425
        99  -8.9418     93.2595    214.1729   1.1345223255e+02   2.1523133987e+01    0.3355219    0.1408541  53.65  0.001306593    2.480    0.597
       100  -9.4485    214.0029    212.3454   9.1266291606e+01   4.8363520818e+00    0.2882038    0.2011276  49.99  0.001692177    2.040    0.510
       101  -8.1868    197.0166    214.4933   9.4397163068e+01   6.9804489631e+00    0.1656584   0.07544474  22.43  0.000810188    2.521    0.603
       102  -9.5633     73.3117    212.0492   1.1714534027e+02   2.4330858476e+01    0.5827698    0.1998094  56.91  0.002476546    3.730    0.732
       103  -8.2394    224.8915    212.6804   8.9573556096e+01   3.3115808856e+00    0.1594341    0.1317745 -24.78  0.001066752    1.595    0.373
       104  -8.7318    161.6192    212.5512   1.0033314886e+02   1.2295306080e+01    0.2033949    0.1662899  41.47 0.0007292069    1.223    0.183
       105  -8.0706    106.4923    212.9331   1.1076953935e+02   1.9988753992e+01    0.1402209     0.111222 -73.84  0.001007419    1.548    0.354
       106  -9.2912    133.0042    216.0340   1.0605978971e+02   1.5901321197e+01     0.405197    0.2435893  68.11   0.00212799    2.970    0.663
       107  -9.0946    204.2838    210.9909   9.2662236371e+01   6.3417360107e+00     0.201284    0.1859889 -48.90 0.0008717686    1.775    0.437
       108  -9.4044    175.6832    210.3349   9.7498186002e+01   1.0534322914e+01    0.3090202    0.2255791  64.82  0.001342482    2.330    0.571
       109  -9.1089      6.8895    209.7955   1.2973295577e+02   3.1444989288e+01    0.4407017   0.09157423  66.50  0.001644902    5.748    0.826
       110  -8.3697    192.4281    210.7261   9.4628208329e+01   8.0623239689e+00    0.1729177    0.1075199 -39.72 0.0007484891    2.039    0.510
       111  -8.8424    147.9998    210.3797   1.0255682411e+02   1.4559333194e+01    0.2248839    0.1754545  78.35  0.001232183    1.975    0.494
       112  -8.9918    116.3095    210.4758   1.0860581150e+02   1.9035469363e+01    0.2804082    0.1675382  61.38  0.001238408    2.060    0.514
       113  -8.4390     85.9605    209.8460   1.1447651642e+02   2.3143183514e+01     0.247384    0.1244441  61.15  0.001338656    2.285    0.562
       114  -9.0335    236.5363    208.4802   8.7109710385e+01   2.1571706908e+00    0.2022285    0.1886069  -9.72  0.001139543    1.696    0.410
       115  -9.3806    246.4049    207.3244   8.5434053180e+01   9.6462045974e-01    0.2081384    0.1552131 -12.34 0.0007005859    1.348    0.258
       116  -7.9933    156.4994    208.0732   1.0067026771e+02   1.3636385688e+01    0.1431053    0.1159263 -42.50 0.0005745001    1.538    0.350
       117  -8.3856    139.1232    207.9252   1.0391653072e+02   1.6190139578e+01    0.1742841    0.1350823  54.24 0.0006724875    1.370    0.270
       118  -7.9410    126.3816    208.2818   1.0640450202e+02   1.7960962414e+01    0.1339507    0.1098164 -79.18 0.0004706785    1.602    0.376
       119  -9.2597     99.3016    206.0316   1.1146544102e+02   2.2037588220e+01    0.3040798    0.1958732  78.34  0.001370061    2.079    0.519
       120  -8.3045    109.0695    205.4650   1.0946711361e+02   2.0809588886e+01    0.1919988     0.146544  77.07 0.0006404246    1.567    0.362
       121  -8.6704     56.6188    205.7134   1.1994866813e+02   2.7325196677e+01    0.2851364    0.1205551  57.26  0.001529407    2.248    0.555
       122  -8.0402     11.7790    206.6083   1.2871137736e+02   3.1581198168e+01    0.1417089   0.06789039  43.84 0.0009427427    1.567    0.362
       123  -9.2716    194.8657    203.6870   9.3154209449e+01   8.5317013983e+00    0.2428447    0.2311631  28.06  0.001210933    1.441    0.306
       124  -9.4124    192.6196    197.6243   9.2603514504e+01   9.5947359033e+00    0.3778107    0.3045082  69.75  0.002232611    2.237    0.553
       125  -8.6150    131.3287    204.0800   1.0493137124e+02   1.7883489241e+01    0.2491972    0.1608201  65.08  0.001147558    2.177    0.541
       126  -7.8093     92.3885    205.1746   1.1275638705e+02   2.3086966575e+01      0.14574    0.1014103  89.57 0.0009405804    1.755    0.430
       127  -8.3531     25.0309    205.0332   1.2611294941e+02   3.0673082692e+01    0.1753998   0.08561096  60.84 0.0007654905    1.675    0.403
       128  -9.3856    250.1071    202.1496   8.4051342154e+01   9.5915500243e-01    0.2846556    0.1386008 -24.72  0.001208792    1.995    0.499
       129  -8.9739    183.5468    203.7909   9.5149662350e+01   1.0191088282e+01    0.2333528    0.1714595  54.93 0.0008672701    1.851    0.460
       130  -9.6002    163.9955    203.2231   9.8608191884e+01   1.3181167549e+01    0.3709721    0.2033186  51.10 0.0009937483    2.134    0.531
       131  -8.4116    211.0933    202.1532   9.0169557824e+01   6.3438064038e+00    0.1648525    0.1487464 -56.55 0.0004743092    1.941    0.485
       132  -8.3934     48.4642    202.4642   1.2134938290e+02   2.8781463421e+01    0.1844776    0.0886799  85.53  0.001019511    2.437    0.590
       133  -9.2599    243.1113    200.9530   8.4901530242e+01   2.0000689923e+00    0.2208704    0.1523404 -22.54 0.0008315727    1.531    0.347
       134  -8.8716    140.5499    201.2498   1.0277552254e+02   1.6955740264e+01    0.2716579    0.1886652  69.43  0.001132297    2.177    0.541
       135  -8.9259     79.9374    201.2924   1.1489355509e+02   2.5329171409e+01     0.277639    0.1469805  70.04  0.001467288    2.469    0.595
       136  -9.3317    236.5973    197.2106   8.5281702191e+01   3.2557456923e+00    0.3749512    0.1674299 -37.54  0.002006485    2.894    0.654
       137  -9.4136    149.6339    198.7334   1.0067991381e+02   1.5966553199e+01    0.3199328    0.2338773  74.79  0.001324185    2.250    0.555
       138  -8.8973    123.9484    199.5597   1.0581662331e+02   1.9645426483e+01    0.2380408    0.1759826  63.31   0.00129168    1.551    0.355
       139  -9.4216    112.8489    198.5576   1.0791959121e+02   2.1392655100e+01    0.3708895     0.214936  63.97  0.001564548    2.334    0.572
       140  -8.5432    176.9608    199.1555   9.5633643172e+01   1.1767266285e+01    0.1704742     0.143345  45.50 0.0005662572    1.365    0.267
       141  -9.1807     88.7821    198.3323   1.1279918141e+02   2.4705844046e+01    0.3439421    0.1992101  67.72   0.00165981    2.102    0.524
       142  -8.3970    202.3858    197.9767   9.0970527300e+01   8.0928255694e+00    0.1904929    0.1503158  48.66  0.001218361    1.651    0.394
       143  -9.1745     61.5154    197.0353   1.1829605079e+02   2.8291948993e+01     0.349939    0.1598139  64.52  0.001621238    2.536    0.606
       144  -9.0467     12.5675    197.5360   1.2821543999e+02   3.3113842904e+01    0.2982218   0.08214679  56.65  0.001470483    2.862    0.651
       145  -8.1283     53.7253    197.1084   1.1990434382e+02   2.9159973393e+01    0.2020809   0.07903845  60.81 0.0009487803    2.858    0.650
       146  -8.0320     35.8510    196.6700   1.2352446057e+02   3.1119230236e+01    0.2331982   0.08854557  73.42  0.001072232    3.344    0.701
       147  -8.8350    215.8535    195.3519   8.8285858480e+01   6.4072543267e+00    0.2109344     0.153029 -40.52 0.0008806838    1.927    0.481
       148  -8.0495    209.4704    195.9519   8.9445249723e+01   7.2779458309e+00    0.1299851    0.1017936 -55.94  0.000806654    2.358    0.576
       149  -8.1567    133.0289    196.0121   1.0355182890e+02   1.8865485539e+01    0.1756647    0.1305392  62.64 0.0004725581    1.600    0.375
       150  -9.0591    224.5005    192.8742   8.6466588606e+01   5.4203575686e+00    0.3919162    0.1480892 -32.45  0.001971284    2.783    0.641
       151  -8.9578    185.2932    194.7566   9.3449906560e+01   1.1065552932e+01    0.2061597    0.1781652  55.63 0.0007068994    1.576    0.365
       152  -9.2785    160.8844    194.3450   9.7895497758e+01   1.4879118307e+01    0.2691762    0.1990877  63.65  0.001067651    1.932    0.482
       153  -9.4179    245.6331    193.5400   8.3291450113e+01   2.3771274328e+00     0.205964    0.1840899  20.49 0.0009504767    1.541    0.351
       154  -8.9092     77.0499    193.8261   1.1478470216e+02   2.6993165238e+01        0.225    0.1570106  68.59 0.0007688417    1.425    0.298
       155  -8.8378     43.8041    193.2435   1.2167544963e+02   3.0930199458e+01     0.362078    0.1670963  67.97  0.001957253    2.286    0.562
       156  -8.0633    230.6490    194.2214   8.5712902170e+01   4.3957473462e+00    0.1472346   0.09038233 -12.61  0.000892445    1.560    0.359
       157  -8.0761    205.2477    191.9796   8.9507942510e+01   8.3704265164e+00    0.1350684   0.09330218 -24.42 0.0005242309    1.521    0.343
       158  -8.2170    198.9669    191.7603   9.0552873083e+01   9.3494687247e+00    0.1765199    0.1461265 -37.21 0.0006214121    1.574    0.365
       159  -8.3806    179.1280    191.6700   9.4078468963e+01   1.2418932505e+01    0.1783535     0.161081 -34.75 0.0006378847    1.398    0.285
       160  -8.5971    172.4189    191.8108   9.5339175431e+01   1.3443725722e+01    0.2126733    0.1752014  55.49  0.001002093    1.529    0.346
       161  -9.2172    139.6656    190.9038   1.0152584643e+02   1.8655317694e+01    0.3096986     0.217375  70.03  0.001119296    2.120    0.528
       162 -10.5162     92.0487    188.6030   1.1107747373e+02   2.5966720474e+01    0.8330613    0.2771883  48.87  0.003255043    2.964    0.663
       163  -8.6191    148.4434    189.7208   9.9614214349e+01   1.7482369338e+01    0.2082469    0.1695452 -83.46  0.001057361    1.823    0.451
       164  -8.9928    129.3673    188.7834   1.0330666940e+02   2.0559595573e+01    0.2630932    0.1861786  69.77 0.0008502094    1.921    0.480
       165  -8.3372    237.1325    188.3936   8.3711588239e+01   4.0803666746e+00    0.1851873    0.1246048  -6.08 0.0005737614    1.306    0.234
       166  -8.7854    216.7091    188.0381   8.6920216373e+01   7.1045617573e+00    0.2209342    0.1902806  44.88 0.0008695859    1.590    0.371
       167  -9.3387    156.0440    187.6785   9.7817439329e+01   1.6598934142e+01     0.291241    0.2074053 -61.61  0.001042794    2.056    0.514
       168  -9.7746    120.9204    186.8345   1.0478032159e+02   2.2150952007e+01    0.4295059    0.2643294 -79.51   0.00216011    2.791    0.642
       169  -8.6111     34.4210    188.3160   1.2331040511e+02   3.2798381043e+01    0.2872908    0.1120815  63.86  0.001119242    2.649    0.622
       170  -8.8271    191.4635    187.4681   9.1164948301e+01   1.1044102955e+01    0.2196674    0.1813521  81.39  0.001087036    2.303    0.566
       171  -8.9795    164.8984    186.9604   9.5995936736e+01   1.5304657209e+01    0.2712353    0.2344378 -85.27 0.0009379383    1.759    0.431
       172  -9.4358    109.4484    186.0490   1.0708186342e+02   2.3974194723e+01    0.3741422     0.235546  70.44  0.001319701    2.202    0.546
       173  -9.1682     54.7860    186.9534   1.1889031938e+02   3.0901185223e+01    0.3842646    0.1713897  63.75  0.001630996    2.520    0.603
       174  -8.1368    230.5143    187.1172   8.4527695417e+01   5.1674024314e+00    0.1607175     0.101039 -23.16  0.001021507    1.567    0.362
       175  -8.6443    249.2776    185.6550   8.1395290449e+01   2.6517915468e+00    0.1875685    0.1722743 -14.49 0.0009474921    1.632    0.387
       176  -8.9065    224.5641    184.1222   8.4959982820e+01   6.3718550272e+00    0.2156955    0.1832643 -39.03 0.0008712867    1.729    0.422
       177  -8.8365    210.2450    184.4462   8.7385906128e+01   8.5037690932e+00    0.1925791    0.1455351 -15.74  0.000433207    1.306    0.234
       178  -8.4092    202.8600    184.6641   8.8687969969e+01   9.6190161782e+00    0.1936797    0.1557836 -46.01 0.0007219998    1.787    0.440
       179  -8.8575    182.9383    184.7481   9.2255122349e+01   1.2745119101e+01    0.2054787    0.1743686 -34.78 0.0006699546    1.418    0.295
       180  -9.1742     66.7474    184.5167   1.1609514098e+02   2.9960423847e+01    0.3550097    0.1790767  55.39  0.001229396    1.871    0.465
       181  -8.1764    197.1658    183.8864   8.9550106428e+01   1.0606439198e+01    0.1709222    0.1547625  30.07  0.000807694    1.305    0.234
       182  -8.9069    174.2541    183.6119   9.3680370520e+01   1.4287922554e+01    0.2220455    0.1912451  70.11 0.0008346958    1.686    0.407
       183  -8.2063      2.0808    183.8243   1.2980225352e+02   3.6485313201e+01    0.1892053   0.08777454  41.20  0.001205925    1.735    0.424
       184  -8.7763    241.0915    181.6512   8.1925736511e+01   4.2147077416e+00    0.2562252    0.1949174 -53.18  0.001547226    2.731    0.634
       185  -8.8851     44.3558    182.3643   1.2078058582e+02   3.2908764776e+01    0.3048851    0.1497182  65.03 0.0009110173    2.033    0.508
       186  -8.0856    235.5753    181.7555   8.2795702461e+01   5.0037944099e+00    0.1437726   0.09931417 -27.98 0.0009395017    1.570    0.363
       187  -9.4392    147.4291    180.3663   9.8392278989e+01   1.9085910065e+01     0.335387    0.2555393  87.50  0.001090543    2.133    0.531
       188  -9.5499     25.5067    178.8975   1.2463876399e+02   3.5445631296e+01    0.5961488    0.1950358  71.73  0.002366785    4.220    0.763
       189  -8.7418    137.8886    179.6558   1.0023070526e+02   2.0722073269e+01    0.2628713    0.1841507  68.12  0.001207556    2.021    0.505
       190  -9.3722    191.4278    178.3187   8.9612937109e+01   1.2242469505e+01    0.2333205    0.2138181  42.16 0.0005091276    1.369    0.269
       191  -8.3197    169.2718    178.6363   9.3800813453e+01   1.5805105785e+01    0.1976539    0.1540616 -53.25 0.0006513143    1.710    0.415
       192  -9.1276     35.7630    176.5058   1.2223836547e+02   3.4926594311e+01    0.4395414    0.1642684  75.40   0.00180204    3.846    0.740
       193  -8.6589    250.5150    172.8940   7.8932537458e+01   3.7655249213e+00    0.1860836    0.1357808  10.40 0.0005176697    1.068    0.064
       194  -9.0735    248.9872    177.5050   7.9995537302e+01   3.5118289232e+00    0.2221309    0.1936094   3.13  0.001051232    1.353    0.261
       195  -8.5860    247.3130    174.2923   7.9663029720e+01   4.0828773140e+00    0.2105685    0.1310033   2.42 0.0008450017    1.452    0.311
       196  -8.7510    205.0365    177.8562   8.7124231486e+01   1.0120921621e+01    0.2060455    0.1608283 -18.90 0.0008014997    1.299    0.230
       197  -8.9544    129.1290    177.4651   1.0172838753e+02   2.2469446922e+01    0.2864233    0.1917084  66.43  0.001153714    2.045    0.511
       198  -8.4582    231.1420    176.7974   8.2606161191e+01   6.2014966500e+00    0.1882983     0.140891 -25.18  0.000726787    1.438    0.305
       199  -8.4932    217.5522    176.9072   8.4831369243e+01   8.2686924504e+00    0.2064057    0.1365059 -37.51  0.001162004    1.832    0.454
       200  -9.2693    182.9862    176.1183   9.0775263794e+01   1.3915772554e+01    0.2339861    0.2139313 -43.94 0.0006453531    1.431    0.301
       201  -9.5776    104.4207    174.8644   1.0669935570e+02   2.6696667766e+01    0.4436699    0.2681183  67.86   0.00186872    2.255    0.556
       202  -7.9930     97.7484    177.4501   1.0851081444e+02   2.7188865347e+01    0.1641807    0.1097717  27.29 0.0009319788    1.593    0.372
       203  -9.0078     88.8701    176.7827   1.1039469618e+02   2.8554163677e+01    0.2650077    0.1776129  59.59  0.001044276    1.477    0.323
       204  -9.3386     58.9827    175.9827   1.1700871919e+02   3.2513311059e+01    0.4989999    0.2004635  60.70  0.001536087    3.105    0.678
       205  -9.4549     55.6772    171.0026   1.1729119253e+02   3.3876684546e+01    0.3791707    0.1881759  81.79   0.00173827    2.598    0.615
       206  -9.0840     12.9196    176.8137   1.2724324816e+02   3.6955651245e+01    0.2636164    0.0941056  55.69  0.001246602    2.293    0.564
       207  -8.2365    211.3677    176.1272   8.5729711562e+01   9.3315945948e+00    0.1546277    0.1063977 -36.46 0.0006378118    1.713    0.416
       208  -9.3266    158.8630    175.0518   9.5236220499e+01   1.8052228896e+01    0.3257017    0.2533799  80.45  0.001285348    2.098    0.523
       209 -10.7359     76.1865    169.9026   1.1245380060e+02   3.1573095826e+01     1.152424    0.4743206 -73.92  0.004712356    3.240    0.691
       210  -8.3786    224.2080    174.0701   8.3223441004e+01   7.5684109430e+00    0.1697461    0.1319139 -45.44 0.0008100406    1.947    0.486
       211  -9.4422    175.7664    172.2572   9.1457158097e+01   1.5659248254e+01     0.273905     0.210709 -27.98 0.0008813176    1.393    0.282
       212  -8.4911    142.8825    173.0844   9.8162678718e+01   2.0994608175e+01    0.1852831    0.1617468  55.82 0.0004738611    1.241    0.194
       213  -8.4013    134.9553    171.9586   9.9645733892e+01   2.2473500863e+01    0.2003541    0.1467928  65.64 0.0009492779    1.731    0.422
       214  -9.7936    121.3151    170.1377   1.0230082684e+02   2.4972982745e+01    0.3828989    0.2528442 -66.26  0.001055395    1.926    0.481
       215  -9.1046     44.8911    170.7461   1.1974104901e+02   3.5124275086e+01    0.3478831    0.1779991  79.16  0.001328105    2.175    0.540
       216  -8.5235    205.7862    170.4530   8.5654708718e+01   1.0934865885e+01    0.2133956    0.1524324 -43.28 0.0008300958    1.835    0.455
       217  -8.5190    198.2302    170.2955   8.6955129908e+01   1.2194073108e+01    0.1955688     0.166399 -11.07     0.000756    1.181    0.153
       218  -8.1079    237.1884    169.8573   8.0386191168e+01   6.0571068484e+00    0.1633956    0.1455058  -5.10 0.0006357146    1.342    0.255
       219  -8.8488    230.0696    169.1952   8.1380560257e+01   7.2220507955e+00    0.3382069    0.1377176 -37.28  0.001601924    2.791    0.642
       220  -9.1536    167.1771    168.6993   9.2492920880e+01   1.7633775165e+01    0.2688363    0.2131681  70.77  0.001043808    1.875    0.467
       221  -8.6411    149.9438    169.5523   9.6115165608e+01   2.0404106975e+01    0.2141845    0.1819015 -75.84 0.0006399864    1.597    0.374
       222  -7.9053    244.2004    169.1895   7.9190131830e+01   5.0776394704e+00    0.1443296    0.1246052  -9.13 0.0004258847    1.326    0.246
       223  -8.8868    111.7841    167.4908   1.0401353350e+02   2.6941375633e+01    0.3660984    0.2291161  81.30   0.00127168    2.753    0.637
       224  -8.4208     88.7268    168.8921   1.0944634452e+02   3.0073604192e+01    0.2454638    0.1306995  57.67 0.0008306449    2.083    0.520
       225  -8.4147    218.8588    168.1512   8.3006962722e+01   9.1098488238e+00     0.170288    0.1554576   1.01 0.0005582055    1.291    0.225
       226  -7.9617    211.4893    168.0196   8.4221530408e+01   1.0314343269e+01    0.1537825    0.1041834 -52.08 0.0008092795    2.506    0.601
       227  -8.8867    191.9161    166.6413   8.7419210498e+01   1.3739895373e+01    0.2689508    0.1662777 -36.30 0.0007573226    1.756    0.430
       228  -8.9698    184.9884    166.4935   8.8672185575e+01   1.4932780656e+01    0.2110788    0.1770383 -49.58 0.0006302435    1.579    0.367
       229 -10.1597     94.8766    162.8463   1.0721090109e+02   3.0367493164e+01    0.7396163    0.3957388  74.29   0.00289842    3.707    0.730
       230  -9.1177     20.4470    166.1577   1.2500312885e+02   3.8425301993e+01    0.3196203    0.1079031  54.32  0.001200664    2.587    0.613
       231  -9.9404    136.8394    164.4370   9.8010168502e+01   2.3453159801e+01    0.5965193     0.255729  52.74  0.002335871    3.048    0.672
       232  -8.1504    233.9283    165.0962   7.9999607546e+01   7.0909209833e+00    0.1666833    0.1455217  -9.19 0.0005140135    1.287    0.223
       233  -9.0394    159.5911    164.3284   9.3228898583e+01   1.9608959558e+01    0.2566599    0.2211625 -79.15 0.0008806981    1.637    0.389
       234  -9.2659     33.5172    163.4454   1.2179141618e+02   3.7767717899e+01    0.5225776    0.1577931  52.33   0.00223845    3.094    0.677
       235  -8.0736    240.1753    164.1819   7.8859104100e+01   6.2301853630e+00    0.1493119    0.1310025 -10.07 0.0005506602    1.326    0.246
       236  -8.7043    212.9273    163.6931   8.3158935567e+01   1.0622629493e+01    0.2141731    0.1647011 -25.89  0.000576172    1.354    0.262
       237  -8.2319     55.6469    164.6817   1.1668440904e+02   3.5151563502e+01    0.1126765    0.0916473 -28.54 0.0007046849    1.744    0.427
       238  -9.2610    246.0158    163.0228   7.7756368173e+01   5.4699500172e+00    0.1998829    0.1441404 -14.39  0.000524374    1.223    0.182
       239  -8.5638    204.8587    162.5873   8.4338102642e+01   1.2106402052e+01    0.2223516     0.156637 -44.07 0.0007690883    1.840    0.457
       240  -9.4787      3.5020    162.3388   1.2865664686e+02   4.0568105542e+01    0.4156511    0.1377014  48.60  0.001887294    2.333    0.571
       241  -9.2660    177.5201    160.8286   8.9031529217e+01   1.7042842769e+01    0.2659934    0.2219768 -62.38 0.0009059646    1.720    0.419
       242  -8.7552    151.7713    161.1073   9.4259172974e+01   2.1479852907e+01    0.2539783    0.2035629 -75.97 0.0008501157    1.805    0.446
       243  -8.9242     60.5114    160.7590   1.1511606990e+02   3.5379918804e+01    0.3189373     0.218268  81.97  0.001243063    1.490    0.329
       244  -9.7936    250.2310    157.8902   7.6147919837e+01   5.3876170358e+00    0.2836679    0.1419441 -26.48 0.0008014854    1.814    0.449
       245  -8.6422    227.4115    159.1002   7.9879618240e+01   8.8222223960e+00    0.2311503    0.1629897 -38.99 0.0009187229    1.764    0.433
       246  -9.9212    105.9175    157.7018   1.0386627831e+02   2.9702157773e+01     0.499589    0.3851937 -88.35  0.001670735    1.557    0.358
       247  -8.3775    237.1359    159.2011   7.8368790501e+01   7.2610998864e+00    0.1530651    0.1320925 -18.03 0.0005953531    1.335    0.251
       248  -8.3886    128.2678    159.1520   9.8992284007e+01   2.5819904370e+01    0.2507726    0.1563977  60.47  0.001000958    2.049    0.512
       249  -8.4828    196.7029    158.0040   8.4902006550e+01   1.4113702637e+01    0.1972246    0.1784581  61.03 0.0006541311    1.522    0.343
       250  -8.6353    188.0763    157.7298   8.6433050595e+01   1.5653248451e+01    0.2026263    0.1718747 -36.52 0.0005143207    1.367    0.268
       251  -9.1112    167.6048    157.2904   9.0309532044e+01   1.9326683644e+01    0.2746361    0.2325495  83.92  0.001139941    1.751    0.429
       252  -8.3310    217.8818    156.6352   8.0954385891e+01   1.0689386806e+01    0.2237249    0.1511547 -41.96 0.0007662826    1.877    0.467
       253  -9.3339    157.5652    155.8505   9.2083050739e+01   2.1335681398e+01    0.3497799    0.2169481 -50.62  0.001364149    1.949    0.487
       254  -9.7117    119.7057    155.4389   1.0029904154e+02   2.7924969087e+01    0.3939433    0.2706199  83.92   0.00161399    2.278    0.561
       255  -9.5589     81.5393    154.7616   1.0927213377e+02   3.3888230732e+01    0.4649281    0.2723082  74.84  0.001499756    2.354    0.575
       256  -9.1210     49.4568    155.2215   1.1722417990e+02   3.7814408279e+01    0.3388107    0.1759153  67.40  0.001602038    2.132    0.531
       257  -9.5225    241.8734    154.2418   7.6674780141e+01   7.0791583454e+00    0.3083617    0.2026983  61.21  0.001624114    2.826    0.646
       258  -8.7167    144.3191    154.9639   9.4722689891e+01   2.3818720721e+01    0.2366614    0.1778075  59.98  0.001009136    1.570    0.363
       259  -9.6641    132.7818    152.9176   9.6888702033e+01   2.6186952188e+01    0.4183571    0.2983057  75.69  0.001369971    2.105    0.525
       260  -9.2615    133.4899    148.4884   9.5914119955e+01   2.6873821146e+01    0.2781835    0.2288803 -26.78  0.001224992    1.359    0.264
       261  -9.2299     68.1366    153.8869   1.1245517301e+02   3.5858951474e+01    0.4162435    0.2135456  65.37  0.001152186    2.478    0.597
       262  -8.5535    151.5233    153.0021   9.2811594825e+01   2.2884821015e+01    0.2451606    0.1296072 -39.41  0.001137418    2.058    0.514
       263 -10.2835    149.1662    145.3011   9.1820515273e+01   2.4638412855e+01    0.5261992    0.3718784  88.00  0.002088138    2.712    0.631
       264  -9.3450     20.0750    152.6914   1.2422608972e+02   4.1243770195e+01    0.1990507    0.1275057  77.09 0.0005865677    1.355    0.262
       265  -7.3175    176.2921    152.6265   8.7682965389e+01   1.8502924233e+01     0.123444    0.1070644 -83.72 0.0007023726    1.729    0.422
       266  -8.9141     98.4634    150.9965   1.0458907445e+02   3.2177897250e+01    0.3049149    0.2075541  82.10 0.0009530341    1.965    0.491
       267  -9.5469     29.3672    150.8095   1.2179768210e+02   4.0811461954e+01    0.4282503    0.1677171  64.89  0.001873931    2.951    0.661
       268  -8.8015      2.9832    150.7050   1.2824244920e+02   4.3001053240e+01    0.2823927    0.1082525  82.19  0.001358044    2.434    0.589
       269  -9.6053    248.9014    149.5462   7.4700657535e+01   6.5028876558e+00     0.305387    0.1499069 -22.85 0.0007625825    1.825    0.452
       270  -8.8430    189.4324    150.1433   8.4673266451e+01   1.6511411802e+01    0.2772749     0.205253 -59.00 0.0008012059    2.105    0.525
       271  -7.9663    182.4310    151.2509   8.6220427803e+01   1.7607195370e+01    0.1695639    0.1234868 -45.09 0.0005528939    1.634    0.388
       272  -8.2325    162.6304    150.5850   9.0020931278e+01   2.1293614231e+01    0.2043912    0.1641385 -63.64 0.0006749936    1.696    0.410
       273  -9.7902    242.5396    149.7983   7.5690272092e+01   7.4776845146e+00    0.2714684     0.203828  42.33  0.001742575    1.535    0.349
       274  -7.8077    204.5827    155.4714   8.2999241825e+01   1.3097647404e+01    0.1268189    0.1087711   8.30 0.0002330542    1.045    0.043
       275  -9.4108    233.7650    147.6182   7.6586996999e+01   9.1544850655e+00    0.2540906    0.1568781 -23.63 0.0008990421    1.484    0.326
       276  -8.2309    212.8766    150.0335   8.0473336294e+01   1.2385820223e+01    0.1755552    0.1642938   3.24 0.0003803002    1.254    0.202
       277 -10.1326     89.2361    146.3421   1.0613292122e+02   3.4521391893e+01    0.6349314    0.3580487  84.61  0.002564037    3.243    0.692
       278  -8.2500     89.2216    138.1703   1.0481528821e+02   3.6238799942e+01    0.3209283    0.2202747 -16.12  0.001505469    2.484    0.597
       279  -9.8509     40.0296    148.0890   1.1887423822e+02   4.0347677339e+01    0.5598116    0.2083247  59.30  0.002196206    3.255    0.693
       280  -8.4046    198.8089    149.0762   8.2737605861e+01   1.4985756813e+01    0.1801319    0.1723149 -27.49 0.0005511181    1.316    0.240
       281 -10.4270    106.9885    143.8434   1.0131555680e+02   3.2268762581e+01    0.7607249    0.5430917 -82.36  0.002409534    1.816    0.449
       282  -8.8764     78.0236    147.0207   1.0905989766e+02   3.5985683913e+01    0.2740142    0.1612055  84.55 0.0009145133    2.387    0.581
       283 -10.4665     54.5839    143.8355   1.1466671009e+02   3.9668317231e+01    0.8969688    0.4554957  79.61  0.003371296    2.683    0.627
       284  -8.8968     57.5155    135.4807   1.1282792559e+02   4.1157252219e+01    0.2539763    0.1214399  32.33  0.001003091    2.140    0.533
       285  -8.2136    223.2969    146.9745   7.8116862460e+01   1.0988689759e+01    0.1751775    0.1416532  -9.39 0.0004823256    1.109    0.098
       286  -9.2489     13.4862    146.3947   1.2543374917e+02   4.3126896114e+01    0.3278878    0.1299751  53.77  0.001304084    2.244    0.554
       287  -8.7392    242.3971    139.2589   7.3555946674e+01   8.7152768580e+00    0.3091709    0.2268723 -65.96  0.001575278    3.094    0.677
       288  -9.2707    240.3908    145.2846   7.5098685999e+01   8.3429474924e+00    0.2228736    0.1733049 -15.55  0.000517441    1.171    0.146
       289  -9.0542    242.6946    143.3430   7.4356751433e+01   8.1928793834e+00    0.1799853    0.1666252  -5.49  0.000657981    1.337    0.252
       290  -8.2651    206.6959    146.2966   8.0768987580e+01   1.3966307619e+01    0.1808645      0.15747 -32.48 0.0006180854    1.339    0.253
       291  -8.2898    175.6328    146.2046   8.6517874308e+01   1.9618896523e+01    0.1905167    0.1679096 -51.67 0.0006690231    1.408    0.290
       292  -9.8383    139.0583    144.9104   9.3975295437e+01   2.6539649675e+01     0.402005    0.2917593 -79.26  0.001388188    2.153    0.536
       293  -9.4084    139.8611    137.6879   9.2347561995e+01   2.7715933503e+01    0.4697661    0.2924719  20.80  0.002116611    2.134    0.531
       294  -8.9644    165.5880    144.1143   8.8110271637e+01   2.1812464588e+01    0.2778207    0.2265871  60.67 0.0008326346    1.496    0.332
       295  -9.9793    125.0999    142.2066   9.6661894981e+01   2.9524503936e+01    0.6130823    0.3720392 -65.14  0.002284107    2.244    0.554
       296 -10.9076     68.7584    141.2409   1.1062485835e+02   3.8472011842e+01    0.8518309     0.497177 -88.06  0.004142133    2.129    0.530
       297  -9.2730     70.5075    133.8927   1.0908154067e+02   3.9846378458e+01     0.248039    0.1882547  13.03  0.001376575    1.724    0.420
       298  -8.9009    247.0140    143.6471   7.3783954045e+01   7.4611756712e+00    0.2361331    0.1527461 -19.84 0.0006295178    1.348    0.258
       299  -7.9399    193.9977    143.9637   8.2553809420e+01   1.6581788838e+01    0.1606205    0.1394178   3.27 0.0004131211    1.035    0.034
       300  -7.6056    230.6670    143.2879   7.6179817340e+01   1.0194103637e+01    0.1092449    0.1008919 -54.49 0.0003036392    1.625    0.385
       301  -9.3016      2.7010    141.7885   1.2786279762e+02   4.4912155540e+01    0.3662741    0.1425581  68.99  0.001802211    2.430    0.588
       302  -8.5601    181.9691    141.6837   8.4338870400e+01   1.9145092779e+01    0.2466377    0.1914072 -39.74 0.0007298079    1.419    0.295
       303  -8.3214    250.5429    140.3537   7.2600237379e+01   7.2675482934e+00     0.217431    0.1006105 -28.71 0.0008455919    1.927    0.481
       304  -8.2345    234.8573    139.7725   7.4797479815e+01   9.9127829499e+00    0.3238953   0.07179464 -31.53  0.001116379    4.006    0.750
       305  -9.8575     23.4455    138.2661   1.2228054525e+02   4.4071270741e+01    0.4905019    0.1930031  60.55  0.002023116    2.714    0.632
       306  -8.7537    172.4190    138.4717   8.5537210649e+01   2.1448687439e+01    0.3128727    0.2289233 -59.93  0.001090595    1.951    0.488
       307  -7.6618    218.5551    138.5236   7.7122601122e+01   1.2894266526e+01    0.1294462    0.1105832   1.40 9.748794e-05    1.042    0.040
       308  -8.2642    207.6393    138.1035   7.8875179417e+01   1.4915665107e+01    0.1941618    0.1544488 -41.28 0.0005967946    1.498    0.333
       309  -8.5481    197.4432    137.6828   8.0588352767e+01   1.6853834999e+01    0.2153695    0.2060554 -70.50 0.0008101619    1.425    0.298
       310  -8.6360    151.9399    135.6394   8.9225884805e+01   2.5821914509e+01    0.3174645     0.124769  43.70  0.001230395    2.421    0.587
       311 -10.5065     83.1756    133.1054   1.0555090012e+02   3.8229331644e+01    0.6319278    0.3419556 -59.96  0.001576022    1.856    0.461
       312  -8.8563     83.8644    123.4575   1.0365330415e+02   4.0238445905e+01    0.6215577    0.3775323   9.46  0.002511511    3.153    0.683
       313  -8.3880    162.5563    136.3878   8.7114572056e+01   2.3670562891e+01    0.2285386    0.1952279 -62.68 0.0007279544    1.486    0.327
       314  -9.5616     39.1439    136.2702   1.1789702891e+02   4.3032337009e+01    0.2936015    0.1711836  74.94 0.0008505236    1.787    0.441
       315  -8.3228    246.9411    130.3438   7.1015531990e+01   8.9969933228e+00    0.2199086    0.1468343 -32.07 0.0004990146    1.497    0.332
       316  -8.8474    248.3126    135.2533   7.1858921196e+01   8.2053318876e+00    0.2727742    0.1668966 -27.15 0.0006234837    1.481    0.325
       317  -8.7898    250.7275    130.1766   7.0445998289e+01   8.3879454988e+00    0.3867209    0.1060636 -23.51   0.00135734    3.889    0.743
       318  -7.9306    187.8193    135.7919   8.1955653585e+01   1.8942150264e+01    0.1695553    0.1592312 -46.31 0.0004374887    1.314    0.239
       319  -8.7670    179.5496    134.1037   8.3174305032e+01   2.0782729289e+01     0.281511     0.197202 -44.86 0.0008353291    1.623    0.384
       320  -8.1490    231.6740    134.1965   7.4104005916e+01   1.1138246880e+01    0.1887682    0.1426573 -32.74 0.0006859979    1.415    0.293
       321  -9.0879    112.7249    133.2215   9.7922183018e+01   3.3454023692e+01    0.3133016    0.2268476  78.01  0.001029781    1.878    0.467
       322  -7.7332    237.4882    133.5511   7.3081855584e+01   1.0215462547e+01    0.1259864    0.1055283  -2.99 0.0008075699    1.062    0.058
       323  -9.4601    143.0197    131.2743   9.0276549276e+01   2.8305627186e+01    0.4383774    0.2424702 -48.15  0.001097206    1.961    0.490
       324 -10.4680    132.4548    130.6917   9.2601755364e+01   3.0405505438e+01    0.6386459    0.4406102 -67.28  0.001818985    1.967    0.492
       325 -10.4341     98.2881    130.3330   1.0105788258e+02   3.6477701621e+01    0.6125484    0.3380904 -60.18  0.001746884    1.941    0.485
       326  -8.7982     98.8839    121.1611   9.9092579258e+01   3.8335205517e+01    0.3275489    0.2054136 -23.15  0.001362459    2.702    0.630
       327  -9.6008    153.0050    128.5478   8.7444940643e+01   2.6874324176e+01    0.5575879     0.256863 -43.96  0.002143429    2.283    0.562
       328 -10.3676     73.4104    128.4171   1.0741784504e+02   4.0661145017e+01    0.6379454    0.3458707 -64.83  0.002340413    1.846    0.458
       329  -9.6939     71.0564    119.6312   1.0658047923e+02   4.2961872628e+01    0.4465584    0.2439619 -77.85  0.001313846    2.304    0.566
       330 -10.2455     12.9815    129.5594   1.2439507582e+02   4.6856741080e+01    0.4545393    0.2025899  67.58  0.001928684    2.264    0.558
       331  -7.9061    220.6961    130.3260   7.4995575616e+01   1.3580365090e+01    0.1203937    0.1023076 -53.27 0.0006859269    1.644    0.392
       332  -8.2157    211.5903    129.7136   7.6363719441e+01   1.5336971103e+01     0.181876    0.1156072 -37.44 0.0009412411    1.651    0.394
       333  -7.8137    204.5419    130.4872   7.7745729135e+01   1.6550283183e+01    0.1324687    0.1196009  -0.71 0.0001251758    1.086    0.079
       334  -8.1891    192.8717    130.1985   7.9774673461e+01   1.8816135710e+01    0.1928344    0.1823189 -37.34 0.0005349713    1.266    0.210
       335  -9.5421    168.4214    129.5545   8.4394068712e+01   2.3681685769e+01    0.2669933    0.2315294 -75.31  0.001021778    1.564    0.361
       336  -7.7125      1.6407    130.2819   1.2750423614e+02   4.7489115065e+01     0.122854   0.06531655  59.35 0.0006799735    1.671    0.402
       337 -10.7340     44.9656    123.5157   1.1474105612e+02   4.5307423296e+01     1.086831    0.4817148  73.96  0.003897659    3.993    0.750
       338 -10.3916     59.9435    125.1656   1.1067780174e+02   4.3176173740e+01    0.6623957    0.3541618  74.55  0.002555688    2.748    0.636
       339 -10.1491    118.1103    124.8968   9.4864761750e+01   3.4189212587e+01    0.6012605    0.4552284 -75.05  0.001636715    1.664    0.399
       340  -7.7404    228.3631    125.6521   7.2749091399e+01   1.2794401882e+01    0.1249642    0.1007788 -57.47 0.0007024941    1.860    0.462
       341  -8.8684    179.2850    124.8708   8.1143244219e+01   2.2298049572e+01    0.2400718    0.2255737  68.27 0.0007859565    1.310    0.237
       342 -10.2151     28.3859    122.4493   1.1941247483e+02   4.7200714312e+01     0.714236    0.2960825  74.02  0.002803524    3.422    0.708
       343  -8.6639     26.9905    113.5458   1.1883063639e+02   4.9388394989e+01    0.2228475    0.1110569  32.23  0.001142087    2.082    0.520
       344  -7.5700    244.2604    124.6594   7.0170594480e+01   1.0116087648e+01    0.1179063   0.09007306 -40.75  0.000462485    1.588    0.370
       345  -7.9532    188.5291    124.0671   7.9184343134e+01   2.0589257625e+01    0.1999126    0.1301184 -33.19 0.0004759902    1.519    0.342
       346  -7.9998    195.4996    122.7208   7.7586920673e+01   1.9416319223e+01    0.1835064    0.1238351 -42.27 0.0009261927    1.637    0.389
       347  -9.2353    158.6145    121.5631   8.4624089759e+01   2.6995609264e+01    0.3376738    0.2584305 -68.09  0.001016115    1.844    0.458
       348  -8.4909    172.0222    121.5439   8.1814892670e+01   2.4293883533e+01    0.2458131    0.1898054 -48.42 0.0004903937    1.484    0.326
       349 -10.1534    130.8387    118.5976   9.0306090031e+01   3.3054968567e+01    0.4842557    0.3038904 -61.04  0.001512386    2.060    0.515
       350 -10.3962    133.4410    109.2236   8.7419633244e+01   3.4368435739e+01    0.6687509    0.2924477 -45.59  0.002354531    2.338    0.572
       351  -7.3228    244.6739    120.3071   6.9156515676e+01   1.0559629244e+01    0.1173372   0.09524321 -47.77 0.0003339337    1.651    0.394
       352 -10.1924    141.6157    117.7786   8.7544828957e+01   3.1092965854e+01    0.6544374    0.3119724 -48.61  0.001763193    2.304    0.566
       353  -9.7542      3.2825    117.5874   1.2624585318e+02   5.0230125951e+01    0.4930581    0.1737873  62.16  0.002152971    3.000    0.667
       354  -7.2279    231.3667    118.2866   7.0636959807e+01   1.3180128832e+01    0.1378726   0.08843461  15.04 0.0007021316    1.699    0.411
       355  -7.7291     18.3295    118.3115   1.2192485407e+02   4.9002079723e+01    0.1196882   0.08255721 -47.37 0.0006314601    1.669    0.401
       356  -9.9222    109.4195    114.4521   9.4815303435e+01   3.7922071962e+01    0.4811887    0.3255704 -76.99  0.001546881    2.116    0.527
       357  -8.4878    185.6660    116.1398   7.7850714710e+01   2.2388678155e+01    0.2124517    0.1644254 -42.65 0.0005237669    1.411    0.291
       358  -7.8920    203.3604    122.2419   7.6079358243e+01   1.7947811244e+01    0.1878509    0.1161736 -39.29 0.0004133466    1.703    0.413
       359  -8.9844     59.2664    115.2129   1.0928136273e+02   4.5542375431e+01    0.3530754    0.2299887 -10.24  0.001599096    2.766    0.638
       360  -8.8008    249.6840    114.3150   6.7136533533e+01   1.0393426241e+01    0.2824841    0.1939662 -50.29  0.001555947    2.070    0.517
       361  -8.1452    193.0084    115.3191   7.6289721440e+01   2.1020573117e+01    0.1882841    0.1730905  14.22  0.000484505    1.065    0.061
       362 -10.4147     92.7114    111.4030   9.8734372305e+01   4.1489102583e+01    0.8489124    0.3538181 -58.20   0.00242594    2.591    0.614
       363  -9.9727     78.8277    112.4283   1.0295955133e+02   4.3465994415e+01     0.541124    0.3468999 -89.66  0.001864785    2.181    0.542
       364  -8.6334     78.0549    105.6964   1.0179527681e+02   4.5109631974e+01    0.3950789    0.2587282   0.37  0.001561549    2.800    0.643
       365  -8.1247    167.4158    114.2594   8.1008977875e+01   2.6454391464e+01    0.1930866    0.1326673 -45.67 0.0004704129    1.584    0.369
       366 -10.1869    121.8786    112.5234   9.1114429825e+01   3.5992555292e+01    0.4577899    0.3747657 -73.89  0.001540861    1.461    0.315
       367 -10.0886    118.8983    106.8998   9.0520120366e+01   3.7711231443e+01    0.4639497    0.2966288  60.04  0.001967812    1.934    0.483
       368 -10.7483    109.3701     99.0623   9.1103123632e+01   4.1169789182e+01    0.8778574    0.4940544  66.66   0.00311812    3.291    0.696
       369  -8.9992    107.6513     92.6557   8.9887814516e+01   4.2845607241e+01     0.505982     0.274735  27.38  0.001932415    2.628    0.619
       370  -9.9404     14.4063    111.2998   1.2242920801e+02   5.0923722970e+01    0.4631026    0.2153466  63.28  0.001517682    2.286    0.562
       371  -8.4397    174.8186    112.0886   7.8968607141e+01   2.5275395854e+01    0.2135616    0.1904327 -55.20 0.0006332567    1.327    0.246
       372  -9.1017    158.6959    111.3044   8.2124565558e+01   2.8778790506e+01    0.2834603    0.2320952 -77.03 0.0008947058    1.680    0.405
       373 -10.2694     66.3783    110.3279   1.0626692637e+02   4.5735534201e+01    0.5179858    0.3220766 -76.01  0.001810634    1.755    0.430
       374  -7.9216    182.6525    109.7647   7.6861489209e+01   2.4011604821e+01    0.1996742    0.1246109 -40.63 0.0008579338    1.653    0.395
       375  -9.3531     43.2528    109.3180   1.1323623337e+02   4.8795228877e+01    0.3049344    0.2151701   2.39  0.001641251    2.025    0.506
       376  -9.9361    248.8053    107.6542   6.5755599790e+01   1.1325910672e+01    0.3682427    0.2297092 -22.38  0.002066797    1.365    0.267
       377 -10.3461    248.9693    102.6947   6.4600867530e+01   1.1877940356e+01    0.3768114    0.2693648   1.50  0.002216814    1.340    0.254
       378  -9.2023    109.6242    107.3383   9.3097676414e+01   3.9380814798e+01    0.3959224    0.2441319  27.72  0.001209502    1.988    0.497
       379  -7.8790    213.7827    106.1738   7.0516320414e+01   1.8141272950e+01     0.188323    0.1449489   8.09 0.0004213926    1.296    0.228
       380  -9.3734    139.9448    104.6953   8.4701520452e+01   3.3903544459e+01    0.3610328    0.2817383 -75.92 0.0009688384    1.756    0.431
       381 -10.6169     45.6268    102.3452   1.1135644001e+02   5.0181987379e+01    0.7636697    0.3783094  67.73  0.003034126    3.119    0.679
       382 -10.7048     22.8781    102.8155   1.1883347033e+02   5.2262718778e+01    0.7241061    0.3330586  72.32  0.002890778    2.788    0.641
       383  -8.5078    166.6122    104.1332   7.8621964605e+01   2.8338282264e+01     0.301161    0.1628328 -45.24 0.0007602212    2.009    0.502
       384  -9.5874    150.5679    103.2425   8.1860691387e+01   3.1932849910e+01    0.4111675    0.2740962 -58.24  0.001110741    1.950    0.487
       385  -9.7526      6.7218    102.6942   1.2402186233e+02   5.3453997056e+01    0.4206247    0.2000707  82.01  0.001687561    2.056    0.514
       386 -10.0307    128.6102    102.0712   8.6797496346e+01   3.6748797508e+01    0.3683433    0.2925926 -70.48  0.001016172    1.563    0.360
       387  -8.5797    130.4899     97.5010   8.5112618405e+01   3.7257423117e+01     0.302665    0.1286415  34.11 0.0009830191    3.261    0.693
       388  -8.1841    175.5267    102.1001   7.6292467752e+01   2.6754800632e+01    0.2172202    0.1375507 -34.48 0.0005477916    1.542    0.351
       389  -8.4285    159.7805    100.9665   7.9233198670e+01   3.0355837667e+01    0.2670445    0.1952218 -53.20 0.0008654473    1.598    0.374
       390  -9.3606     81.9907     99.5831   9.9233205717e+01   4.5880400274e+01    0.4620345    0.2637566 -67.52  0.001422983    2.059    0.514
       391 -10.4629     64.0610     95.5306   1.0400529083e+02   4.9491010669e+01     1.004402    0.4130263 -63.34  0.003259717    2.476    0.596
       392 -10.8613    123.7404     91.9208   8.5308056807e+01   3.9761053215e+01    0.6418889    0.5582657 -11.20  0.002146138    1.253    0.202
       393  -9.3830     94.9165     97.1270   9.4744717368e+01   4.4246593508e+01    0.3174163    0.2538645 -73.09 0.0007246435    1.396    0.283
       394  -8.6858    150.6340     96.1428   7.9947062402e+01   3.3199645372e+01    0.3026274    0.1910615 -18.86  0.001283922    1.990    0.497
       395  -8.1849    189.1406    107.9193   7.5183913923e+01   2.2941560984e+01    0.2094798    0.1852938 -43.28 0.0005108483    1.263    0.208
       396  -7.6471    188.6812     94.3109   7.1765266256e+01   2.5117699573e+01    0.1412518    0.1130443 -64.07 0.0005945186    1.643    0.391
       397  -8.3886    176.3154     93.4002   7.3828016285e+01   2.7985637027e+01    0.2494368    0.1642525 -49.02 0.0005945832    1.746    0.427
       398  -8.3074    164.8604     94.1776   7.6333494514e+01   3.0403602233e+01    0.2184172    0.1977867 -61.19 0.0005202648    1.275    0.216
       399  -9.4168    138.9167     92.4763   8.1659044954e+01   3.6425194636e+01    0.3580221    0.2845054 -80.38 0.0008394024    1.713    0.416
       400  -9.4295     46.0879     92.4807   1.0941814574e+02   5.2473983218e+01    0.3751454    0.2252518  -2.25  0.001638662    2.950    0.661
       401  -9.8700      5.1119     91.7611   1.2351138124e+02   5.6125792642e+01     0.434568    0.2278897  75.48  0.001937181    1.917    0.478
       402  -8.1625    157.8012     91.6275   7.7120174005e+01   3.2411742672e+01     0.242429    0.1722777 -39.99 0.0006043307    1.405    0.288
       403  -9.7215     34.9080     90.2020   1.1289267968e+02   5.4198843143e+01    0.4477637    0.2449544  86.40  0.001733912    2.297    0.565
       404  -8.0174    150.9738     89.0407   7.7889616780e+01   3.4391563233e+01    0.2306189    0.1820533 -68.24 0.0005919543    1.638    0.390
       405  -8.5957    102.0969     88.5920   9.0369628254e+01   4.4769416685e+01     0.203098    0.1797703  41.94 0.0005130034    1.160    0.138
       406 -10.1544     86.3236     86.1737   9.4509037879e+01   4.8162822512e+01    0.5669836    0.3761989 -68.83  0.001320633    1.828    0.453
       407  -8.0466    164.1842     87.2627   7.4547297135e+01   3.1714819341e+01    0.2322997    0.0996551 -42.24 0.0004407905    2.390    0.582
       408  -7.7192    139.6358     87.7068   8.0129975477e+01   3.7155701619e+01    0.1567066    0.1158001  13.77 0.0007028935    1.709    0.415
       409 -10.1167     48.4347     83.9297   1.0683509338e+02   5.4235199835e+01    0.5900286    0.3497479 -84.21  0.001970957    2.124    0.529
       410  -9.8809    104.9136     83.3454   8.8049801762e+01   4.5327209292e+01    0.4689967    0.3273461 -71.77  0.001002434    1.984    0.496
       411  -8.3225    157.8288     84.1454   7.4983849059e+01   3.3688583348e+01    0.2201603     0.198664 -48.88 0.0004447825    1.182    0.154
       412  -9.2975    140.8096     82.8263   7.8419820889e+01   3.7789003686e+01    0.3145501    0.2312475 -49.69 0.0007408294    1.456    0.313
       413  -9.2887     23.0496     90.3601   1.1709788595e+02   5.5219282701e+01    0.3254415    0.2692653 -28.40  0.001443079    1.457    0.314
       414  -9.6480     10.3487     81.4828   1.2046158255e+02   5.8260049870e+01    0.4140333    0.1806647  55.75  0.001869362    2.726    0.633
       415  -9.6507     24.5780     80.4236   1.1496581076e+02   5.7481293421e+01    0.4569713    0.2339999  87.40  0.001504264    2.412    0.585
       416  -8.5411    150.1961     80.6754   7.5623601152e+01   3.6035619090e+01    0.2665825    0.1937736 -45.29 0.0007252234    1.424    0.298
       417  -9.0443    119.3461     80.4931   8.3145548109e+01   4.2943174450e+01    0.3389152    0.2448386 -63.95 0.0007645547    1.737    0.424
       418  -8.9630     74.3550     80.3538   9.6842496417e+01   5.1455683762e+01    0.3461336    0.2365425 -74.89  0.001026422    1.823    0.451
       419  -8.2908    166.7460     79.8952   7.1906007074e+01   3.2335405138e+01    0.2055738    0.1855561 -26.29 0.0004589729    1.074    0.069
       420  -7.6614    184.4233     78.5176   6.8191187383e+01   2.8453590224e+01    0.1461707    0.1357943 -16.03 0.0001974292    1.024    0.023
       421 -10.0265     63.6085     74.3110   9.8945244865e+01   5.4474394119e+01    0.7460464    0.3158982 -65.28  0.002441236    3.198    0.687
       422  -8.6901     64.5960     63.2732   9.5296873184e+01   5.6814445397e+01    0.5221192    0.3097239 -14.88  0.001942556    3.380    0.704
       423 -10.1019    128.3101     74.5848   7.8961213599e+01   4.2113117432e+01    0.7104049     0.360415 -33.06  0.002040602    2.055    0.513
       424  -8.7757    105.4140     76.9417   8.5977072099e+01   4.6548109469e+01    0.2944827    0.1954898  25.14 0.0008021569    1.919    0.479
       425  -7.9129    157.2936     76.6380   7.2874374537e+01   3.5074607038e+01    0.1550619     0.116246 -63.30 0.0007029988    1.704    0.413
       426  -8.6350    140.5085     75.5176   7.6267543235e+01   3.9170732079e+01    0.2615514    0.1338352 -46.27 0.0002061924    2.095    0.523
       427  -9.7707     82.3477     72.8171   9.1952799078e+01   5.1787856269e+01    0.4310777    0.2969145 -72.00   0.00103448    1.914    0.477
       428  -8.4136    163.3200     73.5532   7.0703425374e+01   3.4158970485e+01    0.2740272    0.1655778 -42.30 0.0006906328    1.679    0.405
       429  -7.9941    151.4773     73.5271   7.3168019941e+01   3.6960126111e+01    0.1497408    0.1452159 -30.99 0.0001681211    1.056    0.053
       430  -8.6236    115.7188     72.9841   8.1791882538e+01   4.5185175602e+01    0.2629488    0.1985987 -53.05 0.0006312276    1.412    0.292
       431  -9.5276     95.1441     70.4660   8.7049627226e+01   4.9916761440e+01    0.6749141    0.2592508 -50.10  0.002341785    2.748    0.636
       432  -8.4403     42.6791     73.0539   1.0649798190e+02   5.7480483463e+01     0.215499    0.1550726 -82.16 0.0006497672    1.493    0.330
       433  -7.6882    175.4739     72.5109   6.8059692545e+01   3.1444944425e+01    0.1482029    0.1402067 -12.44 6.358636e-05    1.011    0.011
       434  -9.4805    105.7833     70.9096   8.3955299914e+01   4.7690695801e+01    0.5448281    0.2024491 -46.24   0.00123836    2.702    0.630
       435  -9.5826     51.2792     69.4582   1.0223925036e+02   5.7287939219e+01    0.5477344    0.2680791 -73.36  0.001746768    2.981    0.665
       436  -9.1340     16.5360     70.2050   1.1634523512e+02   6.0555652390e+01    0.2718249    0.1896655  78.83 0.0009477094    1.520    0.342
       437  -7.7392    157.0060     69.9447   7.0881150866e+01   3.6241011616e+01    0.1841677    0.1695921 -21.58 0.0003938679    1.050    0.048
       438  -8.6899    146.9870     68.3977   7.2538961216e+01   3.8883434714e+01    0.2807269     0.200239 -47.67 0.0005388449    1.490    0.329
       439 -10.0118    117.1270     67.3116   7.9545957417e+01   4.5962073001e+01    0.2649973     0.255668  -4.09  0.000208306    1.022    0.022
       440  -9.1205    121.6787     66.1330   7.7927279628e+01   4.5165994574e+01    0.3200897    0.2577814 -64.32 0.0006575382    1.481    0.325
       441  -8.8324    138.7075     66.5182   7.3815417566e+01   4.1163042551e+01    0.2936013    0.2298382 -48.97 0.0006968025    1.353    0.261
       442  -8.6621     83.3796     65.5814   8.9297901668e+01   5.3153838526e+01    0.4048344    0.2505981   3.48  0.001441998    3.481    0.713
       443  -9.0030    110.1965     63.7864   8.0287361905e+01   4.8144233140e+01    0.3200782    0.2183267 -58.59 0.0006053064    1.789    0.441
       444  -8.7264     37.2366     64.2857   1.0651735111e+02   6.0145589328e+01    0.2921045     0.205673  84.04 0.0009206209    1.773    0.436
       445  -7.5178    187.5244     63.5106   6.3311483440e+01   2.9890263093e+01    0.1462734    0.1370237 -25.66 0.0008097568    1.040    0.039
       446  -7.8642    158.1670     62.0898   6.8156270763e+01   3.7205347829e+01    0.2055422    0.1722463 -55.89 0.0004015925    1.320    0.242
       447  -8.8735     28.3082     71.0538   1.1174041862e+02   5.9409725495e+01    0.2837682    0.1677599 -32.60  0.001300219    2.070    0.517
       448  -9.2515     97.5351     60.7081   8.3001059056e+01   5.1408348493e+01    0.2979524    0.2587205  45.55  0.000777136    1.206    0.171
       449  -9.8141     73.4108     58.5536   9.0433399961e+01   5.6402576342e+01    0.7866079     0.255087 -46.82  0.002711107    2.848    0.649
       450  -7.6000    164.3109     60.2934   6.6385827995e+01   3.5976170928e+01    0.1540677    0.1129818  21.01 0.0003151826    1.590    0.371
       451  -8.1079     89.0033     59.9677   8.5486506426e+01   5.3256541399e+01    0.2225447    0.1784057 -75.28 0.0006335519    1.600    0.375
       452  -8.2628    147.1300     59.1751   6.9486850865e+01   4.0356744714e+01    0.2125739    0.1749224 -54.66 0.0005353096    1.339    0.253
       453  -9.9494     23.4918     56.5579   1.1053972504e+02   6.3274184950e+01    0.4869613    0.2698876  83.46   0.00214524    2.740    0.635
       454  -8.2376    130.8416     58.1019   7.2845384856e+01   4.4460432827e+01    0.2327565    0.2003592 -56.46 0.0005717445    1.275    0.216
       455  -9.5214      7.5403     57.3811   1.1791812976e+02   6.4192941459e+01    0.3076602    0.1956849  75.40 0.0009989834    1.773    0.436
       456  -9.4926    119.1768     55.2990   7.4807944212e+01   4.7677415215e+01    0.4660322    0.2217715 -42.28  0.001258151    2.098    0.523
       457  -9.4322     54.3370     55.6818   9.6876392542e+01   6.0010222824e+01    0.3683026    0.2283576 -66.62  0.001220924    1.875    0.467
       458  -8.3312    139.8744     56.1431   7.0051202509e+01   4.2610028620e+01     0.233499    0.1994419 -55.86 0.0005332927    1.284    0.221
       459  -8.7649     44.2162     55.6423   1.0112236010e+02   6.1351223203e+01    0.2490088    0.1969607 -81.08 0.0007809809    1.452    0.311
       460  -8.5487    105.7945     53.3120   7.7804691332e+01   5.1052155438e+01    0.3018719    0.2168685 -60.09  0.000729068    1.731    0.422
       461  -9.5131     92.4396     50.7158   8.0941404092e+01   5.4376531824e+01    0.4186508    0.2362256 -51.81  0.001166365    2.024    0.506
       462  -8.1188    144.6459     49.2420   6.6604087473e+01   4.2506548690e+01    0.2074755     0.141645 -18.76  0.000511976    1.547    0.354
       463  -8.2076    129.9914     49.2822   6.9895336827e+01   4.6112984321e+01    0.2065711    0.1992862  51.63 0.0003693758    1.079    0.074
       464  -8.8174    120.8196     47.5296   7.1502509687e+01   4.8602055864e+01    0.2601279    0.2042285 -29.02 0.0005344037    1.244    0.196
       465  -8.5532    112.3045     47.0074   7.3556607702e+01   5.0686522767e+01     0.314689    0.2095202 -51.83 0.0008306507    1.726    0.421
       466  -8.8358     81.9996     46.3785   8.2771287253e+01   5.7287100362e+01    0.2953099    0.1890645 -48.69 0.0005701339    1.597    0.374
       467  -8.5067     45.0539     44.7126   9.7070722955e+01   6.3677842213e+01    0.2264574    0.1720853 -62.92 0.0006084338    1.361    0.265
       468  -8.9593     16.7227     44.8215   1.1076540199e+02   6.6555869451e+01    0.2275424     0.156262 -82.88 0.0007297012    1.558    0.358
       469  -8.9436    132.8096     43.5108   6.7104105636e+01   4.6312519871e+01    0.2972586    0.2239826 -57.94 0.0007640045    1.561    0.359
       470  -8.6783     92.7785     43.0805   7.7794805288e+01   5.5702159568e+01    0.2816026    0.2014713 -15.18  0.001299707    1.593    0.372
       471  -9.0394     58.1094     42.5361   9.0484731999e+01   6.2259097951e+01    0.3543215    0.2139515 -64.59  0.001314001    2.321    0.569
       472  -7.9044     32.5036     44.4805   1.0287936293e+02   6.5212749599e+01    0.1338344    0.1119989 -45.14 0.0003058735    1.046    0.044
       473  -9.2071     69.7549     42.0703   8.5554159645e+01   6.0398752644e+01     0.345559    0.2576579 -77.41  0.001089128    2.071    0.517
       474  -9.4023      5.2332     42.2402   1.1598386164e+02   6.7888446604e+01    0.3041665    0.1804356 -88.44  0.001227024    1.818    0.450
       475  -8.6899    105.9117     41.3080   7.3083946795e+01   5.3105550230e+01    0.3337895    0.1911456 -47.19 0.0008494392    1.928    0.481
       476  -7.5003    140.4483     41.4742   6.4687845459e+01   4.4697328152e+01     0.149284    0.1448913 -26.26 0.0002188786    1.039    0.037
       477  -8.6395     36.8895     41.0742   9.9575450523e+01   6.5480816086e+01     0.198377    0.1709826 -78.78 0.0006351569    1.343    0.256
       478  -9.0673     95.4633     38.2876   7.4941958020e+01   5.5949476324e+01    0.3394214    0.2151327 -49.56 0.0009649922    1.785    0.440
       479  -8.1123     80.8945     36.9325   7.9203949367e+01   5.9243956577e+01    0.2181237    0.1726879 -65.27 0.0006450455    1.639    0.390
       480  -9.5553     26.1228     35.2366   1.0290127376e+02   6.7919772518e+01    0.3866948    0.2086109 -62.79  0.001173273    1.780    0.438
       481  -7.5788    133.5036     36.4794   6.4284063468e+01   4.7155963937e+01    0.1485837    0.1451836 -23.08 0.0002735027    1.042    0.040
       482  -8.2230    125.9744     35.5301   6.5592372279e+01   4.9178740434e+01    0.2316176    0.1939207 -23.69 0.0005307916    1.173    0.147
       483  -8.3546    111.8566     34.9936   6.8851340189e+01   5.2707645521e+01     0.226739     0.195441 -54.98 0.0005890351    1.296    0.228
       484  -8.3074    119.3042     33.4192   6.6318799910e+01   5.1131291790e+01    0.2576823    0.1644024 -46.87 0.0006746943    1.727    0.421
       485  -7.7691    104.3342     34.6948   7.0776940261e+01   5.4525537481e+01    0.1485137    0.1163248 -68.04 0.0007039087    1.666    0.400
       486  -7.8291     88.5145     34.5534   7.5547200179e+01   5.8076424260e+01    0.1436585    0.1364116 -22.13  0.000476859    1.062    0.058
       487  -8.8614     48.4816     33.3384   9.0915243274e+01   6.5581935202e+01    0.2784783    0.2152402 -58.39 0.0008428403    1.421    0.296
       488  -7.9642    139.4729     31.9606   6.1318136394e+01   4.6242605660e+01    0.2248857    0.1443601 -26.59 0.0006872849    1.530    0.346
       489  -9.1045     71.9974     30.9923   7.9800601870e+01   6.2032472424e+01    0.3647988      0.17941 -44.11  0.001124483    2.032    0.508
       490  -8.8447     12.9853     30.3271   1.0844806621e+02   7.0131705522e+01    0.2945704    0.1627825 -74.45  0.001426896    1.983    0.496
       491  -8.3700    101.4825     29.5092   6.9328665809e+01   5.5972960469e+01    0.2480719    0.1259208 -40.49 0.0006955818    2.004    0.501
       492  -8.8242     60.3104     32.6036   8.5284975662e+01   6.3853714912e+01    0.2527067    0.2078598 -62.47 0.0007038089    1.484    0.326
       493  -8.8007     81.5645     27.5574   7.4684615204e+01   6.0686968120e+01    0.2819422     0.221168 -65.11 0.0007442876    1.719    0.418
       494  -8.8258      3.7027     27.4844   1.1302612028e+02   7.1356154759e+01     0.285815    0.1509192 -78.42  0.001460451    2.000    0.500
       495  -8.8292     91.8771     26.3619   7.0741870774e+01   5.8634564638e+01    0.3203913    0.1836636 -43.92  0.001104676    1.882    0.469
       496  -8.4321    104.3935     22.8135   6.5514526656e+01   5.6225092228e+01    0.1985598     0.136363 -10.59 0.0004280786    1.565    0.361
       497  -7.8414     34.4110     23.1728   9.3350196689e+01   6.9522315587e+01    0.1781999    0.1148292 -56.74 0.0005154426    1.650    0.394
       498  -8.9827     63.5361     21.1194   7.8301239027e+01   6.5301720633e+01    0.3192536    0.2172203 -51.35 0.0009457624    1.767    0.434
       499  -8.8464     48.3967     21.9058   8.5506315170e+01   6.7775663731e+01    0.2259811    0.2119885 -43.19 0.0006540595    1.217    0.178
       500  -8.1188     19.6137     21.7561   1.0123308774e+02   7.1441142579e+01     0.172729    0.1086462 -62.66 0.0005314702    1.608    0.378
       501  -8.1708    120.7774     21.1961   6.0853602822e+01   5.2376980466e+01    0.2498904    0.1377412 -58.54 0.0009334679    2.699    0.629
       502  -8.8713     74.1924     19.7762   7.3451062066e+01   6.3421709666e+01    0.3230941    0.1885822 -47.74 0.0009517287    2.039    0.510
       503  -8.2801     87.7358     17.4682   6.7713129276e+01   6.0824802845e+01    0.2558832    0.1565846 -36.92 0.0006195422    1.638    0.390
       504  -7.6500     38.5547     18.5214   8.8754493758e+01   6.9860374265e+01    0.1312099    0.1131315 -29.09 0.0001186988    1.043    0.041
       505  -7.9448    112.9306     17.0050   6.0771329793e+01   5.4854602325e+01    0.1758385    0.1599726  -8.71 0.0004430687    1.076    0.071
       506  -8.1446     30.0609     16.0344   9.2197904021e+01   7.1450448937e+01    0.1855532    0.1560256 -78.05 0.0006430456    1.710    0.415
       507  -7.9194      7.3919     15.7012   1.0649299660e+02   7.3715925792e+01    0.1148637   0.09003431  67.33 0.0007010042    1.796    0.443
       508  -7.7418     17.1826     14.3898   9.9343396871e+01   7.3184678558e+01    0.1493376    0.1139878  35.67 0.0004208343    1.608    0.378
       509  -9.0013    175.6159    247.7086   1.0226516170e+02   6.2725920157e+00    0.2212246    0.1854269  66.69  0.001087853    1.960    0.490
       510  -9.0794    156.3650    247.7983   1.0546495676e+02   8.7429238632e+00    0.1960056    0.1593891 -17.53 0.0006089635    1.543    0.352
       511  -8.3449    113.0749    248.6539   1.1291180976e+02   1.4118007962e+01     0.152235    0.1230236  68.67 0.0008182684    1.441    0.306
       512  -9.2846    103.8216    246.9499   1.1436656653e+02   1.5468712311e+01    0.2942767    0.1812858 -89.73  0.001801779    2.544    0.607
       513  -8.9326    242.9229    246.5683   9.1681512170e+01  -1.9594560900e+00    0.2332439    0.1198049 -19.82  0.001219666    2.030    0.507
       514  -8.8102    232.5107    247.2094   9.3295733755e+01  -7.8393380565e-01    0.1750597    0.1265736   1.14   0.00097748    1.264    0.209
       515  -8.5283    218.7029    247.7327   9.5441960210e+01   8.3950689921e-01    0.1981706    0.1112056 -25.53  0.001395021    2.056    0.514
       516 -10.0333    223.9251    244.1326   9.4180910765e+01   5.1285531979e-01    0.3250367    0.1869069 -35.20  0.002325544    2.382    0.580
