#   1 NUMBER                 Running object number                                     
#   2 MAG_AUTO               Kron-like elliptical aperture magnitude                    [mag]
#   3 X_IMAGE                Object position along x                                    [pixel]
#   4 Y_IMAGE                Object position along y                                    [pixel]
#   5 X_WORLD                Barycenter position along world x axis                     [deg]
#   6 Y_WORLD                Barycenter position along world y axis                     [deg]
#   7 A_WORLD                Profile RMS along major axis (world units)                 [deg]
#   8 B_WORLD                Profile RMS along minor axis (world units)                 [deg]
#   9 THETA_WORLD            Position angle (CCW/world-x)                               [deg]
#  10 FWHM_WORLD             FWHM assuming a gaussian core                              [deg]
#  11 ELONGATION             A_IMAGE/B_IMAGE                                           
#  12 ELLIPTICITY            1 - B_IMAGE/A_IMAGE                                       
         1 -12.6859     84.0943     23.5725   5.0159812314e+01   6.0351290926e+01    0.5353649    0.3446507 -68.17  0.002372784    2.726    0.633
         2 -11.3872     85.4283     11.2583   4.4328596165e+01   6.1491729591e+01    0.1782916    0.1179479 -38.06 0.0009520177    1.671    0.402
         3 -11.7733    210.5178      7.9749   2.4993752086e+01   3.1909741175e+01    0.3133832    0.1599162 -51.14  0.001657682    1.675    0.403
         4 -10.5991    223.4783      6.4561   2.3740108792e+01   2.9251534703e+01    0.1215909   0.09749044 -66.40 9.628069e-05    1.019    0.019
         5 -11.3050    144.5742      5.5548   3.0806793880e+01   4.7845055368e+01    0.3335744     0.162559 -63.03   0.00141828    2.539    0.606
         6 -10.3290     67.4722      1.5357   4.4977109078e+01   6.6312394829e+01    0.1250599    0.1088496  34.04 0.0001951605    1.009    0.009
         7 -10.1131     36.0008      1.7681   5.7819955771e+01   7.2162881482e+01    0.1534102   0.08975932  41.06 0.0005532785    1.611    0.379
         8 -12.0458    180.0244    244.4805   8.0383807157e+01  -5.5651785823e-02     0.209192    0.1788402  -3.43 0.0005482306    1.164    0.141
         9 -10.9881    238.0360    249.0129   7.0944781030e+01  -7.7880220827e+00    0.1991269    0.1266016 -25.22  0.001134327    1.491    0.329
        10 -11.9087    177.2955    249.5468   8.1575689079e+01  -3.9281808476e-01    0.2058302    0.1615064  11.89 0.0002211349    1.109    0.098
        11 -11.2901     97.6959    249.6338   9.7067835086e+01   1.0438346583e+01    0.1851335    0.1367957  75.32 0.0002465692    1.545    0.353
        12  -8.6323     96.5152    244.9355   9.6856301612e+01   1.1405804084e+01    0.6142697    0.2478124  29.76  0.002802823    2.470    0.595
        13 -12.2527     92.8468    248.0633   9.7889736116e+01   1.1352432994e+01    0.2820688    0.1660862 -73.72  0.001346946    2.134    0.531
        14 -12.3601     87.9569    250.4634   9.9080958817e+01   1.1581155817e+01    0.3403226    0.1204926  32.95  0.001219402    2.460    0.594
        15 -16.8916    129.4827    181.0755   8.1244352893e+01   1.8811479648e+01     3.633811      2.92463 -55.44   0.02000451    1.321    0.243
        16 -10.5217    131.7904    232.1781   8.8214986559e+01   8.6615455934e+00    0.1687699    0.1326228  14.83 0.0004958556    1.343    0.255
        17 -12.5490    112.8214    228.1130   9.1678457121e+01   1.2136836793e+01    0.3616905    0.2597787  50.28  0.001614263    1.279    0.218
        18 -11.2564    102.7138    228.6719   9.3885646492e+01   1.3481498619e+01     0.365811    0.2346603  15.15  0.001902057    2.095    0.523
        19 -11.3442    177.9804    229.2435   7.8602124455e+01   2.4380250286e+00    0.1731797    0.1324067  25.67  0.001117214    1.116    0.104
        20 -11.8926    150.5252    228.2050   8.3864947696e+01   6.5849493348e+00    0.3383908    0.2434708  19.94  0.001098988    1.349    0.259
        21 -11.3551    144.9822    226.1098   8.4706275777e+01   7.7558604247e+00    0.3253003     0.234661 -68.78  0.001880562    1.932    0.482
        22 -13.0174    187.2804    226.2561   7.6389696211e+01   1.5686011558e+00    0.3523066    0.2391812 -18.11  0.001499601    1.585    0.369
        23 -11.0612    231.9108    227.1675   6.8626585391e+01  -4.4606020866e+00    0.1615664    0.1372841   4.21 0.0006200201    1.219    0.180
        24 -10.7461    138.3727    226.4489   8.6113917834e+01   8.6794076241e+00    0.2216969    0.1611399 -56.96  0.001325236    1.655    0.396
        25 -10.5887    215.3485    226.6879   7.1367283190e+01  -2.3039318709e+00     0.101754   0.09157345  51.29 0.0007046013    1.717    0.417
        26 -11.9983    171.4623    225.3632   7.9290105444e+01   3.9722924556e+00    0.2698574    0.1950211  56.74 0.0004434341    1.891    0.471
        27 -10.3961    118.8298    224.8619   9.0010921799e+01   1.1854709970e+01    0.1610235    0.1325569  62.59  0.001005559    1.283    0.220
        28 -10.4944    117.5227    213.4880   8.8837040353e+01   1.4186042040e+01    0.2211755    0.1317955 -63.69 0.0008269103    2.005    0.501
        29 -12.7134    123.6026    221.2389   8.8534484430e+01   1.1810832749e+01    0.8811944    0.4276886  51.61  0.004009658    2.294    0.564
        30 -12.0191    115.0366    218.3250   9.0006507100e+01   1.3634865743e+01    0.3518246    0.2619196  85.58  0.001305977    1.714    0.417
        31 -11.4452    159.6447    222.2684   8.1179947406e+01   6.2137115057e+00    0.2103096    0.1817794  45.87 0.0008271992    1.252    0.201
        32 -11.3443     11.9134    220.1594   1.1242162484e+02   2.6211882029e+01    0.2886006    0.1638936  36.21  0.001775027    1.627    0.386
        33  99.0000      6.5402    222.5512   1.1361166487e+02   2.6230522179e+01    0.2009026   0.08859365  36.79 0.0007503559    1.928    0.481
        34 -10.7805      3.0244    221.9779   1.1428817355e+02   2.6666947537e+01    0.1965235     0.152426 -64.52  0.001406219    1.604    0.376
        35 -12.8872    173.3314    219.6855   7.8069761575e+01   4.5965973107e+00    0.3435315    0.2581639  14.26 0.0006510956    1.267    0.211
        36 -11.3153    106.5816    220.4122   9.2101543690e+01   1.4484683695e+01    0.2347544    0.2148754   3.89  0.001018154    1.279    0.218
        37 -10.1171    223.4872    220.4396   6.8969273197e+01  -2.5222703333e+00    0.1152479   0.09373658   2.76 4.761152e-05    1.052    0.049
        38 -12.0142    193.6898    218.7242   7.4018392628e+01   1.7818859567e+00    0.2586733      0.17399 -50.55  0.001500378    1.950    0.487
        39 -16.7742    106.9933    144.6158   8.0180162929e+01   3.0982824626e+01     3.561675     2.523987 -63.12   0.01697433    1.461    0.315
        40 -10.6526     16.6642    218.3662   1.1135806102e+02   2.6120131124e+01    0.1335202    0.1031321  30.40 0.0007224443    1.483    0.326
        41 -13.5351    157.1388    211.4706   8.0072495024e+01   8.4277307697e+00    0.5292295    0.4620084  64.85  0.001257992    1.415    0.293
        42 -13.0736    143.1659    213.2974   8.3271157612e+01   1.0274396042e+01    0.5030747    0.3134546 -63.65  0.001498556    2.162    0.538
        43 -12.9134    146.6933    203.1721   8.0985656581e+01   1.1572760590e+01    0.4532197    0.3824064  37.28  0.001305374    1.094    0.086
        44 -10.9422    130.1776    215.7237   8.6388145845e+01   1.1833190226e+01     0.254651    0.1748914 -41.42  0.001418306    1.686    0.407
        45 -12.8176    124.8686    212.0750   8.7036271375e+01   1.3333346844e+01    0.5416964     0.365724 -23.49  0.002755875    2.140    0.533
        46 -11.6240    124.1435    206.0458   8.6351194329e+01   1.4609628642e+01    0.2796139    0.1687652  39.86 0.0006693255    1.474    0.321
        47 -10.1652      2.2569    215.6456   1.1418714553e+02   2.8026620254e+01    0.1224519   0.06097969  64.18 0.0003282787    1.610    0.379
        48 -12.9612    184.4605    213.5044   7.4935281400e+01   3.9278009033e+00     0.424376    0.1877323 -49.92  0.001905091    2.895    0.655
        49 -12.2890    181.0180    214.0000   7.5680336740e+01   4.3613949555e+00    0.2368488     0.131392  38.64 0.0005962737    1.687    0.407
        50 -10.8388    108.4601    236.6926   9.3564890525e+01   1.1214040587e+01    0.3323312      0.17491 -51.11  0.001768954    2.268    0.559
        51 -10.7364      1.5701    212.2064   1.1418584952e+02   2.8799711516e+01    0.1354824   0.09252301 -76.84 0.0005199631    1.466    0.318
        52 -10.8290    209.6708    211.3483   6.9895648987e+01   6.1167039178e-01    0.1074733   0.09902985  77.45 0.0007049215    1.761    0.432
        53  99.0000     14.7453    237.0040   1.1262581358e+02   2.2599847942e+01    0.2533493    0.1682533  39.22  0.001739959    1.386    0.279
        54 -11.9792    194.0317    208.5287   7.2299331185e+01   3.2899785989e+00     0.186363    0.1547146 -19.71 0.0004720232    1.169    0.145
        55 -11.9901    229.3229    206.8764   6.5736183857e+01  -1.4388429084e+00    0.2803956    0.2219801   6.82  0.001937785    1.088    0.081
        56 -11.7863    220.2862    206.3818   6.7191806372e+01  -1.4538636230e-01    0.2016332    0.1760362  -0.44 0.0002876288    1.136    0.120
        57 -12.9137    168.7432    205.6009   7.6765807670e+01   7.6313213079e+00     0.344976    0.2672825  41.29  0.001496338    1.287    0.223
        58 -11.0969     18.8258    205.8429   1.1021212220e+02   2.8549866570e+01    0.2244305     0.140255  87.48  0.001153035    1.420    0.296
        59 -10.9357      6.6347    207.2435   1.1290891792e+02   2.9395692640e+01    0.1362975    0.1151358 -65.33 0.0009657591    1.459    0.315
        60 -10.6943    247.6649    206.3293   6.2667954451e+01  -3.7224629065e+00   0.09727491   0.09087928 -47.73 0.0007052028    1.726    0.421
        61 -10.6296    157.5356    234.4823   8.3324275529e+01   4.5535173588e+00    0.1588894    0.1117366 -30.74 9.504501e-05    1.635    0.388
        62 -10.4973     14.3470    202.3937   1.1099539131e+02   2.9728546770e+01    0.1998772    0.1276454  86.85 0.0006545253    1.360    0.265
        63 -10.9335    215.4796    201.6139   6.7214142425e+01   1.2229859680e+00    0.1911745    0.1564164   4.66 0.0001110617    1.054    0.051
        64 -10.9516    212.3737    200.1429   6.7509441909e+01   1.8889180246e+00    0.1946714    0.1752499  50.96 0.0004663747    1.534    0.348
        65 -11.0228    149.4793    215.2109   8.2226117960e+01   8.9580801715e+00    0.2270577    0.1217969 -42.50 0.0006480054    2.090    0.522
        66 -10.3275     26.2652    201.0968   1.0826409786e+02   2.8835915610e+01    0.2592511    0.1087983  47.42   0.00127975    1.970    0.492
        67 -12.2561    225.1855    198.5955   6.5009242305e+01   2.9755762091e-01    0.2994446    0.2109177 -46.85  0.001807483    1.782    0.439
        68 -13.2010    189.5265    195.2366   7.0890612836e+01   6.1171644379e+00    0.6184664    0.2545239  40.34  0.002709043    2.376    0.579
        69 -11.7395     16.6022    198.0932   1.1024603698e+02   3.0457200518e+01    0.2582535      0.16174  56.07 0.0008927268    1.330    0.248
        70 -10.0946    238.5108    196.5113   6.2435010800e+01  -1.2230493034e+00    0.1190783   0.09579372  -8.28 7.126485e-05    1.008    0.008
        71 -12.1659    170.0638    193.8213   7.4521803880e+01   9.4843361511e+00    0.2951207    0.2486519  67.67  0.001445471    1.573    0.364
        72 -13.9854    162.1292    192.3532   7.5919427694e+01   1.1056845812e+01    0.8002013    0.4268724  54.96  0.003354569    2.688    0.628
        73 -11.1118    212.8684    194.5174   6.6433838626e+01   2.6718827197e+00    0.2668349      0.17182 -44.99 0.0008989957    1.749    0.428
        74  99.0000     17.5518    242.6497   1.1233813020e+02   2.1249008092e+01    0.3606442    0.1735478  55.72  0.002191464    1.573    0.364
        75  -9.4142     22.4907    197.4650   1.0887665106e+02   3.0021773409e+01    0.1229023    0.1003016  71.37 0.0002069371    1.029    0.029
        76 -11.3990    234.0296    192.0217   6.2371657928e+01   1.8995390969e-02    0.1970197    0.1269269  -2.18  0.001078261    1.680    0.405
        77  -8.2304     20.7674    239.2507   1.1156847200e+02   2.1565872035e+01    0.2906387    0.1254324 -69.57   0.00161729    2.429    0.588
        78 -11.1332      5.5001    190.7554   1.1233522986e+02   3.3093977852e+01    0.1564282    0.1232202  62.14 0.0004337076    1.096    0.088
        79 -12.3215    173.2242    188.8350   7.3000078509e+01   9.8572608453e+00    0.3059278    0.2447388  74.98  0.001656853    1.867    0.464
        80 -11.8648    181.6215    189.0720   7.1347703816e+01   8.4332419883e+00    0.2700782    0.1826998  27.09 0.0009443167    1.454    0.312
        81  -8.8193      9.7483    189.0019   1.1126923409e+02   3.3118266331e+01    0.3904697    0.0756769  39.13  0.001556982    3.341    0.701
        82 -11.2474    160.2900    231.9750   8.2435425514e+01   4.5520928822e+00    0.2207964    0.1749968   1.21 0.0005223387    1.314    0.239
        83 -11.2637    248.3155    185.9755   5.9018449635e+01  -1.0621305738e+00     0.218049    0.1543572  14.11 0.0008191121    1.404    0.288
        84 -10.5202    208.6442    185.8883   6.5635411803e+01   4.6616698489e+00    0.1722707     0.111888 -45.90 0.0004777266    1.707    0.414
        85 -12.1883    186.6798    185.8353   6.9763590382e+01   8.1685430505e+00    0.3463389    0.1578454  41.49  0.001117413    2.189    0.543
        86 -10.3883     13.6975    186.3013   1.1018923393e+02   3.3376874386e+01    0.1309836   0.07202954  62.42 0.0006914186    1.589    0.371
        87 -10.8014    213.8092    184.8016   6.4511699674e+01   4.0416327395e+00    0.1551645    0.1489929 -31.72 0.0003668622    1.306    0.234
        88 -11.4208    148.9484    184.0626   7.7327075293e+01   1.4862896150e+01    0.2047857    0.1930337  30.75 0.0003621188    1.027    0.027
        89 -12.2634    177.4056    182.7843   7.1054763143e+01   1.0247882910e+01    0.3219961    0.2099802  15.50  0.001571395    1.865    0.464
        90 -10.1505      9.1525    182.0665   1.1099981434e+02   3.4749752356e+01    0.1811442    0.1631694 -30.45  0.001245526    1.534    0.348
        91 -10.3175     23.1630    181.5500   1.0759821573e+02   3.3578800100e+01    0.1592171    0.1162067  37.46 0.0003743851    1.398    0.284
        92 -10.2526    117.6800    233.0415   9.1239155150e+01   1.0551599314e+01    0.3382669    0.2147357   2.27  0.001617836    2.751    0.637
        93 -12.1642    191.2737    177.9538   6.7405924953e+01   8.7781434189e+00    0.3009528    0.2179182 -44.60 0.0008919046    1.447    0.309
        94 -11.1181    154.8792    230.6068   8.3320638706e+01   5.5548905633e+00    0.3013223    0.2020527   1.73  0.001653422    1.928    0.481
        95 -11.7263     28.1474    176.6337   1.0597473646e+02   3.4236054642e+01    0.5643409    0.2205537 -88.83  0.002164279    2.916    0.657
        96 -11.3860     28.0312    171.5023   1.0556360899e+02   3.5470063831e+01     0.236512    0.1504052  53.50   0.00130557    1.438    0.305
        97 -11.1204    186.3747    243.7175   7.9103885233e+01  -7.9797560280e-01    0.2831385    0.1942732  57.47  0.001622826    2.472    0.595
        98 -11.7718    174.8768    173.1326   6.9761186491e+01   1.2454370897e+01    0.2055414    0.1962938 -82.64  0.001237297    1.258    0.205
        99 -10.6474    197.3389    170.3293   6.4784115179e+01   9.0860832210e+00    0.1409699   0.09874233  -1.75  0.000705182    1.736    0.424
       100 -11.7654    160.0776    169.5169   7.2203030315e+01   1.5781983784e+01    0.2558383    0.2046561 -66.75  0.001182117    1.531    0.347
       101 -13.0463    152.6472    168.2663   7.3604093839e+01   1.7376238691e+01    0.3734835    0.2931734 -66.75  0.001303246    1.533    0.348
       102 -12.9529    156.4169    165.2828   7.2185285714e+01   1.7293742650e+01    0.4489138    0.2257093 -41.40  0.001889967    2.061    0.515
       103 -12.7772    158.4534    157.7276   7.0223105078e+01   1.8448051253e+01    0.3877115    0.2961355  51.73  0.001820146    1.397    0.284
       104 -12.1046    171.4754    169.0026   6.9669073172e+01   1.3835692703e+01    0.2218821    0.1814795  34.37  0.000895624    1.203    0.169
       105 -11.6000    201.9694    167.4684   6.3359429773e+01   8.7987420873e+00    0.2639581    0.1737474 -73.12  0.001052999    3.627    0.724
       106 -11.1287     33.3189    168.0730   1.0387637278e+02   3.5751557334e+01    0.2150111    0.1835743  -8.59 0.0007504627    1.595    0.373
       107 -10.4313     11.5565    167.4272   1.0945050387e+02   3.7973048831e+01    0.1241305    0.1041003  85.69 0.0001039622    1.061    0.057
       108 -14.5216     13.5663    134.6073   1.0612119343e+02   4.5862949270e+01     2.144573     0.454536  38.81  0.007662888    3.904    0.744
       109  99.0000     21.1124    224.5244   1.1076534617e+02   2.4419255717e+01     1.638611     1.345398 -57.51   0.01165671    1.608    0.378
       110 -14.4176     37.4511    138.9035   9.9412405082e+01   4.2570790912e+01    0.8187136    0.5879984  14.36  0.002471769    1.743    0.426
       111 -14.4153     35.2962    132.5251   9.9214223737e+01   4.4419177948e+01     1.055976    0.7035657  -6.03  0.005148829    2.226    0.551
       112 -12.9993     36.5027    126.5893   9.7989549906e+01   4.5805963475e+01    0.4111541    0.3187922   5.68   0.00126004    1.634    0.388
       113 -13.0261     27.1287    160.5063   1.0479527084e+02   3.8226133818e+01    0.4323624    0.2898381  18.70  0.001554372    1.841    0.457
       114 -12.4212     21.6964    159.6714   1.0617955714e+02   3.8948711762e+01     0.269129    0.2254694  33.10 0.0004706991    1.345    0.257
       115 -14.8912     22.5748    152.7723   1.0530070564e+02   4.0565194103e+01     1.200237    0.9285732  22.43  0.005073244    1.533    0.348
       116 -10.1105    222.6732    164.6521   5.9151874655e+01   5.8696126244e+00    0.1357672   0.09182134  -4.40 0.0007049571    1.753    0.430
       117 -10.2950     38.4740    163.5411   1.0204674134e+02   3.6300899404e+01    0.1342184    0.1159495  80.75 0.0008086693    1.004    0.004
       118 -10.7974      3.0462    161.3331   1.1121301535e+02   4.0108804467e+01    0.1913035    0.1386995 -78.06 0.0002743653    1.221    0.181
       119 -12.7542    170.8623    160.2554   6.8057991047e+01   1.5632183014e+01    0.3109116    0.2737233 -23.02  0.001558297    1.127    0.113
       120 -11.0162    184.3071    156.4425   6.4524726904e+01   1.3885249185e+01    0.2333001    0.1694395 -60.88 0.0008532288    1.741    0.426
       121 -10.6687    165.6441    157.3298   6.8571645720e+01   1.7178066173e+01    0.1456101    0.1154853  84.83 2.676091e-05    1.784    0.439
       122 -10.1871    205.3129    164.6889   6.2197632446e+01   8.7111687136e+00    0.1238952    0.1071835 -76.43 0.0002852154    1.631    0.387
       123 -11.1449      3.4831    154.3355   1.1063044554e+02   4.1758610534e+01    0.2875967    0.1400398  64.16  0.001423443    1.969    0.492
       124 -11.7405    212.2199    154.0773   5.8830434338e+01   9.3440843230e+00    0.2293614    0.1970817  46.68 0.0005800103    1.341    0.254
       125 -13.3193    149.9198    143.3548   6.9123478689e+01   2.3083235789e+01    0.5607167    0.4698963 -20.32  0.000901057    1.332    0.250
       126 -12.8699    149.4875    152.4903   7.1168978191e+01   2.1234382792e+01    0.4181668    0.2901891 -13.40  0.001311619    2.102    0.524
       127 -12.9987    145.6228    149.2894   7.1396954286e+01   2.2657258862e+01     0.406879    0.3025267  41.49 0.0004109578    1.340    0.254
       128 -17.1380     49.2626    124.0370   9.3469975779e+01   4.5009421385e+01     5.401687     2.703344  43.64   0.02360218    2.072    0.517
       129 -13.7332    133.3378    147.8698   7.4049967777e+01   2.5330000504e+01    0.6607833    0.4407389 -18.64  0.002199867    2.323    0.570
       130 -14.1497    128.1439    147.4292   7.5248204590e+01   2.6417869490e+01    0.6939927    0.4656636 -61.13  0.002218204    1.632    0.387
       131 -11.5013    179.9654    150.3007   6.4111674805e+01   1.5853104771e+01    0.1969042    0.1852784  17.00 0.0004974371    1.066    0.062
       132 -11.8055     40.0959    149.3106   9.9961899174e+01   3.9654815656e+01    0.3415228    0.1455828 -62.49  0.001461407    2.092    0.522
       133 -10.6829    224.8115    148.8308   5.5636353170e+01   8.0864538984e+00    0.1699301    0.1517572 -57.98 0.0005584914    1.351    0.260
       134 -11.7815    170.5533    145.6131   6.5052548541e+01   1.8568774611e+01    0.3087759    0.2075196 -23.51  0.001412766    1.797    0.443
       135 -12.2866    156.3883    145.0640   6.8019957647e+01   2.1450537759e+01    0.3201516    0.2137273  46.90 0.0005434046    1.533    0.348
       136 -12.3151    141.1307    144.9045   7.1528982592e+01   2.4475844584e+01    0.2680999    0.2272341  23.36 0.0007017831    1.279    0.218
       137 -11.9962     17.2610    143.4340   1.0590324881e+02   4.3355625457e+01    0.3684603     0.206018  27.60   0.00190289    1.960    0.490
       138 -13.2096    170.5239    150.8986   6.6190252786e+01   1.7529091923e+01      0.46657    0.3329305  24.90  0.002103287    1.594    0.373
       139 -10.2145    186.6630    138.7325   6.0280022404e+01   1.6768501551e+01    0.1414194     0.109369   5.60 0.0003423841    1.593    0.372
       140 -12.0207    159.7593    136.2106   6.5305311626e+01   2.2611744127e+01    0.4231707    0.2241651 -31.56  0.001214221    2.349    0.574
       141 -12.5737      4.5006    136.5250   1.0898639378e+02   4.6049207623e+01    0.2920745    0.1905409 -82.90 0.0007990841    1.282    0.220
       142 -12.2179     37.6791    155.0727   1.0133042590e+02   3.8479203962e+01    0.4975833    0.2460031  71.19 0.0009901001    2.477    0.596
       143 -12.2904    140.4269    134.5407   6.9409660977e+01   2.6877855866e+01      0.42839    0.2558869  36.37   0.00182387    1.795    0.443
       144 -11.5589    144.4732    132.0117   6.7858618968e+01   2.6606866862e+01     0.278717    0.2185943  14.10  0.001019338    1.604    0.377
       145 -10.7166    203.0742    133.5449   5.6089512622e+01   1.4573136328e+01    0.1839354    0.1252218  77.73 0.0008079474    2.532    0.605
       146 -12.3866    132.1518    132.2230   7.0925444307e+01   2.9054479649e+01    0.2598707    0.2564073  45.19 0.0007304291    1.032    0.031
       147 -10.1244    198.0178    242.7763   7.6855360595e+01  -2.1987962068e+00    0.1485272    0.0789003  31.51  0.000417383    1.602    0.376
       148 -14.2358    157.6667    127.5309   6.3767634657e+01   2.4834459604e+01    0.9244174     0.672564  71.51  0.003917698    1.800    0.445
       149 -10.7883    134.0165    127.4872   6.9359799252e+01   2.9732884419e+01    0.2201224    0.1998708 -49.78 -2.96435e-05    1.089    0.082
       150 -13.1022    120.8173    123.9964   7.1947698915e+01   3.3188000662e+01    0.4479648    0.3280326  73.87  0.002003176    1.760    0.432
       151  -9.9705    244.3214    128.6719   4.8544179821e+01   8.0619501905e+00    0.1258489   0.09139255 -59.27 0.0007048323    1.689    0.408
       152 -11.2805    120.0037    120.2621   7.1271430468e+01   3.4205814673e+01    0.2385401    0.2272816 -48.25 0.0003755118    1.054    0.051
       153 -10.7466    189.2515    121.9680   5.5987409910e+01   1.9398130304e+01    0.1990305    0.1860994 -40.48 0.0008051091    1.016    0.016
       154 -17.5055     53.1923    228.6644   1.0438958609e+02   2.0024117409e+01     3.593032     2.024681  48.10   0.02086737    1.432    0.301
       155 -11.1649    201.8564    120.1722   5.3305389352e+01   1.7195156541e+01    0.1856388     0.160432  -0.08 0.0002593175    1.304    0.233
       156 -11.1305    114.3825    120.3505   7.2821667216e+01   3.5306079172e+01    0.2209269    0.1805249 -10.22  0.001047872    1.573    0.364
       157 -12.6237    152.4554    129.8488   6.5490456030e+01   2.5429888674e+01    0.4498101    0.3217604  41.33  0.002140222    1.436    0.304
       158 -12.2832     11.6979    115.9692   1.0468444590e+02   5.0685788825e+01    0.3603276    0.2068752 -78.41  0.001863451    1.513    0.339
       159 -11.1006    137.9250    130.9559   6.9198744605e+01   2.8170478104e+01    0.2562926    0.2162774  42.12  0.000592974    1.201    0.167
       160 -12.2124    106.2695    113.8564   7.3523312544e+01   3.8407225246e+01    0.5486201    0.3758014  -0.49  0.002136587    2.608    0.617
       161 -12.3499     82.3740    113.8247   8.0734823381e+01   4.2762762521e+01    0.3525049    0.2709634 -62.74 0.0009030471    1.275    0.216
       162 -11.5771    115.0935    111.4738   7.0431383806e+01   3.7204743517e+01    0.5165415     0.226666 -55.68  0.001787396    2.567    0.611
       163 -11.3212     99.2139    114.4538   7.5730586731e+01   3.9612181524e+01    0.3441703    0.1459322  42.69  0.001005539    2.385    0.581
       164 -12.7034     88.2063    110.8785   7.8209124070e+01   4.2471992520e+01     0.446951    0.2842693 -32.95  0.001345099    1.980    0.495
       165 -12.2136     53.6227    110.7490   8.9543325042e+01   4.7831040417e+01    0.4023607    0.3054248  63.78  0.001782507    1.467    0.318
       166 -11.4979     51.2307    106.9652   8.9598088845e+01   4.9088933624e+01    0.2505655    0.2024388  41.95  0.000410715    1.316    0.240
       167 -17.0971     91.7703    195.3359   9.2339070174e+01   2.1805562209e+01     4.150383     1.706229 -66.89   0.01658744    2.875    0.652
       168 -11.0912    165.4794    110.4660   5.7919558068e+01   2.6626872097e+01    0.1495791    0.1426945 -58.54 0.0001930503    1.026    0.025
       169 -11.9252    141.4853    108.5267   6.2828449595e+01   3.2271186710e+01    0.3042748    0.2000617  44.12 0.0009113334    1.566    0.361
       170 -11.4025    143.7561    105.9932   6.1625347000e+01   3.2305052398e+01    0.2975912    0.2086145 -53.58  0.001060379    1.458    0.314
       171 -11.3111    174.9192    106.2012   5.4932632941e+01   2.5394183605e+01    0.2144328    0.1919684 -70.85 0.0003481692    1.167    0.143
       172 -12.9001     14.8513    105.2498   1.0221939547e+02   5.3150542743e+01     0.352237     0.210567 -51.59   0.00154787    1.551    0.355
       173 -17.7888     68.3977    188.4442   9.7140726606e+01   2.6675662795e+01     3.374039     2.580161  59.10   0.01944679    1.189    0.159
       174 -10.5329    174.7383    243.7512   8.1272571484e+01   7.6095724157e-01    0.1497964    0.1225992  39.22 0.0006210224    1.307    0.235
       175 -11.5534    116.2584    240.5592   9.2390622417e+01   9.4467585968e+00    0.2772141    0.1955413 -56.28  0.001296581    1.700    0.412
       176 -10.3188    117.4179    103.4773   6.7703031871e+01   3.8525206916e+01    0.1522645    0.1478475 -47.35  0.000111074    1.038    0.037
       177 -11.7167     86.7278    101.3450   7.6288767311e+01   4.5010903080e+01    0.3144258    0.1957292 -44.99 0.0009976341    1.599    0.374
       178 -13.6538     75.7678     98.6574   7.9200765207e+01   4.7540145727e+01    0.9609231    0.3979827  49.83  0.003295043    3.079    0.675
       179 -12.6838     58.0412     99.9180   8.5656445266e+01   4.9935889502e+01    0.3958038    0.3214655 -70.60  0.001210735    1.214    0.177
       180 -12.3034     60.4102     93.7500   8.3324401998e+01   5.1103487965e+01    0.4964564    0.2930377 -62.77  0.001829537    1.696    0.410
       181 -11.5159    178.6071     99.7698   5.2603300514e+01   2.5791780486e+01    0.2486687    0.1851048  87.06  0.001175996    1.736    0.424
       182 -11.3663    105.2076    103.9371   7.1296764650e+01   4.0911213176e+01    0.3698267    0.2508983  54.12  0.001009482    1.592    0.372
       183 -11.5231    237.8513     98.7787   4.3081777792e+01   1.3856478292e+01    0.2204228    0.1747779 -45.12 0.0003199326    1.086    0.079
       184 -10.8635    107.3862    242.8020   9.4437816767e+01   1.0295203187e+01    0.3938049    0.1673573  54.22  0.001550962    2.876    0.652
       185 -11.9772     39.3096     96.0517   9.1643275561e+01   5.3225030237e+01    0.2760827    0.1990532  26.24  0.001170869    1.538    0.350
       186 -12.3959     34.6113     94.1059   9.3014074675e+01   5.4206551144e+01    0.2666584    0.2112452 -19.47 0.0005992592    1.458    0.314
       187 -11.0185    162.7920    100.6048   5.5963561099e+01   2.9153301907e+01    0.2165344    0.1439274  65.27 0.0009514707    1.762    0.433
       188 -10.5101    150.6474     95.7157   5.7294603335e+01   3.2852454068e+01    0.1526169    0.1214241  13.95 0.0005173255    1.661    0.398
       189 -11.0891    196.3964     93.3729   4.7868016767e+01   2.3051530840e+01    0.3320769    0.1549127 -42.63  0.001375459    1.947    0.486
       190 -11.0589    213.9607     92.8185   4.5013218621e+01   1.9453500048e+01    0.2034729    0.1818589 -12.59 0.0005979017    1.265    0.210
       191 -11.8730     21.4767     91.4313   9.7548254360e+01   5.6079637550e+01    0.2250116    0.2076047 -61.95 0.0006289885    1.062    0.058
       192 -12.2502      2.6555     91.0399   1.0475128704e+02   5.7446253303e+01    0.2719238    0.2067681 -47.43 0.0007351849    1.262    0.208
       193 -12.9070     12.4196     89.0176   1.0066644840e+02   5.7350665385e+01    0.4715749    0.2731478  85.81  0.002312931    2.002    0.501
       194 -11.2451    170.9523     88.1461   5.1043598292e+01   2.9648573421e+01    0.2276454     0.192799 -72.53 0.0004510216    1.243    0.195
       195 -10.6453     78.3066     88.6729   7.5658074548e+01   4.9453059171e+01    0.1492316    0.1166398  83.62 0.0005226329    1.652    0.395
       196 -13.8379     53.6917     84.9646   8.3574485434e+01   5.4147892333e+01    0.6358061    0.4670638  61.73  0.003216328    1.690    0.408
       197 -10.7559    162.6472     87.7131   5.2561958644e+01   3.1637697827e+01    0.1497687    0.1188095  17.76 0.0007023068    1.667    0.400
       198 -12.1006     45.9256     86.4949   8.6953398646e+01   5.4790037512e+01    0.2201641    0.1760837 -58.12 0.0005241775    1.147    0.128
       199 -10.9034     66.2569     86.6482   7.9344905737e+01   5.1911228133e+01    0.1431686    0.1122397  89.71  0.000696507    1.604    0.377
       200 -10.4182     85.2324     85.0086   7.2264346932e+01   4.9041571102e+01    0.2011631    0.1824669 -47.90  0.001083122    1.070    0.066
       201 -10.1950    196.7300     84.6768   4.5659902908e+01   2.4461118784e+01    0.1346839    0.1114598   0.62 0.0002677174    1.570    0.363
       202 -11.2053    164.2381     83.9745   5.1224760027e+01   3.1956510297e+01    0.2006211     0.121324 -40.25 0.0005453983    1.596    0.373
       203 -10.4300     68.4997     83.5207   7.7656430216e+01   5.2279128096e+01    0.1436058    0.1374592 -54.79 0.0008101199    1.032    0.031
       204 -11.2677     20.5021     83.4933   9.6436340219e+01   5.8101373593e+01    0.1319419    0.1150982 -61.84 -2.839741e-05    1.016    0.016
       205 -10.2906    222.5730     82.2293   4.1352955074e+01   1.9396437560e+01    0.1742651    0.1198143 -29.41 0.0003019226    1.460    0.315
       206 -11.9009    151.9801     80.7240   5.2835671900e+01   3.5417065663e+01    0.3900976    0.2657852  29.49  0.001386856    1.976    0.494
       207 -11.4001    106.8085     80.6315   6.4180031049e+01   4.5684182037e+01    0.4307321       0.3152 -70.08  0.001967916    1.718    0.418
       208 -11.5053    178.0181     87.0100   4.9426800501e+01   2.8241128547e+01    0.2212815    0.2087794 -61.88 0.0003852217    1.012    0.012
       209 -11.8039    206.5553     81.1778   4.3310101033e+01   2.2906419495e+01    0.2700881    0.2352916  13.11  0.001541295    1.460    0.315
       210 -11.5166     87.3728     79.2872   6.9832205997e+01   4.9895173805e+01    0.2835866    0.2739899 -37.79 0.0009183449    1.012    0.012
       211 -12.9516     27.9723     79.8903   9.2603825338e+01   5.8320944306e+01    0.3078124    0.2092936  42.70  0.001322413    1.676    0.403
       212 -11.0448    214.3055     78.9560   4.1686977622e+01   2.1616132471e+01    0.1962966    0.1575833 -45.37 0.0004829053    1.097    0.089
       213 -10.8451    189.8538     77.3560   4.4896769853e+01   2.7215364351e+01    0.2536061    0.1781376 -49.13 0.0005739172    1.331    0.248
       214 -11.4112    183.0351     77.3642   4.6016752833e+01   2.8766701284e+01    0.2818434    0.2557137 -14.61  0.001577619    1.264    0.209
       215 -10.2114    120.4800     78.5214   5.9709845362e+01   4.3121385712e+01      0.14939    0.1477718 -76.37 -7.43082e-06    1.012    0.012
       216 -12.5280     25.4300     89.5413   9.5650514419e+01   5.6208773635e+01    0.3410701    0.2047329  77.29  0.001323437    2.268    0.559
       217 -11.2699    158.4341     75.8933   5.0127694283e+01   3.4770673146e+01    0.2380136    0.2031531  34.74 0.0007312957    1.336    0.251
       218 -12.1261     75.3330     75.5857   7.2827693885e+01   5.2904161918e+01    0.3283818     0.270904  27.97 0.0008133679    1.280    0.219
       219 -13.0715     31.6932     74.7628   8.9828204096e+01   5.9175311565e+01    0.3804834    0.2661312  -1.95  0.001560759    1.729    0.422
       220 -12.4625     23.2041     76.0363   9.3742560642e+01   5.9668085495e+01    0.2157836    0.1960569   7.35 0.0008203374    1.227    0.185
       221 -11.6546     15.4865     75.9939   9.7029977616e+01   6.0289287659e+01    0.1855975    0.1739637 -11.69 0.0005668523    1.184    0.155
       222 -10.4032    177.7923     75.1309   4.6316229525e+01   3.0354094127e+01    0.1897611    0.1742385   6.17 0.0004740767    1.304    0.233
       223 -11.4140    115.9751     74.4539   5.9664564581e+01   4.4929340007e+01    0.2862736    0.2122774 -23.47  0.001170628    1.598    0.374
       224 -12.8801     31.2620     87.4766   9.2931791190e+01   5.6171442486e+01    0.3705295    0.2289183  12.30  0.001843184    1.977    0.494
       225 -10.5054    232.4792     73.4745   3.8129488908e+01   1.8744422684e+01     0.131095    0.1114211 -48.77 0.0001444122    1.022    0.021
       226 -10.4381    125.0100     73.4800   5.6974644163e+01   4.3068537808e+01    0.2260678    0.1469892  49.89 0.0005494416    1.535    0.349
       227 -10.6708    219.5424     72.4824   3.9468108814e+01   2.1523660506e+01    0.1358601    0.1160678 -53.18 0.0001883294    1.015    0.014
       228 -11.8457    100.4982     68.4945   6.2199960327e+01   4.9468366295e+01    0.3829889    0.2069477 -42.81  0.001607927    1.844    0.458
       229 -11.9512     99.2070     65.7657   6.1683114612e+01   5.0271020924e+01     0.503844    0.3353651  -2.45  0.002007913    2.622    0.619
       230 -10.9454    196.6851     67.6681   4.1372834517e+01   2.7234132402e+01    0.1355506    0.1107983  15.48 0.0007045974    1.683    0.406
       231 -11.5525    188.4473     65.6937   4.2079967172e+01   2.9424207932e+01      0.43575    0.1835571 -46.73  0.001470677    2.275    0.560
       232 -10.9112     60.5350     66.9596   7.5640980543e+01   5.7226188598e+01    0.2866153    0.1695103  -8.12  0.001037849    3.428    0.708
       233 -10.5154    250.0122     66.3208   3.4681167096e+01   1.6407116429e+01    0.1587365    0.1367374 -63.51 0.0002493775    1.121    0.108
       234 -11.0181     73.9873     66.4723   7.0370672250e+01   5.5077259613e+01    0.2091772    0.1405781  39.48 0.0003959879    1.526    0.345
       235 -11.2588    114.7620     64.3159   5.6728398664e+01   4.7119061537e+01    0.3622903    0.2241506 -61.22  0.000891994    2.140    0.533
       236 -13.3948     24.5852     63.1263   8.9959781541e+01   6.2544393062e+01     0.470944    0.2117628  25.52  0.002173777    2.402    0.584
       237 -10.5612     95.9787     61.7859   6.1321825532e+01   5.1710307486e+01    0.1945972    0.1854291  41.03  0.001093031    1.047    0.045
       238 -11.7282     45.2525     61.3866   8.0163524922e+01   6.0625700252e+01    0.2746859    0.1958939 -27.14  0.001135502    1.477    0.323
       239 -11.6369     13.1534     62.1985   9.5048382725e+01   6.3679726529e+01    0.2010783    0.1490106 -40.82 0.0007064868    1.209    0.173
       240 -11.2013    109.4700     60.1225   5.6772679141e+01   4.9074057220e+01    0.2817136    0.2475323  82.08  0.001227806    1.260    0.207
       241 -11.5456      2.7570     59.4945   9.9379998552e+01   6.4932284116e+01    0.2778724    0.1973155 -22.81   0.00133987    1.466    0.318
       242 -12.0821    193.3816     57.5033   3.9221835737e+01   2.9542160140e+01    0.2925438    0.1730397 -73.14  0.001286376    2.162    0.537
       243 -11.5257    153.5346     57.6737   4.5760451441e+01   3.9024455570e+01    0.2582991    0.2320299 -77.89 0.0002870219    1.091    0.084
       244 -10.2703    119.5316     58.5027   5.3543839375e+01   4.7052806046e+01    0.1451264    0.1426989  61.14 0.0001162823    1.016    0.016
       245 -12.9797     28.8296     56.4148   8.6049395071e+01   6.3625207649e+01    0.4596009    0.2806736  49.79  0.002296559    2.210    0.548
       246 -10.5061     99.2248     57.0315   5.8666026909e+01   5.1890866301e+01     0.192183    0.1191664 -38.43 0.0005412655    1.632    0.387
       247 -11.1957    165.9792    239.9358   8.2420213527e+01   2.5233230627e+00    0.1823919    0.1537255  19.94  0.001267251    1.034    0.033
       248 -11.2222    126.1712     55.0687   5.0765121428e+01   4.6066813012e+01    0.2822801    0.1918222  89.38 0.0009428682    2.065    0.516
       249 -11.5549     40.5174     60.4635   8.1947392277e+01   6.1427898461e+01    0.2303165    0.1297081  12.94  0.001034303    2.330    0.571
       250 -11.6482     17.4536     50.8774   8.9947593196e+01   6.5877017090e+01     0.297253    0.1647648 -42.57 0.0008784041    1.576    0.365
       251 -11.9979    174.7340     50.6794   4.0094273528e+01   3.4950007722e+01      0.39383    0.1951667  65.03   0.00168786    2.032    0.508
       252 -10.3418     94.4392     51.5278   5.8143794940e+01   5.3891489134e+01    0.1433769     0.134468  12.20 0.0001990016    1.078    0.072
       253 -11.0621     37.8242     49.8395   7.9622404011e+01   6.4000503778e+01    0.1671205    0.1588525  76.06 0.0005878248    1.310    0.237
       254 -11.1674     29.3003     49.9377   8.3751010392e+01   6.4960970137e+01    0.2040535    0.1752424  31.33 0.0006042348    1.311    0.237
       255 -10.2214    133.3120     48.3006   4.6906090888e+01   4.5423038386e+01    0.1453664    0.1114473  26.64 0.0003276475    1.607    0.378
       256 -10.7048      1.4589     47.4862   9.7293050564e+01   6.7683766078e+01    0.1199876    0.1014967 -51.83 -6.630479e-06    1.054    0.051
       257 -10.3240    157.1728     45.9168   4.1555408367e+01   3.9921811204e+01     0.182888    0.1674651  18.34 0.0004337604    1.303    0.232
       258 -10.7711    153.0392     44.7566   4.1921630772e+01   4.1106596996e+01    0.1938745    0.1819074  76.88 0.0002826807    1.051    0.049
       259 -11.0068     90.0318     44.9337   5.7044936528e+01   5.5944112817e+01    0.2036963     0.197363  18.13 0.0003264556    1.014    0.014
       260 -11.5774    195.5702     44.0594   3.5443231549e+01   3.0960926873e+01    0.2266798    0.1734354 -85.57 0.0004545216    1.289    0.224
       261 -10.9070    189.1548     43.1376   3.6007560836e+01   3.2584161115e+01    0.1973654    0.1455352 -69.63 0.0005446006    1.327    0.247
       262 -11.1223    143.3150     43.6617   4.3364730448e+01   4.3661598373e+01    0.1524469    0.1051938 -68.54 0.0003425845    1.698    0.411
       263 -16.9271     69.3249    207.5285   9.8993414659e+01   2.2335952112e+01      2.92771    0.9738587  41.93    0.0121798    2.453    0.592
       264 -11.4662    146.0008     39.5144   4.1539546503e+01   4.3584000002e+01    0.2073213    0.1864376 -47.01  0.001179731    1.132    0.116
       265 -11.0736    104.5436     39.9443   5.0895115606e+01   5.3515606549e+01    0.2535044    0.1818807  40.48 0.0003254728    1.404    0.288
       266 -11.6755     35.6490     39.6452   7.6854831387e+01   6.6290136778e+01    0.3247928    0.2103284   2.90   0.00169153    1.879    0.468
       267 -11.5319     60.1589     38.1047   6.5074907908e+01   6.2881108778e+01    0.2824668    0.1850396 -44.19 0.0008891034    1.578    0.366
       268 -10.3778    110.4381     37.4997   4.8446531212e+01   5.2505494426e+01    0.1388641    0.1337764  54.48 7.311138e-05    1.009    0.009
       269 -11.8935     11.0537     35.8703   8.8593986427e+01   6.9528951871e+01    0.3628759     0.232705 -49.25  0.002175603    1.321    0.243
       270 -12.5700     30.5364     33.1698   7.6821454736e+01   6.8136527934e+01    0.4854674    0.2660532 -17.65  0.002219895    2.539    0.606
       271 -11.1482    223.2173     33.1621   2.9851697301e+01   2.6225339953e+01    0.2809219    0.1399047 -29.46 0.0008024111    2.071    0.517
       272 -11.4479     43.8135     33.9605   7.0521194433e+01   6.6218442569e+01    0.2175048    0.1764462  23.58 0.0005341304    1.220    0.180
       273 -11.8401    169.6228     31.3543   3.5330488210e+01   3.8829644941e+01    0.2522498    0.2156712 -36.18   0.00111502    1.236    0.191
       274 -10.3257    124.0050     32.9895   4.3666491987e+01   4.9878123609e+01    0.1692681    0.1541173  65.72 0.0003764832    1.037    0.035
       275 -11.4007    106.8939     32.4865   4.7452837346e+01   5.4035096810e+01    0.2681417    0.2073531 -30.48 0.0006819978    1.362    0.266
       276 -10.5668    214.6490     31.3069   3.0204083862e+01   2.8314305968e+01    0.1409987   0.08045415 -63.71 0.0007042715    1.710    0.415
       277 -12.3263     74.3934     30.3296   5.6292345786e+01   6.1445590085e+01    0.3144042     0.194138  47.88 0.0008662563    1.568    0.362
       278  -9.9358    242.2889     30.3075   2.7636598710e+01   2.2644115558e+01    0.1035511   0.09496669  14.89 0.0002476935    1.574    0.365
       279 -11.4251    140.0351     29.7716   3.9446538004e+01   4.6346471848e+01    0.3163801    0.2199177  35.15  0.001350056    1.728    0.421
       280 -12.1684     38.8560     29.2568   7.0844990835e+01   6.7745633637e+01    0.3035712    0.2347951   7.48 0.0008050108    1.279    0.218
       281 -11.2045    156.0886     29.1402   3.6616190140e+01   4.2439959390e+01    0.2022457    0.1821862  47.31 0.0003793779    1.223    0.182
       282 -10.5786    178.9756     28.0259   3.3181661455e+01   3.6970571522e+01    0.1963677    0.1781738 -74.72            0    1.045    0.043
       283 -11.8366    101.5647     25.4944   4.6077295859e+01   5.6189026212e+01    0.2493121    0.2283296  58.02 0.0009217599    1.052    0.049
       284 -11.1954    127.4631    247.3745   9.0902342525e+01   6.7524773668e+00    0.2901855    0.1739077 -46.65  0.001709663    2.037    0.509
       285 -10.1968     20.5956     23.1988   7.7965783653e+01   7.1068939573e+01      0.17486   0.09512247 -36.94 0.0009428319    1.648    0.393
       286 -10.2794    185.4407     22.4507   3.0916359855e+01   3.6086547134e+01     0.131837     0.115797 -75.97 0.0001242948    1.022    0.021
       287 -10.3079     30.4721     17.4498   6.9539931624e+01   7.0832645650e+01    0.2472859    0.1065397 -55.50 0.0008097921    5.696    0.824
       288 -11.2881    172.3116     21.9477   3.2285363320e+01   3.9306454512e+01    0.3253642    0.1701732 -18.26  0.001425086    2.541    0.606
       289 -11.4417    218.8144     14.3961   2.5874831823e+01   2.9395016616e+01    0.1652395    0.1041178  67.05   0.00094729    1.657    0.396
       290 -11.3305    234.5477     13.1209   2.4479313155e+01   2.6215158090e+01    0.1713009    0.1542367  75.90 0.0005218258    1.345    0.256
       291  -9.7576    200.2633    247.2953   7.7097554937e+01  -3.0764363990e+00    0.1101494   0.07257124   1.75            0    1.507    0.336
       292 -10.4626    139.6335    247.1999   8.8478918968e+01   5.0903155136e+00    0.1393451     0.108164 -31.00 0.0002152128    1.555    0.357
       293 -10.8460     72.6264    247.1334   1.0185284630e+02   1.4135910155e+01     0.132727    0.1056986 -59.45 0.0004847306    1.564    0.361
       294 -10.6016    169.8138    246.5515   8.2576621752e+01   1.0301819845e+00    0.1614241   0.09262581  40.77 0.0007889668    1.616    0.381
       295 -11.4502    156.5148    243.0058   8.4657440046e+01   3.3825049607e+00    0.3351753    0.2107504  63.74  0.001684229    2.909    0.656
