#   1 NUMBER                 Running object number                                     
#   2 MAG_AUTO               Kron-like elliptical aperture magnitude                    [mag]
#   3 X_IMAGE                Object position along x                                    [pixel]
#   4 Y_IMAGE                Object position along y                                    [pixel]
#   5 X_WORLD                Barycenter position along world x axis                     [deg]
#   6 Y_WORLD                Barycenter position along world y axis                     [deg]
#   7 A_WORLD                Profile RMS along major axis (world units)                 [deg]
#   8 B_WORLD                Profile RMS along minor axis (world units)                 [deg]
#   9 THETA_WORLD            Position angle (CCW/world-x)                               [deg]
#  10 FWHM_WORLD             FWHM assuming a gaussian core                              [deg]
#  11 ELONGATION             A_IMAGE/B_IMAGE                                           
#  12 ELLIPTICITY            1 - B_IMAGE/A_IMAGE                                       
         1 -16.1800    204.9251    120.7966   9.1244961204e+01   1.5796367618e+01     7.245028     3.388245 -55.60   0.02338434    3.519    0.716
         2 -15.1668    186.0030     90.9377   8.7163525780e+01   2.5694048395e+01      2.97916     1.569657 -67.00  0.008563806    4.394    0.772
         3 -14.3085    150.3453     74.8290   9.0084404509e+01   3.7488304613e+01     3.561648     1.796837 -64.85  0.009235614    5.378    0.814
         4 -14.7824    241.2025     80.2830   7.5376051432e+01   1.4355321595e+01     2.810789     1.285648 -50.47   0.01126091    2.372    0.578
         5 -12.7646    189.4912     18.9275   6.6000495341e+01   3.5470234828e+01    0.5138574     0.480782  67.37  0.001269845    1.110    0.099
         6 -10.0821    104.2470    238.0133   1.3303405503e+02   1.3303726384e+01    0.1604375    0.1300558  65.25 0.0004012834    1.095    0.087
         7 -12.7347    141.3970    250.0678   1.2748880761e+02   5.6082508125e+00    0.5746494    0.1483656  38.30  0.002152657    3.510    0.715
         8 -10.7683    120.6990    249.4949   1.3118482863e+02   8.9229214544e+00    0.1926386    0.1410684  43.37 0.0009679982    1.155    0.134
         9 -10.0860     99.8791    250.5597   1.3503306044e+02   1.1879456680e+01    0.1804499   0.08875579  43.70  0.001023822    1.585    0.369
        10 -19.3531     24.0330    137.6496   1.3979286420e+02   4.4652918342e+01     18.80344     1.539538 -71.70   0.03676462   12.273    0.919
        11 -11.7309     72.2455    230.5340   1.3829983967e+02   1.9250314578e+01    0.2969297    0.1401676  63.91  0.001546973    2.086    0.521
        12 -16.0093     78.0273    199.1306   1.3411761530e+02   2.4526330875e+01      3.76974     2.451515 -47.98   0.02081233    2.057    0.514
        13 -12.9933    240.6383    210.5601   1.0352365645e+02  -5.1063446683e+00    0.8662061    0.4548776  41.65  0.004680768    1.830    0.454
        14 -13.5586    248.1515    198.8577   1.0012584123e+02  -4.7961171687e+00     1.184306    0.4795681 -31.96  0.005578621    2.454    0.593
        15 -11.9614     58.3496    201.6412   1.3844254454e+02   2.6700077168e+01    0.2212888    0.1898588  70.30 0.0008493451    1.148    0.129
        16 -12.9646    194.7247    188.4400   1.0791924555e+02   6.0303250729e+00    0.8936704       0.6402 -40.03  0.004873336    1.533    0.348
        17 -13.1732    176.1225    178.4617   1.0979080925e+02   1.1334762244e+01     1.105299    0.9450642  -2.48   0.00620915    1.305    0.234
        18 -12.6399    177.0078    171.3322   1.0821674462e+02   1.2461887173e+01     0.659523    0.4153942 -36.75  0.003128535    1.737    0.424
        19 -10.2219     82.8130    230.1759   1.3629284088e+02   1.7838735647e+01    0.1456459    0.1306293  55.48 0.0005226217    1.285    0.222
        20 -13.6973     94.7043    167.4565   1.2621224878e+02   2.8783171701e+01     1.311684    0.3679771  40.98 0.0008227822    3.270    0.694
        21 -12.9857     83.0444    162.6798   1.2828864000e+02   3.1698481466e+01     0.399258    0.3389248 -37.28  0.001316298    1.515    0.340
        22 -13.6435     75.9984    160.2283   1.2964351009e+02   3.3308602767e+01    0.7398623    0.5051244 -89.59  0.002961316    1.515    0.340
        23 -11.5297    192.9056    168.2947   1.0433653641e+02   9.8139323321e+00     0.278698    0.2144524 -26.93  0.001239857    1.379    0.275
        24 -12.6395    183.4261    160.2997   1.0461538986e+02   1.3194452234e+01    0.6803023    0.5475681  46.46  0.002191596    1.206    0.171
        25 -13.2597    196.2901    155.6708   1.0099666045e+02   1.1368913084e+01    0.9172388    0.7954714  58.48  0.004166421    1.273    0.215
        26 -14.7050    191.4719    136.4074   9.7629873595e+01   1.5939035338e+01     2.314109      1.15512 -45.77  0.007849852    2.110    0.526
        27 -13.6289    162.4059    245.6546   1.2311840439e+02   2.8883360347e+00    0.5664486    0.2281333  34.31  0.002596163    2.386    0.581
        28 -12.3491    135.7354    161.5879   1.1545447238e+02   2.2673192029e+01    0.4776117    0.2958405 -68.11  0.002069632    2.078    0.519
        29 -12.2030     98.8437    161.4520   1.2425311201e+02   2.9446606040e+01    0.3596738    0.3079074  87.23  0.000851204    1.113    0.101
        30 -11.4746    132.9733    247.4729   1.2873143797e+02   7.3248675446e+00    0.1945232   0.09298507  42.94  0.001040372    1.619    0.382
        31 -10.4699    174.6035    150.1661   1.0430405781e+02   1.6981573215e+01    0.2590033    0.1798664  39.27  0.001215053    1.412    0.292
        32 -12.0650    133.3574    147.6890   1.1323801331e+02   2.6138381350e+01    0.4911771    0.3641466 -37.07  0.002374137    1.537    0.349
        33 -13.0809     68.5751    143.9204   1.2904387238e+02   3.8155820360e+01    0.7109092    0.3737503  67.30  0.002949388    2.623    0.619
        34 -12.4423    237.8052    140.7005   9.0034330003e+01   5.4720757334e+00    0.8725994    0.3535263 -50.11  0.002872554    4.010    0.751
        35 -11.2257     98.3029    143.6060   1.2122996786e+02   3.3623133454e+01    0.2386779    0.2315458 -58.53 0.0004264315    1.144    0.126
        36 -13.6088    161.8989    127.2713   1.0182829633e+02   2.4373016113e+01      1.45034     1.252207 -77.02  0.007282326    1.319    0.242
        37 -10.6012    249.0993    130.2172   8.5874441409e+01   4.9243721227e+00    0.2583783    0.1958991 -41.14  0.001434129    1.297    0.229
        38 -11.2447     46.7757    131.1777   1.3291799027e+02   4.3897885692e+01     0.305324    0.1670111  41.65  0.001126309    1.920    0.479
        39 -12.9774    177.0446    126.7600   9.8341036500e+01   2.1033974039e+01    0.5447411    0.4502404 -46.52  0.002471745    1.235    0.190
        40  -9.9341    104.3009    129.0391   1.1669630480e+02   3.5944763682e+01     0.208189    0.1848256 -61.40 0.0005893101    1.096    0.087
        41 -11.6485    250.3124    117.8950   8.2912928012e+01   6.5987178574e+00    0.8312706   0.09423357 -37.11  0.001999032    6.335    0.842
        42 -10.9129    234.8098    113.4806   8.4282152973e+01   1.0479551162e+01    0.2832536    0.1919351 -34.49  0.001410234    1.366    0.268
        43 -11.1859     89.7855    244.4621   1.3629638830e+02   1.4346283173e+01    0.2044673    0.1571983  64.11 0.0002859841    1.067    0.063
        44 -12.6632    160.1204     94.8431   9.3718830274e+01   3.1322034471e+01    0.9019308    0.6251827  78.09  0.003746431    1.966    0.491
        45 -10.7464    146.3167    229.6684   1.2406177413e+02   7.9466393113e+00    0.1266083   0.08682903  65.50 0.0004245785    1.686    0.407
        46 -12.6455    241.0505     95.0839   7.8954482111e+01   1.2092525104e+01    0.8018093    0.4772354 -44.69  0.003412471    1.587    0.370
        47 -12.5477    224.8616     97.9060   8.2103212240e+01   1.5222500265e+01    0.9835163     0.605678 -64.84  0.004095647    2.326    0.570
        48 -11.4309    141.4807     78.8371   9.3434937361e+01   3.8898332143e+01    0.3578461    0.2846118 -68.40  0.001617531    1.493    0.330
        49 -12.2887    211.3990     69.4608   7.6915555384e+01   2.3014862800e+01     1.163395     0.628653 -70.24  0.004070992    3.187    0.686
        50 -12.8047    202.4776     60.1386   7.5771916803e+01   2.6675240281e+01    0.7995107    0.6753311 -26.02  0.004230648    1.261    0.207
        51 -13.1050    240.0150     56.7011   6.9809753818e+01   1.8100264564e+01    0.5827173    0.3955314  80.33  0.003009103    1.615    0.381
        52 -13.0459    219.2486     53.1746   7.1511732755e+01   2.3524360990e+01    0.8136641    0.5448439 -56.95   0.00398648    1.507    0.336
        53 -11.9778    239.0607     46.1736   6.7366388773e+01   1.9776269738e+01    0.5920525    0.3263953 -56.92  0.002757913    1.852    0.460
        54 -12.9494    215.5856     44.0249   6.9593568695e+01   2.5702858327e+01     1.149038    0.4695999 -55.25   0.00401591    3.112    0.679
        55 -13.3297    164.6989    103.4899   9.5069679588e+01   2.8525230805e+01     1.627522     1.040241 -79.51  0.005765773    2.907    0.656
        56 -12.3100    196.3401     42.1986   7.1693547969e+01   3.0823838397e+01    0.3297348    0.2538338 -51.72  0.001704055    1.280    0.219
        57 -11.0977    171.4087     39.3973   7.4762919043e+01   3.7694111909e+01     0.286983    0.2496977 -83.27 0.0008262034    1.170    0.145
        58 -11.7903    249.0401     30.2442   6.2611823331e+01   1.9564114722e+01    0.5017387    0.2817591 -43.79  0.002602813    1.538    0.350
        59 -12.3293    183.6473     28.1579   6.9458039980e+01   3.5922879214e+01    0.2948366    0.2683363   1.78  0.001446272    1.288    0.224
