#   1 NUMBER                 Running object number                                     
#   2 MAG_AUTO               Kron-like elliptical aperture magnitude                    [mag]
#   3 X_IMAGE                Object position along x                                    [pixel]
#   4 Y_IMAGE                Object position along y                                    [pixel]
#   5 X_WORLD                Barycenter position along world x axis                     [deg]
#   6 Y_WORLD                Barycenter position along world y axis                     [deg]
#   7 A_WORLD                Profile RMS along major axis (world units)                 [deg]
#   8 B_WORLD                Profile RMS along minor axis (world units)                 [deg]
#   9 THETA_WORLD            Position angle (CCW/world-x)                               [deg]
#  10 FWHM_WORLD             FWHM assuming a gaussian core                              [deg]
#  11 ELONGATION             A_IMAGE/B_IMAGE                                           
#  12 ELLIPTICITY            1 - B_IMAGE/A_IMAGE                                       
         1 -15.3905    244.7571     60.0928   5.8195008600e+01   1.6934611633e+01     11.03085     2.164611 -29.13    0.0292261    5.513    0.819
         2 -11.9346     18.2646     25.4810   1.0577521523e+02   6.8952154466e+01     0.470398    0.3046997 -14.68  0.002074443    1.540    0.351
         3 -11.8588      2.9888      7.2736   1.0629206099e+02   7.3264863231e+01    0.4423147    0.1847844 -37.68  0.001271684    1.809    0.447
         4 -10.7465     10.9957      5.9180   1.0104188756e+02   7.2888948069e+01    0.4071768    0.1605849 -32.61  0.000376383    2.211    0.548
         5 -11.0574     10.7579     10.2720   1.0325452568e+02   7.2200989520e+01    0.3385487    0.2048664 -21.93  0.000391888    1.442    0.307
         6 -12.0415     12.0229     18.5978   1.0619540075e+02   7.0676188577e+01    0.5743131    0.2686189  23.41  0.003254266    2.409    0.585
         7 -11.1774      5.5685     16.1740   1.0864786669e+02   7.1556767423e+01    0.4538229    0.2207046   2.91  0.001955677    2.498    0.600
         8 -12.0745     16.5117      5.9003   9.7946783777e+01   7.2404170709e+01    0.4859929    0.3868747 -20.14  0.003591359    1.116    0.104
         9 -10.9963     15.6612     14.1305   1.0235314390e+02   7.1155701930e+01    0.2354828    0.1849487 -22.72  0.000323988    1.063    0.059
        10 -10.2824     16.4974     10.0453   1.0000481694e+02   7.1753737735e+01    0.2521466    0.1559074 -32.69  0.000753121    1.259    0.206
        11 -10.4443     22.8005     15.5700   9.9290380289e+01   7.0265885309e+01    0.2248401     0.153773 -33.69 0.0003204086    1.175    0.149
        12 -10.0783     23.9383     11.5077   9.6783409222e+01   7.0804155711e+01    0.1896843    0.1359605 -36.88 0.0003877295    1.288    0.223
        13 -10.6064     28.5572     13.5100   9.5415063345e+01   6.9999996074e+01    0.2148789    0.1746861 -22.90 0.0006129445    1.134    0.118
        14 -10.4362     26.8581      2.1159   9.0393442390e+01   7.1861715179e+01     0.378381    0.2273476  40.58   0.00220686    2.176    0.540
        15 -10.8113     43.9595      5.0108   8.3757805306e+01   6.9234713626e+01    0.3812608    0.1643943  39.06   0.00129568    2.344    0.573
        16 -10.8576     31.4141      5.4452   8.9890895787e+01   7.0857837651e+01    0.2210375    0.1704281 -12.55  0.000669828    1.024    0.024
        17 -10.7337     32.8198     14.2143   9.3664559356e+01   6.9407388378e+01    0.2735099    0.1723202 -25.07 0.0009730349    1.340    0.254
        18 -10.5097     33.5149     10.5240   9.1499778033e+01   6.9878021976e+01    0.2395321    0.1699083 -12.05 0.0007306571    1.196    0.164
        19 -10.5811     37.7807     10.9818   8.9697193217e+01   6.9277276477e+01    0.2788131    0.1599103 -28.43 0.0009088056    1.501    0.334
        20 -11.6822     36.8461      6.1197   8.7615544105e+01   7.0075303921e+01    0.3891226    0.2808217  24.89   0.00164925    1.383    0.277
        21 -10.7552     35.5547      2.0391   8.6017993830e+01   7.0781916088e+01    0.3128064    0.2025966  24.21 0.0003666666    1.478    0.323
        22 -10.9548     53.6780      4.9128   7.9586761074e+01   6.7756208002e+01    0.3142352    0.1939525  15.81  0.001406358    1.636    0.389
        23 -13.5505    240.0289    201.5781   9.0283726617e+01  -2.7425344422e+00     1.426449    0.7188147 -35.28  0.007395882    2.089    0.521
        24  -9.9371    249.5180    250.3291   9.6815423184e+01  -9.5348968455e+00    0.1814828    0.1105895  28.79 0.0006176035    1.283    0.221
        25  -8.9604    232.0299    250.8271   9.9733916681e+01  -7.2359454489e+00    0.1444534   0.06479552  36.48 0.0004367548    1.777    0.437
        26 -10.8237    224.8552    247.8545   1.0048863827e+02  -5.9228730369e+00    0.2214359    0.1624002 -21.01 0.0007294778    1.509    0.337
        27 -12.4310    210.1846    245.9759   1.0270287718e+02  -3.6022634112e+00    0.3001416    0.2237332 -15.53  0.000478883    1.465    0.317
        28 -11.1102    202.6003    241.0104   1.0329706643e+02  -1.8894570725e+00     0.320293    0.2729895 -64.75  0.001086262    1.963    0.490
        29  -9.4301    201.1016    250.6273   1.0492162170e+02  -2.8068773228e+00    0.1703841   0.08526286  36.80 0.0005571216    1.552    0.356
        30 -11.3259    166.7030    250.5361   1.1091517544e+02   2.3437193195e+00    0.2336858    0.1049224  38.72 0.0003258519    1.736    0.424
        31 -10.3803    152.2075    250.2376   1.1344659291e+02   4.5698887569e+00    0.3925664    0.1295562  48.06 0.0008956966    2.859    0.650
        32  -8.9965    101.3067    250.6728   1.2248923928e+02   1.1927552057e+01    0.1474252   0.08488636  38.02 0.0004648486    1.540    0.350
        33  -9.8837     87.4763    249.8825   1.2482331069e+02   1.3934786642e+01    0.1795847    0.1509058  34.34 0.0006899326    1.429    0.300
        34  -9.4449     72.4677    250.5636   1.2744494947e+02   1.5780933581e+01    0.1942274   0.08473628  40.58 0.0005220359    1.892    0.472
        35 -10.1965     61.3365    248.8119   1.2919834594e+02   1.7449563213e+01    0.1978275    0.1730435 -63.85  0.001000883    1.596    0.374
        36 -10.2423     46.6758    250.4526   1.3172747136e+02   1.8914701298e+01    0.1783172    0.1076406  40.50 0.0006424664    1.564    0.361
        37 -12.6642    208.3550    200.1470   9.5652681201e+01   2.6085421194e+00     1.429746    0.5621301 -27.65  0.004902602    3.509    0.715
        38 -12.9541    243.4463    144.5637   7.8250795357e+01   4.6249185385e+00     2.277067    0.8622058 -25.48  0.008295123    3.108    0.678
        39 -11.8533    230.1894    233.6598   9.7419838447e+01  -5.1189685291e+00      0.35169    0.2808455 -30.46 0.0005416158    1.574    0.365
        40 -11.6006    249.4639    232.0339   9.3951714279e+01  -7.6706260789e+00    0.3626076    0.2869086  32.18  0.002182532    1.429    0.300
        41 -12.4968    233.6372    172.7510   8.5857137907e+01   2.2214809550e+00     1.776979    0.7400245 -19.21  0.006025545    4.159    0.760
        42 -11.6966    248.0442    175.1301   8.3883357664e+01  -5.4425678548e-01    0.6325544     0.352651  -5.39  0.002102632    2.299    0.565
        43 -13.0255    247.2673    159.0877   8.0732018524e+01   1.8234074267e+00     2.513049    0.7621115 -24.48  0.006747429    6.241    0.840
        44 -12.5497    247.3934    121.8134   7.2527943239e+01   7.3078216929e+00     2.031835    0.5434239 -36.58  0.006944472    3.224    0.690
        45 -11.8796    140.4393    246.6078   1.1512652270e+02   6.8539072333e+00    0.2520687    0.2221168   8.04 0.0005274679    1.392    0.282
        46 -12.3432    248.7408    202.3713   8.8961849019e+01  -4.1753006359e+00    0.8468083    0.3691408 -14.65  0.003448434    3.535    0.717
        47 -10.5755    163.5678    244.9296   1.1076811810e+02   3.5692988764e+00    0.2012979    0.1844286  29.09 0.0004638294    1.175    0.149
        48 -10.2299    132.9721    245.3521   1.1632805204e+02   8.1587878451e+00    0.1744373    0.1654433 -15.36 0.0003556247    1.366    0.268
        49 -10.2216    113.4040    244.5016   1.1975864028e+02   1.1170919471e+01    0.2327238    0.1925137 -37.88  0.000995056    1.706    0.414
        50 -10.6592     92.9726    244.6860   1.2341808616e+02   1.4021573063e+01    0.2321944    0.1919633  44.01 0.0006510834    1.235    0.190
        51 -10.3965     80.3322    244.4059   1.2561630146e+02   1.5764383107e+01     0.202104    0.1780867  64.60  0.000471246    1.215    0.177
        52  -9.3985     75.5764    246.2888   1.2659128559e+02   1.6075651097e+01     0.125505   0.09778775 -66.18 0.0006439624    1.574    0.365
        53  -9.5176    151.8366    244.6862   1.1284848733e+02   5.3993719097e+00    0.1652884    0.1488097   7.56 0.0005260158    1.297    0.229
        54  -9.6326     41.0972    244.8184   1.3231470241e+02   2.0478971642e+01    0.1600114    0.1357673 -87.19  0.001081913    1.383    0.277
        55 -10.7132    104.3787    241.8687   1.2112090249e+02   1.2881935826e+01    0.2358728    0.2137548 -17.67 0.0009174075    1.622    0.383
        56 -10.9407    169.8581    240.6923   1.0908456455e+02   3.1763846369e+00     0.239126    0.1932701  18.17 0.0004927722    1.235    0.190
        57 -10.6913     68.3851    240.3467   1.2738452797e+02   1.7980818075e+01    0.2061333    0.1835417 -82.77  0.000526383    1.366    0.268
        58 -10.3289     51.3685    240.6898   1.3034245045e+02   1.9997849755e+01    0.2078412    0.1690485 -65.79 0.0009703757    1.598    0.374
        59 -10.4139     24.9285    240.0954   1.3470681696e+02   2.3019749401e+01    0.2575914    0.1602953 -57.78  0.001441999    2.257    0.557
        60  -9.3187    154.8467    241.1766   1.1186996223e+02   5.4350869081e+00    0.1495004    0.1222924  18.27 0.0003651191    1.310    0.237
        61 -10.2710    125.2287    240.1188   1.1715341522e+02   1.0111802469e+01     0.203604    0.1966703 -41.55 0.0004710282    1.336    0.251
        62  -9.3491     34.9432    240.6488   1.3309488033e+02   2.1863081189e+01    0.1584321    0.1223253 -85.82 0.0007160951    1.342    0.255
        63 -10.1874    219.9517    238.5762   9.9928604384e+01  -4.1847993784e+00    0.2006285    0.1527844 -15.81 0.0004947762    1.387    0.279
        64 -10.2065    214.6647    239.4257   1.0096614441e+02  -3.5036740115e+00    0.2035471    0.1551635  11.26 0.0005296635    1.151    0.131
        65 -10.1145    134.9170    239.0348   1.1525503271e+02   8.8146613642e+00    0.1889362    0.1686897 -50.48 0.0005234777    1.403    0.287
        66  -9.9430    117.9240    238.9333   1.1836101107e+02   1.1384561754e+01    0.2077427    0.1671361 -50.81 0.0006145907    1.580    0.367
        67  -9.4500     61.9659    239.2576   1.2842190649e+02   1.8966424817e+01    0.1591884    0.1442984 -59.13 0.0006459546    1.582    0.368
        68 -11.3760    183.8697    237.0760   1.0605864168e+02   1.4823003286e+00    0.2589081    0.2079185  -9.84 0.0004630292    1.410    0.291
        69  -9.2583    186.0093    231.6559   1.0489112508e+02   1.8708283636e+00     0.184766     0.137986  20.12 0.0004641928    1.240    0.194
        70 -10.4081    148.7399    238.2658   1.1262254410e+02   6.8026596559e+00    0.2046111    0.1675685  29.93 0.0002772783    1.167    0.143
        71 -11.2682    225.5511    240.4120   9.9255015433e+01  -5.2070411218e+00    0.3401224    0.1964098 -30.29  0.001794773    1.944    0.486
        72 -11.4442    159.2782    235.6946   1.1035403433e+02   5.5314402541e+00    0.2951693    0.2254472  21.15  0.001938226    1.350    0.259
        73 -10.0594    158.3549    229.5014   1.0969731447e+02   6.5883307050e+00    0.2280943    0.1876156 -12.65 0.0007781985    1.504    0.335
        74 -10.9868    163.4155    225.2498   1.0815565202e+02   6.4100301186e+00    0.3156739    0.2574982  48.45 0.0004198577    1.187    0.157
        75  -9.7198    165.7654    220.3144   1.0699821648e+02   6.7730423179e+00    0.2108811    0.1807457   8.34 0.0003606243    1.250    0.200
        76  -9.4022    112.0768    237.9400   1.1932716036e+02   1.2403183220e+01    0.1643641    0.1361655  10.92 0.0007218957    1.690    0.408
        77 -10.6870     90.8854    236.1327   1.2301891642e+02   1.5716421266e+01    0.2432938    0.2139872 -34.82 0.0006586517    1.691    0.408
        78  -9.5031     41.1722    237.2144   1.3185426311e+02   2.1764953119e+01    0.1646845    0.1261701 -76.94  0.001283791    1.447    0.309
        79 -10.4020     77.7340    235.8244   1.2536752678e+02   1.7542812026e+01    0.2107963    0.1809548  89.08 0.0005549763    1.249    0.199
        80 -11.4766    177.5286    232.5679   1.0657083555e+02   3.0891184088e+00    0.2933849    0.2284998 -10.72 0.0006495724    1.516    0.340
        81 -10.2996    139.5219    234.9098   1.1391227199e+02   8.7376506464e+00    0.2090687    0.1998636  36.74 0.0005598221    1.192    0.161
        82  -9.6346    129.5897    235.2337   1.1579636652e+02   1.0215528154e+01    0.1940874    0.1641605   3.02 0.0006724718    1.582    0.368
        83  -9.3599      3.0077    236.0166   1.3803157978e+02   2.5853418910e+01    0.1330877    0.1085531 -65.10   0.00113204    1.758    0.431
        84 -11.9204    204.6921    231.9128   1.0157193573e+02  -1.0843924578e+00    0.2924979    0.2577007  -3.64 0.0005602981    1.232    0.189
        85 -10.4572    170.9676    233.0214   1.0783920892e+02   4.0663618170e+00    0.2059167    0.1695023 -21.33 0.0004256178    1.443    0.307
        86  -9.6167    108.0946    233.4094   1.1958841130e+02   1.3725772244e+01    0.1822421    0.1617269 -40.27 0.0006709035    1.525    0.344
        87  -9.5274      8.9978    239.9854   1.3724693483e+02   2.4618269254e+01    0.1323772     0.110157 -68.30 0.0009404459    1.697    0.411
        88  -9.6920    165.8904    232.3432   1.0868239443e+02   4.9694305942e+00    0.1860062    0.1667585  -3.28 0.0003189553    1.266    0.210
        89  -9.7072    152.9146    233.0113   1.1118075105e+02   6.9285943761e+00    0.1788289    0.1475393  36.80 0.0003673733    1.042    0.040
        90 -10.2696     35.4843    231.1084   1.3245723159e+02   2.3462617356e+01    0.2767118    0.1870738 -45.83  0.001734021    2.555    0.609
        91 -10.3074    145.3782    231.2134   1.1235679000e+02   8.3904672685e+00    0.2290058    0.1858295  32.53 0.0005821326    1.148    0.129
        92 -10.2552    123.3312    230.9861   1.1647343794e+02   1.1849390829e+01    0.2378622     0.200659   1.51 0.0007491367    1.640    0.390
        93 -10.3673    100.2828    230.7363   1.2076597028e+02   1.5306229913e+01    0.2233716    0.2011889 -37.72 0.0008296336    1.541    0.351
        94  -9.9420     84.9572    231.5762   1.2368375631e+02   1.7305883209e+01    0.1808881    0.1536624 -54.66  0.000682966    1.552    0.356
        95 -10.9529     54.8010    230.9978   1.2908314345e+02   2.1272215050e+01    0.2625852     0.195439  33.74 0.0007899858    1.609    0.378
        96  -9.2483      9.4141    231.7424   1.3683596288e+02   2.5998525902e+01    0.1275799   0.07704276 -76.59 0.0007833483    1.621    0.383
        97  -9.6993    133.9304    230.5253   1.1442330350e+02   1.0291515686e+01    0.1945168    0.1648435 -25.92 0.0007131043    1.559    0.359
        98 -10.6741    113.3147    228.3505   1.1806353903e+02   1.3798612927e+01    0.2563305    0.2094535 -67.50   0.00048812    1.419    0.295
        99  -9.6274     44.8904    229.5125   1.3072719580e+02   2.2696834737e+01     0.179758    0.1350492 -66.86 0.0007857389    1.587    0.370
       100 -10.1650     92.6973    228.1077   1.2192005717e+02   1.6836449685e+01    0.1956582    0.1712816  36.12 0.0006843304    1.330    0.248
       101  -9.8227     78.9786    228.4659   1.2450379619e+02   1.8655064669e+01    0.1804749    0.1530387 -59.25 0.0006081472    1.509    0.337
       102  -8.8009     29.5145    228.9891   1.3335557212e+02   2.4479096267e+01    0.1278855   0.07444295 -55.45 0.0008085731    2.407    0.585
       103 -10.5320    174.4505    227.4651   1.0640609461e+02   4.2997831471e+00    0.2275702    0.1773615  20.19 0.0005148325    1.236    0.191
       104  -9.0231    169.4936    228.1382   1.0742550226e+02   5.0010650796e+00     0.151028    0.1212936 -35.07 0.0004089257    1.486    0.327
       105  -9.6062    152.8001    227.8278   1.1051579820e+02   7.7308426678e+00    0.2137782    0.1626821  18.21 0.0005598039    1.468    0.319
       106  -9.6443    155.3760    223.5194   1.0943791591e+02   7.9796436729e+00    0.2049383    0.1825424  -1.66 0.0005753674    1.295    0.228
       107  -9.3874    138.8319    227.2602   1.1308840786e+02   1.0043534373e+01    0.1935737    0.1493721 -11.08 0.0005976287    1.894    0.472
       108  -9.3849    106.8106    228.2427   1.1928074979e+02   1.4781948893e+01    0.1515239    0.1280561  30.41  0.000401918    1.353    0.261
       109 -10.4143     67.9186    227.1825   1.2642648119e+02   2.0327712238e+01    0.1967981    0.1649464  61.53 0.0004957728    1.133    0.117
       110 -10.2300     19.9148    227.4280   1.3489947204e+02   2.5742682716e+01    0.1726557    0.1424348 -72.92 0.0008528579    1.523    0.344
       111 -11.0264    199.1279    224.9973   1.0150102622e+02   6.8202507558e-01    0.3186366    0.2340497  20.35  0.000876305    1.203    0.169
       112  -9.6130    143.9060    226.1966   1.1198569341e+02   9.4070384719e+00    0.1779841    0.1726347  43.43  0.000426362    1.174    0.148
       113  -9.3049      1.4365    227.1272   1.3793595748e+02   2.7543007197e+01     0.138086   0.07593275 -88.31 0.0004728085    1.499    0.333
       114 -11.0035    206.5351    223.3591   9.9906827152e+01  -2.7606937559e-01    0.2855381    0.2048073 -15.76 0.0006223802    1.504    0.335
       115  -9.6635    120.5246    224.8305   1.1628588984e+02   1.3297991916e+01    0.2043545    0.1728047  21.01  0.000653029    1.412    0.292
       116  -9.6618    170.8064    223.7141   1.0654151695e+02   5.4364218956e+00    0.1863135    0.1571252  -7.82 0.0005586439    1.347    0.258
       117 -10.3580    174.9565    221.2002   1.0538734972e+02   5.1283218063e+00    0.2199754     0.179571  17.88 0.0003907582    1.189    0.159
       118  -9.7983    129.3830    223.9383   1.1447665403e+02   1.2072245914e+01    0.2279351    0.1563354  34.56 0.0006197859    1.370    0.270
       119  -9.5407    109.6739    224.0621   1.1827719499e+02   1.5073945705e+01     0.161333     0.139904  60.11 0.0005192396    1.067    0.063
       120  -9.5367    104.2205    224.0184   1.1931626410e+02   1.5890428574e+01    0.1620585    0.1533601  40.57 0.0006806412    1.264    0.209
       121 -10.6184     49.7692    222.4968   1.2937112796e+02   2.3401089882e+01    0.2116007    0.1913555  77.88  0.000550276    1.296    0.228
       122 -10.5126    180.7505    221.1835   1.0429660273e+02   4.1804839599e+00    0.2362897    0.2011794 -16.49 0.0004466938    1.308    0.236
       123 -10.3255    179.6620    215.4968   1.0362242991e+02   5.1950953534e+00    0.2429714    0.1944757   8.12 0.0002017547    1.308    0.236
       124 -10.6225    148.4186    220.9136   1.1041153949e+02   9.5217177406e+00    0.2869613    0.2166497 -28.10  0.000976952    1.712    0.416
       125 -10.1160     97.7346    222.2310   1.2036635238e+02   1.7150522888e+01    0.1978833    0.1892021  56.48 0.0006473935    1.251    0.201
       126  -9.5226     82.6397    222.9230   1.2330987090e+02   1.9148291599e+01    0.1818451    0.1464999  42.14   0.00065637    1.276    0.216
       127  -9.4313    114.8908    221.8367   1.1701773265e+02   1.4670652190e+01    0.1731662    0.1544339  25.75 0.0006575115    1.315    0.239
       128  -9.3341     92.3969    221.7289   1.2133636770e+02   1.8004445078e+01    0.1435964    0.1077403 -57.10 0.0006966917    1.593    0.372
       129 -10.0428     39.8416    221.2084   1.3107187479e+02   2.4772125633e+01     0.216992     0.183914  21.26  0.000967626    1.770    0.435
       130  -9.4205     28.6580    221.9647   1.3310004805e+02   2.5838898338e+01    0.1486383     0.108794  81.77 0.0006482052    1.127    0.113
       131  -9.7648     15.5342    221.4894   1.3534189642e+02   2.7244827115e+01    0.1913218    0.1349091 -47.85  0.001040757    2.325    0.570
       132  -9.6226    140.8254    220.3442   1.1180243981e+02   1.0844414207e+01    0.1995596    0.1787191 -33.70 0.0006523991    1.356    0.263
       133  -9.7613      7.3613    225.1024   1.3688327113e+02   2.7364597106e+01    0.1557509    0.1216225  51.79 0.0006553397    1.351    0.260
       134 -10.0289     58.9360    220.6625   1.2755063897e+02   2.2637768882e+01    0.3177737    0.1562953  40.38  0.001834925    1.819    0.450
       135  -9.8035    109.0764    219.3881   1.1786100821e+02   1.5979329629e+01    0.1919605    0.1681288 -37.83 0.0005182216    1.509    0.337
       136  -9.5445     74.1319    222.3140   1.2485613432e+02   2.0399580091e+01    0.1682116    0.1467217 -84.87 0.0004139868    1.255    0.203
       137 -10.1567    158.9186    217.7835   1.0794177997e+02   8.2961858350e+00    0.2222175    0.1907018  -3.34  0.000496877    1.350    0.259
       138  -9.0828    128.6993    219.0274   1.1398942633e+02   1.3004748337e+01     0.158283     0.149842  57.81 0.0004828361    1.136    0.119
       139  -9.4591    104.0274    218.6853   1.1876381906e+02   1.6859393821e+01    0.1722299    0.1363478  47.35 0.0005964495    1.112    0.101
       140  -8.9161    154.4591    218.5034   1.0890715645e+02   8.9182500715e+00    0.1257046     0.106071  35.54 0.0001309659    1.041    0.039
       141  -9.1555    135.9699    218.0884   1.1244652136e+02   1.2001489184e+01    0.1841362    0.1427288  13.18 0.0005115453    1.645    0.392
       142  -9.6721    119.8614    217.1539   1.1548439198e+02   1.4717677909e+01    0.1998349    0.1791805 -54.04 0.0006982915    1.332    0.249
       143  -8.8624     95.4189    217.7919   1.2034067111e+02   1.8281144358e+01    0.1464037    0.1104187 -55.16 0.0006005742    1.589    0.371
       144 -10.5046      7.9632    216.4241   1.3638878847e+02   2.8885404888e+01    0.2361358    0.1709507 -47.95  0.001693097    2.231    0.552
       145 -10.8998    171.0256    214.0718   1.0505084503e+02   6.8566203642e+00      0.33992    0.2620752 -40.79 0.0006737509    1.512    0.338
       146  -9.9229    165.6954    214.1153   1.0608606124e+02   7.7442930002e+00    0.2589697    0.1913759  -0.19 0.0006901162    1.751    0.429
       147  -8.8805     77.2952    217.3196   1.2379518835e+02   2.0894965514e+01    0.1005476   0.09284668 -22.83 0.0002547406    1.612    0.380
       148 -10.1597     56.0163    216.5939   1.2776875187e+02   2.3750980886e+01     0.214811    0.1375718 -81.65 0.0006034031    1.499    0.333
       149  -9.3973    135.7747    222.9489   1.1312095923e+02   1.1226095538e+01    0.1752378    0.1548726  21.38 0.0006387267    1.258    0.205
       150 -10.0771    154.6976    212.4349   1.0797856481e+02   9.8583592905e+00    0.2434236    0.2026636  12.03 0.0006690519    1.338    0.252
       151  -9.1117    124.0568    215.6859   1.1447346385e+02   1.4314911446e+01     0.176856    0.1401176  45.16 0.0004674686    1.084    0.077
       152  -9.9009     83.1207    215.4932   1.2249231570e+02   2.0440434982e+01     0.192649    0.1817532 -32.09 0.0007649151    1.493    0.330
       153  -9.0043     72.4577    216.5497   1.2465025851e+02   2.1680873586e+01    0.1161522   0.09468594  65.02 0.0001073391    1.031    0.030
       154 -10.0887     31.1657    214.4964   1.3219827856e+02   2.6963407077e+01    0.2220314     0.164542 -68.82  0.000955735    1.518    0.341
       155 -10.1249    143.5165    214.4304   1.1046583803e+02   1.1385595278e+01    0.2667369    0.2004826  22.06 0.0008863581    1.482    0.325
       156  -9.0792    101.8627    214.4526   1.1870851967e+02   1.7944500091e+01    0.2196082    0.1578948 -38.82 0.0009201053    1.980    0.495
       157  -8.9541     90.5484    215.5301   1.2104916769e+02   1.9392665398e+01    0.1187197    0.1005837  60.23 0.0002288325    1.052    0.050
       158  -9.7778    131.9449    213.7666   1.1266149701e+02   1.3386679805e+01    0.2392661    0.1552186  31.58 0.0006411763    1.559    0.358
       159  -9.9884     63.2861    213.2959   1.2611504421e+02   2.3474080686e+01    0.2060706    0.1863107 -32.74 0.0008989581    1.673    0.402
       160 -10.2066     51.3481    213.1106   1.2836923645e+02   2.4968359652e+01    0.1917343    0.1596148 -56.20  0.001053976    1.596    0.373
       161  -9.9601     96.9652    212.4990   1.1945612779e+02   1.9026038740e+01    0.1971856     0.166339 -46.27 0.0006405669    1.525    0.344
       162  -9.3415     41.0661    212.9240   1.3027815429e+02   2.6186535307e+01    0.1490255    0.1299891 -50.41 0.0006855962    1.664    0.399
       163  -8.9453     74.4734    212.4951   1.2387982557e+02   2.2175400674e+01     0.117574   0.09759353  65.91 0.0001154312    1.040    0.039
       164 -10.7152    176.9907    208.6513   1.0304469059e+02   6.6861959273e+00    0.2724895    0.2267298 -16.75  0.000628152    1.332    0.249
       165  -9.2409    125.0327    210.9847   1.1366820482e+02   1.4986536370e+01    0.1808108    0.1497732   4.68 0.0004568206    1.620    0.383
       166  -9.4564    106.9139    210.2908   1.1721418107e+02   1.7947227378e+01    0.1890837    0.1698985 -20.40 0.0005473864    1.518    0.341
       167  -9.8063     25.2208    210.5367   1.3302961577e+02   2.8328344050e+01    0.1837516    0.1467652 -66.34 0.0008688584    1.531    0.347
       168  -9.7613     17.9585    210.9855   1.3436380880e+02   2.8961871227e+01    0.1799538     0.145654 -14.72  0.001191343    2.371    0.578
       169 -10.6054    161.3229    208.7699   1.0612089293e+02   9.3382492544e+00    0.2584176    0.2123074  -8.22 0.0005544549    1.447    0.309
       170  -9.2732    149.3397    210.2158   1.0870885985e+02   1.1124279953e+01    0.1754486    0.1535258 -12.82 0.0004649696    1.363    0.266
       171  -9.3681    117.4060    212.6682   1.1540964330e+02   1.5894499806e+01    0.1949796    0.1418562  24.63 0.0006901171    1.640    0.390
       172  -9.3066     93.7686    208.8856   1.1968682730e+02   2.0168009216e+01     0.169714    0.1643791  45.33 0.0007983188    1.273    0.214
       173  -9.2647     78.4844    208.9058   1.2273708147e+02   2.2318133353e+01    0.1621238    0.1105449 -70.36 0.0007012487    1.516    0.340
       174  -9.2049    167.5385    207.9546   1.0477234862e+02   8.4101235701e+00    0.1725956     0.128098 -40.64 0.0005828526    1.546    0.353
       175  -9.4835    146.0581    207.7048   1.0899305671e+02   1.2100926883e+01    0.2147073    0.1763788 -23.68  0.000553536    1.507    0.337
       176 -10.1396    149.6509    204.8447   1.0784313651e+02   1.1982927950e+01    0.3652675    0.2076835 -47.90   0.00182566    2.016    0.504
       177  -9.1271    134.8367    208.1430   1.1131060700e+02   1.3894503978e+01     0.163776    0.1444392  16.54 0.0003916162    1.291    0.225
       178  -8.9101    131.4609    208.4879   1.1203879110e+02   1.4388108857e+01    0.1268078    0.1107341  44.48  4.03106e-05    1.045    0.043
       179  -9.1516     72.8328    207.7948   1.2374553319e+02   2.3291583932e+01    0.1622732    0.1518497  66.34 0.0005852471    1.245    0.197
       180  -9.8815    183.4886    205.8351   1.0133039944e+02   6.0096210011e+00    0.2575677    0.1873711   0.34 0.0006567705    1.638    0.390
       181 -10.5626    186.8387    201.3859   9.9933709284e+01   6.1173433990e+00    0.2958485    0.2430291   5.98 0.0004380418    1.227    0.185
       182 -10.7145    199.1598    189.4245   9.5430305398e+01   5.8059467379e+00    0.3832226    0.2404054 -26.68   0.00166741    1.741    0.426
       183  -9.6894    193.0343    200.7795   9.8641111546e+01   5.1375218480e+00    0.2287861    0.2083893  67.04 0.0004170097    1.447    0.309
       184  -9.8579    190.3123    191.0303   9.7432054398e+01   7.1308623513e+00    0.3973709     0.186788 -36.19  0.001662367    2.342    0.573
       185 -10.0355    193.6497    186.4909   9.5946580146e+01   7.2556184109e+00    0.2913145    0.2157451   2.53 0.0006577453    1.509    0.337
       186  -9.8019    191.4757    196.4885   9.8186357264e+01   6.0670498801e+00    0.2486046    0.2045579   2.25 0.0006282645    1.221    0.181
       187 -10.3688    193.9610    192.8185   9.7050099667e+01   6.2001579945e+00    0.3256021    0.2606297  -4.51 0.0007638619    1.295    0.228
       188  -9.7996    171.5760    206.2524   1.0370999723e+02   7.9904275093e+00    0.2421408    0.1936964  -0.36 0.0005763017    1.427    0.299
       189  -9.4531    173.2194    202.2209   1.0272842014e+02   8.3531592994e+00     0.207392    0.1722813 -15.87  0.000597127    1.341    0.254
       190 -10.3551    124.7105    205.8983   1.1304981949e+02   1.5951618343e+01    0.3164338    0.1657091  39.86 0.0004530983    1.696    0.410
       191  -9.8809    120.2203    206.1690   1.1400024756e+02   1.6625417058e+01    0.2102505    0.1852473  47.49  0.000589579    1.067    0.063
       192  -9.5692    114.5629    206.8034   1.1523398291e+02   1.7406240263e+01    0.2185007    0.1876554  16.20 0.0006808676    1.452    0.311
       193 -10.1616     46.7634    206.3578   1.2870875154e+02   2.6804646083e+01    0.2087446    0.1902866  32.35 0.0004793064    1.487    0.328
       194  -9.0776     32.1688    206.7628   1.3150599846e+02   2.8335786903e+01    0.1341524     0.121778 -86.50 0.0007125817    1.352    0.260
       195  -9.8964    156.5742    205.3046   1.0652591940e+02   1.0722162550e+01    0.2276047    0.2018444  15.25 0.0005986037    1.178    0.151
       196  -9.1943    104.0116    205.3513   1.1719878576e+02   1.9310246858e+01    0.1748683    0.1406645  46.90 0.0004979341    1.128    0.114
       197 -10.0180     86.4028    204.8432   1.2071973967e+02   2.1998584434e+01    0.2100301    0.1841984  36.26 0.0006168763    1.313    0.239
       198 -10.4521    139.8911    203.3128   1.0958932311e+02   1.3904338183e+01    0.3062814    0.2525133 -83.70   0.00110008    1.468    0.319
       199  -9.4808    139.0449    199.0363   1.0912213261e+02   1.4812778350e+01    0.2407062    0.1509701  61.28 0.0008223421    1.896    0.472
       200  -9.9656    140.5389    195.5344   1.0827454258e+02   1.5192874858e+01    0.2565571    0.1949253 -40.62 0.0006566455    1.520    0.342
       201 -10.2581    225.4153    205.6782   9.3555951958e+01  -9.6437180331e-01    0.3309375    0.2411893  10.10  0.001425369    1.245    0.197
       202 -10.4690      6.6002    203.9479   1.3602097703e+02   3.1355338810e+01    0.1825332    0.1535398  11.33   0.00085992    1.941    0.485
       203  -9.9855    179.1863    202.3835   1.0158656311e+02   7.2898212808e+00    0.2448819    0.2047161   3.20 0.0004771559    1.248    0.199
       204  -9.6695    110.0596    202.8776   1.1564772644e+02   1.8844811256e+01    0.1847863    0.1552861  -4.25 0.0009509205    1.708    0.415
       205  -8.7268     92.3986    203.2669   1.1932087191e+02   2.1440383133e+01    0.1148119   0.09676916   5.68 0.0006976905    1.730    0.422
       206  -9.7624     56.0147    202.0136   1.2653735764e+02   2.6563406391e+01     0.172909    0.1486244  75.91 0.0004968207    1.115    0.103
       207  -9.6968     21.1203    202.1875   1.3327116313e+02   3.0347634236e+01    0.1517014    0.1289721  88.14 0.0005675943    1.243    0.196
       208 -11.3890    164.7247    199.7965   1.0401551108e+02   1.0234587854e+01    0.3969626    0.2974338  53.06  0.001536792    1.379    0.275
       209  -9.6810    144.5624    200.7660   1.0825272819e+02   1.3562064121e+01    0.2305717    0.1878631  15.74 0.0006488376    1.405    0.288
       210 -10.5840    132.0408    199.8463   1.1068938665e+02   1.5847832441e+01    0.3141963    0.2442403  12.58  0.001784192    1.666    0.400
       211 -10.3349     98.2211    200.3701   1.1777614758e+02   2.1139451270e+01    0.2398792    0.1998089  80.92  0.001034212    1.158    0.137
       212 -10.0910     69.4186    200.3372   1.2368825093e+02   2.5202693845e+01    0.1982198     0.193817  31.50 0.0002696044    1.377    0.274
       213  -9.4922    155.0316    200.0917   1.0601646891e+02   1.1874772391e+01    0.1985187    0.1514235   5.86 0.0004871752    1.666    0.400
       214  -9.3650     80.6719    199.0476   1.2124966242e+02   2.3938822953e+01    0.1659968    0.1435131  84.74  0.000471148    1.100    0.091
       215  -8.9885     75.0143    198.9666   1.2240438500e+02   2.4730549449e+01    0.1646206    0.1480677 -26.89 0.0005168222    1.603    0.376
       216  -9.4064     49.5239    198.3445   1.2750641133e+02   2.8069469040e+01    0.1591688    0.1433101   9.66 0.0007196316    1.652    0.395
       217  -9.7372    170.3079    196.0567   1.0227190424e+02   9.8769371704e+00    0.2472625    0.1992696  21.36 0.0007325488    1.221    0.181
       218  -9.6361    149.2499    196.8182   1.0667499332e+02   1.3452680268e+01    0.2308308    0.1790548  28.15 0.0006686479    1.289    0.224
       219  -9.5255    124.8798    196.7393   1.1172655598e+02   1.7617577786e+01    0.1931227    0.1668596  29.27 0.0006635288    1.233    0.189
       220 -10.5365    184.1761    194.4614   9.9245877100e+01   7.6756243351e+00    0.3375508    0.2352475  36.70  0.001313452    1.276    0.216
       221  -9.2147     41.6407    199.6119   1.2916866617e+02   2.8715669677e+01    0.1498641    0.1301616 -47.47 0.0005873248    1.631    0.387
       222  -9.1087     60.9654    196.0273   1.2498368780e+02   2.7151093457e+01    0.1613624    0.1424828 -39.84  0.000457317    1.595    0.373
       223  -9.0099     16.9686    195.0201   1.3360911638e+02   3.2158882133e+01    0.1503835    0.1209733 -53.97 0.0006045953    1.688    0.408
       224  -9.9675    132.9688    193.3990   1.0952918327e+02   1.6885519246e+01    0.2242718    0.1967613 -46.21 0.0005218651    1.288    0.223
       225  -9.9840    112.9322    193.9932   1.1385428898e+02   2.0093549316e+01     0.194577    0.1763477  55.21 0.0005066973    1.054    0.051
       226  -9.3338    152.1648    192.3600   1.0534973383e+02   1.3735894347e+01    0.2093906    0.1779821 -27.27  0.000560275    1.348    0.258
       227  -9.0818    103.8803    198.2078   1.1632610877e+02   2.0698340695e+01    0.1586103    0.1470749  23.72  0.000407266    1.299    0.230
       228  -9.3532     36.1388    193.1525   1.2974622140e+02   3.0616686438e+01    0.1605745    0.1393635 -79.14 0.0005738777    1.282    0.220
       229  -8.8163    157.5064    192.5179   1.0427298914e+02   1.2759883211e+01    0.1344512    0.1194809  31.34 0.0008099787    1.045    0.043
       230  -9.8908    146.2995    191.3326   1.0640247240e+02   1.4957060227e+01     0.220043    0.1956759  15.67 0.0005721096    1.212    0.175
       231  -9.4840     89.0596    196.2165   1.1918069603e+02   2.3309767363e+01    0.2056547    0.1692197 -39.80  0.000760263    1.616    0.381
       232  -9.0885     26.7845    191.9949   1.3151032545e+02   3.1818418870e+01    0.1342322    0.1259751 -31.07 0.0005926302    1.615    0.381
       233 -10.0703    162.1099    190.3819   1.0296391769e+02   1.2312092964e+01    0.2371712    0.2125249 -14.87 0.0004085058    1.220    0.180
       234 -10.0406    176.4168    195.5823   1.0097251990e+02   8.8716945480e+00    0.2376025    0.2121165 -16.87 0.0006236654    1.197    0.165
       235 -10.1396    185.6982    188.9658   9.7960215673e+01   8.2921782527e+00    0.2625192    0.2207357  10.02 0.0007795198    1.167    0.143
       236 -10.0452    172.6880    189.1715   1.0059604637e+02   1.0611954948e+01    0.2526628     0.218081 -10.71 0.0004790817    1.244    0.196
       237  -9.3362    139.9211    189.8047   1.0749662456e+02   1.6358053689e+01    0.1991403    0.1745282  17.17 0.0005444956    1.258    0.205
       238  -8.6274     96.6766    190.6686   1.1687289647e+02   2.3291785647e+01    0.1203314    0.1021034 -16.17 0.0007050183    1.702    0.412
       239  -9.5829     64.2417    190.0950   1.2370723387e+02   2.7948561016e+01    0.1841798    0.1608548  41.71 0.0004669906    1.308    0.236
       240 -10.0673    179.1094    187.9627   9.9087089376e+01   9.6511883706e+00     0.272183    0.2053873 -19.74 0.0005285407    1.498    0.333
       241  -9.6366    134.2947    187.5810   1.0833653831e+02   1.7757838652e+01    0.2572384    0.1618726 -66.44  0.001260586    2.010    0.503
       242  -8.8722     89.8163    188.3968   1.1805580448e+02   2.4778028884e+01    0.1633981    0.1177567  30.45 0.0003775655    1.584    0.369
       243  -9.7177    157.0926    186.5799   1.0334600810e+02   1.3893091598e+01    0.2606684    0.1936499   2.74 0.0008625084    1.796    0.443
       244  -8.8969      1.6559    187.7090   1.3609212218e+02   3.4960348307e+01   0.09567936   0.07379304 -58.07 0.0007026639    1.656    0.396
       245  -9.6729    150.8779    185.5829   1.0447856871e+02   1.5197048619e+01    0.2097506    0.1843808 -21.37 0.0005018775    1.289    0.224
       246  -9.4928    128.7461    185.8287   1.0925061831e+02   1.9053788073e+01    0.1937383    0.1789003  10.15 0.0006507194    1.245    0.197
       247  -8.9994     20.7929    186.3871   1.3229991471e+02   3.3545106624e+01    0.1287377    0.1069627  24.35  0.000488751    1.665    0.399
       248  -9.8446    166.7598    184.0680   1.0089442106e+02   1.2578681982e+01    0.2562663    0.2063888 -14.24 0.0007122413    1.432    0.302
       249  -9.2545    189.9244    183.8243   9.6175280612e+01   8.3641988152e+00    0.2084691    0.1650303  10.13 0.0005874159    1.293    0.227
       250  -9.6099    173.5925    183.8431   9.9451606778e+01   1.1361428194e+01    0.2243633    0.1717252  28.40 0.0005817717    1.244    0.196
       251  -8.6879    109.3592    184.2834   1.1323775806e+02   2.2597712850e+01    0.1260426    0.1048994   0.73  0.000435701    1.674    0.403
       252  -8.9462     34.7623    184.4290   1.2932248494e+02   3.2558885993e+01     0.139501    0.1125738  22.74 0.0008577816    1.696    0.410
       253 -10.3545    210.6588    174.0542   9.0280684897e+01   6.1289113257e+00    0.2723079    0.2398596   1.59 0.0004186179    1.039    0.037
       254 -10.8013    203.5387    181.2833   9.3052047980e+01   6.2913250141e+00    0.3525779     0.245044 -28.13 0.0006213271    1.482    0.325
       255 -10.4414    205.3725    175.2932   9.1527875725e+01   6.9039944130e+00    0.2888135    0.2243112 -14.18 0.0003168726    1.300    0.231
       256  -9.6157    140.3500    183.3439   1.0634245721e+02   1.7502696949e+01    0.1987719    0.1583717   1.60 0.0005859166    1.645    0.392
       257  -9.1259    134.4818    183.0876   1.0756685180e+02   1.8589413454e+01    0.1840539      0.13439 -50.02 0.0004426183    1.490    0.329
       258  -8.9559     95.4397    182.7765   1.1608672448e+02   2.5093522600e+01    0.1750832    0.1162951 -48.97 0.0007162043    1.723    0.420
       259  -8.6587     67.4701    182.9908   1.2224604893e+02   2.9013673373e+01    0.1583355   0.09420803 -45.16 0.0005611387    2.273    0.560
       260 -10.1548    183.8121    181.0856   9.6872226270e+01   9.9445465274e+00     0.262313    0.2090058 -22.89 0.0007598884    1.332    0.249
       261  -9.0871    154.9978    181.9419   1.0297329797e+02   1.5120390381e+01    0.2075218    0.1624546   1.41 0.0004652972    1.610    0.379
       262  -9.5760    197.6389    180.9549   9.4122466309e+01   7.4181060038e+00    0.2304703     0.170242  12.12 0.0005570442    1.431    0.301
       263  -8.6590     47.2865    181.3155   1.2641741296e+02   3.1842169081e+01    0.1092376   0.08779699 -49.60 0.0002532741    1.586    0.369
       264  -9.8373    176.9097    179.3424   9.7938457104e+01   1.1526952132e+01    0.2493277    0.1946775 -22.72 0.0006533402    1.402    0.287
       265  -8.9821    160.2266    179.7343   1.0147264826e+02   1.4563323445e+01    0.1830181    0.1539732   3.36 0.0004838452    1.340    0.254
       266  -8.8632     55.3095    180.3470   1.2459599532e+02   3.1104377580e+01    0.1154046   0.09060016 -43.26 0.0004974916    1.706    0.414
       267  -8.8271    165.3279    179.2868   1.0032006028e+02   1.3697302012e+01    0.1387823    0.1042665   9.99 0.0002627186    1.612    0.380
       268  -9.2989    145.7850    178.8819   1.0440354964e+02   1.7377085878e+01    0.2015695    0.1813911   7.16 0.0005484436    1.228    0.186
       269  -8.6770     35.2807    179.3227   1.2878228086e+02   3.3577951163e+01    0.1079307   0.08278783 -53.91 0.0002610481    1.589    0.371
       270 -10.3721    190.8402    176.9400   9.4676275335e+01   9.3330085099e+00    0.2953824    0.2428534  11.85 0.0005152448    1.200    0.167
       271  -9.9561    192.9907    171.3537   9.3146423534e+01   9.8653563869e+00    0.2809438    0.1953358 -23.50 0.0005650344    1.556    0.357
       272 -10.2631    134.4747    177.2961   1.0659641780e+02   1.9723788902e+01    0.2484867     0.226636  56.23 0.0008505335    1.042    0.041
       273  -9.4564    169.6119    176.3739   9.8882089286e+01   1.3419839999e+01     0.255454    0.1825338   2.86 0.0006463669    1.876    0.467
       274  -9.4383    101.1562    176.1470   1.1386388745e+02   2.5590357955e+01    0.2592013    0.1582735  71.81            0    2.133    0.531
       275  -9.9506    197.9163    175.0277   9.2911327388e+01   8.3286867878e+00    0.2621711    0.1894229 -24.97 0.0007289386    1.438    0.305
       276 -11.4120    175.5354    172.0240   9.6815167537e+01   1.3076014554e+01    0.5667755    0.4350767 -20.89  0.003030254    1.451    0.311
       277 -10.2068    179.0191    166.5563   9.5007311436e+01   1.3383651817e+01    0.3340309    0.2444417 -23.58 0.0008867797    1.513    0.339
       278  -9.9075    150.3221    175.7176   1.0285739950e+02   1.7148460404e+01    0.2361615    0.1892204  38.05 0.0006929376    1.167    0.143
       279 -10.4365    182.6187    173.9273   9.5735921162e+01   1.1393049955e+01    0.2983866    0.2324077 -10.27 0.0007619024    1.438    0.304
       280  -9.2798    139.9695    175.0258   1.0499212677e+02   1.9181847811e+01    0.2088734    0.1678017  -0.15 0.0005165859    1.619    0.382
       281 -10.0716    161.4623    173.7993   1.0011154774e+02   1.5426601230e+01    0.2586031    0.2047483  25.53 0.0005489289    1.284    0.221
       282  -9.4063    128.9963    172.6559   1.0701701499e+02   2.1627196276e+01    0.2081553    0.1901587 -35.14  0.000425485    1.225    0.184
       283  -8.9938     24.0578    172.4503   1.3058497895e+02   3.6156653751e+01    0.1345942   0.09804422 -21.84 0.0008067685    2.411    0.585
       284  -9.6815    187.8157    170.9477   9.4097293185e+01   1.0918970375e+01    0.2140145    0.1757039   4.54 0.0005124501    1.263    0.208
       285  -8.6944    107.5130    171.4888   1.1170150108e+02   2.5547770413e+01    0.1323647    0.1266516  63.69 0.0001303237    1.080    0.074
       286  -8.8668     89.7262    171.6565   1.1581231666e+02   2.8311507505e+01    0.1250482    0.1020199 -32.52 0.0004325943    1.619    0.382
       287  -9.2131    201.1438    170.1482   9.1306945339e+01   8.5239765657e+00    0.2111443    0.1689429  -0.29 0.0004946485    1.274    0.215
       288  -9.2316    143.3913    169.7670   1.0328632531e+02   1.9589176040e+01    0.1876801    0.1321303 -37.09 0.0005587378    1.602    0.376
       289  -8.8249    119.4764    170.0266   1.0872318087e+02   2.3836679466e+01    0.1816153    0.1162769 -29.98 0.0006971305    2.324    0.570
       290  -9.7722    212.0972    167.9389   8.8769407937e+01   6.8281929474e+00    0.2407983    0.1811392 -27.28 0.0004658077    1.311    0.237
       291  -9.2788    197.3215    168.5168   9.1719808039e+01   9.5185491661e+00    0.2218991    0.1567386 -10.31 0.0005570833    1.647    0.393
       292  -9.1652    158.3343    169.0072   9.9869173653e+01   1.6920643112e+01    0.1920801    0.1806775 -21.38  0.000628608    1.118    0.105
       293 -10.9081    218.8226    165.7932   8.7080274813e+01   5.9188061834e+00    0.3172325    0.2379881  -3.12 0.0005693939    1.361    0.265
       294 -10.0035    221.4988    160.3883   8.5459953533e+01   6.2660353636e+00     0.269838    0.2068604 -13.47 0.0005695955    1.261    0.207
       295 -10.1600    205.1922    167.2874   8.9943043524e+01   8.2282357196e+00    0.2664682    0.2147703  -4.28 0.0004141258    1.240    0.194
       296  -9.5235    134.9841    167.9822   1.0484043866e+02   2.1495939075e+01    0.2137043    0.1719281  -5.70 0.0005533221    1.645    0.392
       297  -9.9261    169.9229    166.6841   9.6935046385e+01   1.5125896733e+01    0.2243352    0.1921518 -15.11 0.0005089099    1.250    0.200
       298  -9.3435    150.3375    167.0218   1.0123411522e+02   1.8824982896e+01    0.1936152    0.1804859 -38.49 0.0004728031    1.136    0.120
       299  -8.5434     85.2784    167.3478   1.1622146048e+02   2.9909550758e+01    0.1266447    0.1013382 -34.25 0.0002972412    1.638    0.389
       300  -9.1095    127.9685    166.0052   1.0607798724e+02   2.3173121732e+01    0.2080233    0.1707667  -5.08  0.000485487    1.606    0.377
       301 -10.2472    192.0449    163.0814   9.1644939110e+01   1.1459867348e+01    0.3253618    0.2161011 -22.04  0.000772516    1.700    0.412
       302 -10.0493    199.7464    162.9019   9.0086155448e+01   9.9957465925e+00    0.2966798    0.1867149 -30.88 0.0008320137    1.629    0.386
       303  -9.7699    184.9679    163.6150   9.3184739309e+01   1.2748278771e+01    0.2518562    0.1916851 -13.94 0.0006282245    1.470    0.320
       304 -10.7910    213.1853    160.5416   8.7022272150e+01   7.8072601650e+00    0.3557071    0.2348174 -26.54 0.0004136528    1.512    0.338
       305  -9.4202    120.2180    163.1944   1.0736591745e+02   2.5141025419e+01    0.1960776    0.1896573  17.15 0.0005035673    1.142    0.125
       306  -8.3018    111.3178    163.3084   1.0946903253e+02   2.6655801626e+01    0.1337258    0.1107853 -11.65 0.0002413142    1.636    0.389
       307  -9.0544    172.7273    162.4161   9.5479923104e+01   1.5367087158e+01    0.1965862    0.1292771  32.33 0.0004503549    1.540    0.351
       308 -10.4595    205.5202    159.4373   8.8238391109e+01   9.4586152191e+00    0.2906959    0.2335885  -6.95 0.0005477687    1.254    0.203
       309  -8.9544    181.6403    161.6719   9.3465165523e+01   1.3748174230e+01    0.1520413    0.1079944   7.82 0.0007042385    1.790    0.441
       310  -8.7340    146.5708    161.4614   1.0099690641e+02   2.0642565817e+01    0.1409561    0.1347535  27.90 0.0001269998    1.042    0.040
       311  -9.3684    163.6703    160.0715   9.6939200969e+01   1.7590987128e+01    0.1965195    0.1808514 -20.99 0.0004645496    1.124    0.111
       312  -9.1581    153.1944    160.0448   9.9235148749e+01   1.9646873358e+01    0.2226865    0.1604783 -14.42 0.0004693271    1.899    0.473
       313 -10.5563    233.1930    151.8362   8.1558453239e+01   5.4139322958e+00    0.3114261    0.2053142 -26.64  0.000511821    1.421    0.296
       314  -8.8736    184.1065    158.8066   9.2357544360e+01   1.3775376363e+01    0.1945083    0.1595937   6.45 0.0004096441    1.297    0.229
       315 -10.1164    176.7883    157.0605   9.3509459907e+01   1.5551952608e+01    0.2766972    0.2239352 -27.18 0.0006099326    1.283    0.220
       316  -9.0521    168.1823    157.7689   9.5488847738e+01   1.7136399175e+01    0.1964379    0.1651812   5.40  0.000557709    1.306    0.234
       317  -9.1277    158.8510    158.2219   9.7613904071e+01   1.8897388730e+01    0.1974085    0.1659521   8.12  0.000430018    1.335    0.251
       318 -10.2767    226.7374    154.7166   8.3309502684e+01   6.1718831981e+00    0.3446447    0.2124647 -28.14 0.0009035474    1.557    0.358
       319  -9.6732    228.4663    150.5053   8.2091938997e+01   6.5025970464e+00    0.2491005    0.1864682 -19.76 0.0006319928    1.257    0.204
       320  -9.3969    229.2955    147.3016   8.1245043499e+01   6.8456411872e+00    0.2237466     0.129167 -27.30 0.0006900097    1.679    0.404
       321 -10.0674    197.3457    154.7783   8.8829061366e+01   1.1852816142e+01     0.277167    0.2235173 -12.19 0.0005653854    1.272    0.214
       322  -8.8607    128.3882    155.7519   1.0407132326e+02   2.5242867901e+01    0.1869374    0.1333386 -40.48 0.0002833932    1.533    0.348
       323  -8.6208     99.3359    156.2876   1.1113082929e+02   3.0176788190e+01    0.1322765    0.1102011 -13.84 0.0003596149    1.631    0.387
       324  -9.1645    221.9782    154.8327   8.4186209948e+01   7.0498185867e+00    0.1861107    0.1645139 -11.03  0.000402925    1.055    0.052
       325  -9.7368    216.1626    154.5080   8.5177679843e+01   8.2121607261e+00    0.2496929     0.183172 -21.78 0.0003620801    1.332    0.249
       326 -10.1039    231.7306    157.9239   8.3117473212e+01   4.7565373659e+00    0.2686644    0.1675016 -15.54  0.000516695    1.722    0.419
       327  -8.7534    113.3457    155.3039   1.0756951667e+02   2.8038744771e+01    0.1392387    0.1129989  -8.23 0.0003682497    1.690    0.408
       328  -9.4501     24.6683    155.6765   1.2899060777e+02   3.9757678102e+01    0.1156982   0.08075079 -49.19 0.0007050273    1.703    0.413
       329  -9.0485    159.7103    163.3964   9.8471379545e+01   1.7728065313e+01    0.1970984     0.129785  33.25 0.0006412956    1.540    0.351
       330  -9.4417    187.8731    153.6339   9.0480509352e+01   1.3950180208e+01    0.2576563    0.1840772 -26.16 0.0006931455    1.475    0.322
       331  -8.9441     17.6827    154.3313   1.3047143763e+02   4.0670646152e+01    0.1249358   0.07085399  69.86 0.0007047267    1.687    0.407
       332  -9.5800    206.1788    152.6983   8.6660214452e+01   1.0457149890e+01    0.2501984    0.1680987  -5.51 0.0006388055    1.869    0.465
       333  -8.6822    167.2603    153.3714   9.4761214182e+01   1.8159733469e+01    0.1476168    0.1120927  -5.81 0.0004357588    1.652    0.395
       334  -8.8199    192.5438    152.5703   8.9304804448e+01   1.3199254142e+01    0.1437159    0.1321737  10.78 0.0002206915    1.012    0.011
       335  -8.3541    171.3158    152.3413   9.3665341673e+01   1.7537058746e+01    0.1516045    0.1130511   2.90 0.0002702019    1.708    0.414
       336  -9.9885    145.0149    151.2678   9.9296041635e+01   2.3010715524e+01    0.2533241     0.234737 -13.21 0.0003899227    1.160    0.138
       337  -9.3400    143.3392    147.2287   9.8837529291e+01   2.4173232428e+01    0.2554514     0.196987 -34.27 0.0007270621    1.405    0.288
       338  -9.6954    221.5142    150.8508   8.3404980536e+01   7.7712210987e+00    0.2527739    0.1898623   9.31 0.0005200715    1.401    0.286
       339  -9.4629    157.4683    151.0028   9.6413203248e+01   2.0592076409e+01    0.2146789    0.1442961 -41.88 0.0004976265    1.537    0.350
       340  -8.7559    152.0136    151.0484   9.7650717231e+01   2.1673137412e+01     0.170484    0.1672656  21.48 0.0003277746    1.019    0.019
       341  -8.6732    108.0330    151.2584   1.0811718674e+02   2.9843282472e+01    0.1757419    0.1193308  40.40 0.0003886591    1.474    0.322
       342 -10.0573    215.0242    147.0469   8.3750800536e+01   9.6515412989e+00     0.279905    0.2070508 -10.98 0.0004895604    1.419    0.295
       343  -8.9773    202.5452    149.9650   8.6759709259e+01   1.1643824106e+01    0.2115684    0.1357662 -30.25 0.0007936637    1.566    0.362
       344  -8.4388    176.3448    150.2962   9.2149181273e+01   1.6900229743e+01    0.1513349    0.1119586   9.38 0.0003504925    1.669    0.401
       345 -11.3494    133.1086    146.9055   1.0118344441e+02   2.6231770251e+01    0.6456382    0.3939476 -64.52  0.002607465    2.072    0.517
       346 -10.5602    131.9589    139.9245   9.9983766664e+01   2.7945684116e+01     0.411497    0.2705968 -59.75  0.001316865    1.691    0.409
       347  -9.3997    182.1179    148.1085   9.0454969547e+01   1.6125197067e+01     0.218523    0.1850898   2.19 0.0002894264    1.247    0.198
       348  -9.1970    162.0489    147.4600   9.4629060341e+01   2.0365148938e+01    0.2205241    0.1959894 -36.48 0.0004537035    1.151    0.131
       349  -8.9297    122.0513    148.4690   1.0416217817e+02   2.7970089327e+01    0.2101608    0.1393911  39.91 0.0004542182    1.504    0.335
       350  -9.5331    191.1411    146.3871   8.8220304508e+01   1.4585187067e+01    0.2277369    0.1918009 -15.69 0.0003864508    1.197    0.165
       351 -10.2482    223.6894    144.8531   8.1690851954e+01   8.3103000962e+00     0.275883    0.2081243  -2.24 0.0005210434    1.390    0.281
       352  -9.2823    176.4127    144.6498   9.0883973482e+01   1.7948623035e+01    0.1953116    0.1394358 -27.58 0.0006456499    1.503    0.335
       353  -9.6714    208.4714    143.1777   8.4107412727e+01   1.1607599905e+01    0.2612841    0.2010439   7.02 0.0005226331    1.416    0.294
       354  -8.9711    218.6570    143.1514   8.2214542198e+01   9.5727785368e+00    0.1975481    0.1230247 -22.20 0.0004874738    1.681    0.405
       355  -9.1680    200.3981    143.2586   8.5676574397e+01   1.3238579072e+01    0.1839968    0.1345079 -42.61 0.0002539456    1.426    0.299
       356  -8.9290    171.9444    142.9976   9.1469900960e+01   1.9192213769e+01    0.2261909    0.1748397   4.54  0.000491855    1.572    0.364
       357  -8.6595    194.5265    141.9726   8.6542487529e+01   1.4676234713e+01    0.1989818    0.1247404 -10.47 0.0007259359    2.292    0.564
       358  -9.9412    139.1890    141.1695   9.8513814833e+01   2.6261529347e+01    0.2877603     0.247104   1.89 0.0004999528    1.370    0.270
       359 -10.5838    229.9585    138.4760   7.9162651088e+01   8.1056243582e+00      0.35364    0.1839774 -31.90 0.0003016606    1.807    0.447
       360  -9.2440    214.2228    140.7645   8.2486037778e+01   1.0852045273e+01    0.1966132    0.1545875  -1.94 0.0005366101    1.330    0.248
       361  -9.3715    155.7954    140.8949   9.4580885889e+01   2.2956797726e+01    0.2273914    0.1978586  -2.70 0.0005915613    1.279    0.218
       362  -9.0091    147.8049    141.4165   9.6538050405e+01   2.4483018676e+01    0.2081567    0.1389927  32.17 0.0006429387    1.623    0.384
       363  -9.5011    224.5230    138.6304   8.0143989672e+01   9.1464805366e+00    0.2398595    0.1305296 -27.60 0.0006766872    1.831    0.454
       364  -8.7487    203.6575    139.7362   8.4241245182e+01   1.3180645797e+01    0.1479652     0.107517  13.84 0.0003724778    1.598    0.374
       365  -8.8389    186.9801    138.9767   8.7381294498e+01   1.6795339972e+01    0.1784209    0.1579667 -27.18 0.0004165955    1.115    0.104
       366  -8.8029    181.6734    139.6725   8.8641648579e+01   1.7783757787e+01    0.1549964     0.114388   6.18 0.0007050222    1.700    0.412
       367  -9.3921    166.4967    138.7594   9.1694881514e+01   2.1154302843e+01    0.2336448     0.196189  12.21 0.0007062785    1.309    0.236
       368  -9.5450    218.9181    136.2506   8.0598570292e+01   1.0653242486e+01    0.2701271     0.188959 -18.14 0.0006530047    1.474    0.321
       369  -8.7048    152.3810    137.5105   9.4599052035e+01   2.4349250416e+01    0.1462946    0.1423622 -16.69 0.0001327899    1.034    0.033
       370  -9.0781    147.0249    136.7033   9.5664276002e+01   2.5617480510e+01    0.2032111    0.1929355  28.60 0.0003920303    1.051    0.049
       371  -9.4934     69.8591    136.8810   1.1531297415e+02   3.9008502844e+01    0.2050982    0.1766692 -42.14  0.000865932    1.304    0.233
       372  -9.7833    208.4953    135.8713   8.2428644143e+01   1.2846796972e+01    0.2341116    0.1981958  31.16 0.0003934427    1.173    0.147
       373  -9.7435    234.7354    133.5578   7.7238003778e+01   7.9495822594e+00    0.3569004    0.2626992  -6.32  0.001772284    1.425    0.298
       374  -9.0691    198.8770    134.8081   8.4025474170e+01   1.5039620738e+01    0.2256084    0.1898228   3.42 0.0006316975    1.232    0.188
       375  -9.5804    192.9033    134.8409   8.5215873401e+01   1.6296539781e+01    0.2208559    0.1885207  -0.78 0.0005233809    1.211    0.174
       376  -8.9797    172.4607    135.4523   8.9623273544e+01   2.0536243651e+01    0.1493865    0.1422169   8.32 5.277084e-05    1.021    0.021
       377  -9.0232    187.9755    133.9414   8.6001206451e+01   1.7508877459e+01    0.2354344     0.175631   1.97 0.0006221023    1.645    0.392
       378  -9.4218    163.6472    133.4324   9.1089776321e+01   2.2807543740e+01    0.2468211     0.176481 -20.10 0.0006289993    1.689    0.408
       379  -8.7410    156.0312    134.2722   9.3012431732e+01   2.4248514471e+01     0.188489    0.1303275  43.04 0.0003643106    1.430    0.301
       380  -9.4668    197.0565    148.3490   8.7476065825e+01   1.3030160871e+01    0.2587199    0.1880509 -15.55 0.0003663949    1.517    0.341
       381  -8.5850    150.2882    133.3393   9.4125781743e+01   2.5639786816e+01      0.15244    0.1190788  -4.09 0.0002994625    1.639    0.390
       382  -8.6329    120.2957    133.3092   1.0143971649e+02   3.1620673175e+01    0.1448756      0.11717 -11.72 0.0002861783    1.591    0.372
       383  -9.4712    225.8803    131.8756   7.8359924093e+01   9.9655054334e+00    0.2184993    0.1738077  -2.59 0.0005349587    1.284    0.221
       384 -10.0244    179.4759    129.9875   8.6825039043e+01   2.0073855591e+01     0.271366    0.2297415  16.88 0.0005514877    1.248    0.199
       385  -8.9100    114.4980    131.0068   1.0241853555e+02   3.3211676110e+01    0.1962751    0.1235498 -28.41 0.0005178606    2.237    0.553
       386 -10.6182    233.4629    126.8458   7.5909479264e+01   9.2536249596e+00    0.5017951    0.2313095 -22.59 0.0005519799    2.640    0.621
       387  -8.5722    131.2903    129.3561   9.7788254041e+01   3.0356407225e+01    0.1524864    0.1187308 -11.21 0.0004515584    1.683    0.406
       388  -9.9545    221.2458    126.6457   7.7948269328e+01   1.1760074045e+01    0.2751628    0.2146247   0.33  0.001431832    1.382    0.276
       389  -9.2387    192.7246    127.2070   8.3431614983e+01   1.7715772115e+01    0.2052822    0.1674264   3.12 0.0004945167    1.349    0.259
       390  -8.9996    186.4956    127.4524   8.4751756595e+01   1.9023908733e+01    0.1517759    0.1401651   4.46 7.002697e-05    1.065    0.061
       391  -9.0825    171.8348    127.3918   8.7835839358e+01   2.2230170738e+01    0.2137636    0.1384752  34.91 0.0003859411    1.645    0.392
       392  -8.3919    165.6634    126.7007   8.9027070714e+01   2.3707092647e+01    0.1563077    0.1190252   8.40 0.0007033916    1.658    0.397
       393 -11.5927    134.8631    124.6807   9.5801125954e+01   3.0643934217e+01    0.8555007    0.4019482 -61.97  0.002643718    3.759    0.734
       394  -9.9867    135.0000    120.0151   9.4634805260e+01   3.1614616179e+01    0.3364637    0.2071298 -52.06  0.001450127    1.688    0.407
       395 -11.2474    134.1692    113.4543   9.3197355413e+01   3.3186241565e+01    0.6966057    0.2449975 -37.78  0.002060332    3.422    0.708
       396 -10.1648    133.8617    107.3562   9.1687491793e+01   3.4542137561e+01    0.4413404    0.2297064 -45.52  0.001342155    1.896    0.473
       397  -8.6304    200.0244    125.0130   8.1466612650e+01   1.6527862447e+01    0.1771695     0.160683 -21.13 0.0003348384    1.055    0.052
       398  -9.6339    152.0676    124.4996   9.1600201610e+01   2.7083129180e+01    0.2428456    0.1983564 -40.93 0.0007204358    1.224    0.183
       399  -8.8676    170.0000    122.9592   8.7148229903e+01   2.3492674705e+01    0.2427299   0.08594809 -40.37 0.0004904848    2.812    0.644
       400  -9.9651    227.9613    123.2949   7.6001352144e+01   1.0927636792e+01    0.2651186    0.1920009 -22.65 0.0003757189    1.322    0.243
       401  -9.4360    160.7278    130.0001   9.0933033947e+01   2.4114522353e+01    0.2147482     0.193691 -34.71 0.0004446607    1.111    0.100
       402  -9.4646    179.8311    122.0304   8.4805269502e+01   2.1499932440e+01    0.2809307    0.2075696 -14.14 0.0008452722    1.592    0.372
       403  -9.6375    212.7474    120.6229   7.8022847088e+01   1.4550209211e+01    0.2394729    0.1814359 -20.99 0.0006334234    1.312    0.238
       404  -9.4109    188.0533    121.1343   8.2883680583e+01   1.9847057102e+01    0.2264733    0.1940193   6.82 0.0003211887    1.243    0.195
       405  -8.8123    152.3267    120.3011   9.0501052383e+01   2.7887490491e+01    0.1558217    0.1211507   5.46  0.000435946    1.639    0.390
       406  -9.7870    124.4952    124.4892   9.8370338734e+01   3.2757423863e+01    0.1473282    0.1453972 -46.68 5.739006e-05    1.018    0.018
       407  -8.9598    203.2044    119.4104   7.9490133527e+01   1.6821783499e+01    0.1868191    0.1452916  59.71 0.0003086807    1.470    0.320
       408  -9.0549    194.2091    118.8924   8.1096078001e+01   1.8892349635e+01     0.203972    0.1670284  -7.04 0.0003318568    1.317    0.241
       409  -9.0399    174.1691    117.7705   8.4940856633e+01   2.3569756117e+01    0.2131818    0.1784954   5.42 0.0006320447    1.339    0.253
       410  -9.7117    157.2116    118.1252   8.8814489831e+01   2.7264422895e+01    0.2308822    0.2054434  -1.16 0.0004728901    1.214    0.176
       411 -11.5429    233.5635    210.7465   9.3027517864e+01  -2.8947453764e+00    0.4403565    0.2881868  13.56  0.000756512    1.430    0.301
       412 -12.1901    219.5463    201.9056   9.3928328304e+01   4.9425689166e-01     0.983941    0.5762399   2.45  0.003120922    2.306    0.566
       413  -9.4695    147.5806    116.2268   9.0600224777e+01   2.9751240878e+01    0.2133506    0.1455825 -31.49  0.000613465    1.585    0.369
       414 -11.5947    229.4317    198.0083   9.1464800440e+01  -5.9342345468e-01    0.5197232    0.3568557 -23.57  0.001857724    1.437    0.304
       415  -8.8102    203.4611    114.0034   7.8099834310e+01   1.7708516393e+01    0.2235953    0.1418058 -31.51 0.0004884324    1.536    0.349
       416  -8.7159    181.4475    114.4673   8.2559843262e+01   2.2558871396e+01     0.153516    0.1437142  -0.48 0.0003312613    1.062    0.058
       417  -9.1481    129.4886    114.4810   9.4650824373e+01   3.3934345255e+01    0.1508862    0.1466571 -18.29 5.082846e-05    1.042    0.040
       418  -9.3819    185.8613    112.9820   8.1272547600e+01   2.1836658267e+01    0.2302734    0.1980041   0.24 0.0003429063    1.247    0.198
       419  -9.4367    194.5329    111.5074   7.9171379285e+01   2.0144430301e+01    0.2941484    0.1448111 -35.58 0.0006943613    1.977    0.494
       420 -11.5442    249.5607    183.2620   8.5232192796e+01  -1.8764686821e+00    0.4741733     0.299756  11.92  0.002200355    1.624    0.384
       421  -8.8019    176.5533    108.5088   8.2040821842e+01   2.4788545402e+01    0.1528564    0.1472247 -11.14 9.326696e-05    1.009    0.009
       422  -9.7771    123.6097    108.1610   9.4560366692e+01   3.6494320149e+01     0.218785    0.1387729 -35.05 0.0006597134    1.697    0.411
       423 -13.0486    223.3869    186.8063   9.0440007608e+01   1.9645635558e+00     1.406911    0.7174643 -23.88  0.006634986    2.185    0.542
       424  -9.1533    160.8399    106.1199   8.4850763865e+01   2.8840453469e+01    0.2116195     0.180312  -3.04 0.0003953481    1.313    0.238
       425  -9.4829    129.2660    106.4435   9.2627208104e+01   3.5700579126e+01     0.209348    0.1465238  57.56  0.000935404    1.619    0.382
       426  -9.1507    113.4429    105.5217   9.6611714876e+01   3.9081566494e+01     0.149331    0.1425063 -34.48 9.458742e-05    1.035    0.034
       427  -8.8675    205.4635    103.7240   7.5126135245e+01   1.9033831973e+01    0.2126184    0.1405712 -20.72 0.0009452602    1.658    0.397
       428  -8.6358    165.5022    104.5324   8.3377091085e+01   2.8082755599e+01    0.1538714    0.1494252  -4.39 0.0002954667    1.012    0.012
       429 -12.2890    216.1512    185.6865   9.1539889604e+01   3.3764532025e+00      1.44098    0.5055954 -25.17  0.004266778    5.601    0.821
       430 -11.4549    225.4829    171.1859   8.6981183763e+01   3.8864023064e+00     0.399533    0.2894014   4.70 0.0004480664    1.413    0.292
       431 -10.1732    119.6144    102.1059   9.4024400824e+01   3.8606206819e+01    0.3011214    0.1826363 -32.89  0.001122515    1.858    0.462
       432  -8.9950    130.2972    100.3177   9.0703302882e+01   3.6775531223e+01    0.1543877    0.1213201  -2.77 0.0003580023    1.612    0.380
       433  -8.3875    209.3150     99.2850   7.3299685756e+01   1.8912392102e+01    0.1487198    0.1132441  14.31 0.0003638702    1.582    0.368
       434  -8.6875    167.2873     98.3705   8.1305136541e+01   2.8844983584e+01    0.1610494    0.1215234   3.37 0.0007020715    1.710    0.415
       435  -8.7368     89.9784     97.9699   1.0138061269e+02   4.5005205779e+01    0.1737148    0.1613572 -47.37 0.0004114334    1.004    0.004
       436  -9.0369    203.1573     96.3110   7.3619165040e+01   2.0822698295e+01    0.2110122    0.1734887 -22.28 0.0003120918    1.210    0.173
       437 -11.8980    247.5699    224.3303   9.2990754261e+01  -6.5682808172e+00    0.4435942    0.2756577   1.30  0.000480467    1.553    0.356
       438  -8.3003    183.3689     94.3094   7.6828505355e+01   2.5804985285e+01    0.1625463    0.1182049  16.86 0.0007035878    1.763    0.433
       439  -8.6658    220.3038     93.2987   6.9917939928e+01   1.7416445140e+01    0.1451421    0.1110046  12.11 0.0003428017    1.586    0.370
       440  -8.5583    207.2560     93.3812   7.2126954611e+01   2.0369086248e+01    0.1520157    0.1135345   2.07 0.0004443327    1.665    0.400
       441 -12.5154    248.0048    214.4512   9.1232813537e+01  -5.5073426917e+00    0.5473253    0.3131584 -19.86  0.001900657    1.710    0.415
       442  -8.7937    164.5692     92.4773   8.0256647348e+01   3.0590156539e+01    0.1547109    0.1480784  -5.45 9.932788e-05    1.043    0.041
       443  -8.7209    188.3344     91.3269   7.5040643607e+01   2.5154215721e+01    0.1598139    0.1183435  14.37 0.0007051639    1.718    0.418
       444  -8.8612    127.9664     91.4596   8.8812732993e+01   3.9105298694e+01    0.2131442    0.1507713  43.18 -5.668386e-05    1.446    0.308
       445  -8.9599    203.5519     89.2413   7.1681394403e+01   2.1918069936e+01    0.2074378    0.1419942 -19.67 0.0005409935    1.606    0.377
       446  -9.0748    158.3899     88.7018   8.0555485224e+01   3.2754370165e+01     0.214574    0.1473741 -25.87 0.0005827994    1.578    0.366
       447  -8.3659    183.3071     88.3506   7.5197678285e+01   2.6873168264e+01    0.1597818    0.1194741  10.94 0.0006832373    1.709    0.415
       448 -10.9087    226.0222     86.9370   6.7406371223e+01   1.7143708375e+01    0.2246223    0.2024802 -24.54 0.0007254276    1.053    0.050
       449  -9.2558     10.5144     86.4777   1.2446375117e+02   5.6640921856e+01    0.1216906   0.09500701 -65.18 0.0002043359    1.005    0.005
       450 -11.7279    246.3389    191.4660   8.7341175492e+01  -2.4353817890e+00     0.451849    0.2992823 -33.51  0.002232831    1.594    0.373
       451 -10.3678    225.3030     80.9770   6.6000354645e+01   1.8225957263e+01    0.2237125    0.1943615   3.35 0.0007375498    1.269    0.212
       452 -10.9347    217.8310     83.3504   6.7756655274e+01   1.9558359596e+01     0.466634    0.2493995  34.39  0.001826244    2.574    0.612
       453  -9.0875    206.0272     83.0378   6.9599944329e+01   2.2354843707e+01    0.2271507        0.176   8.62 0.0004558471    1.582    0.368
       454  -8.7098    200.4911     82.4424   7.0388939260e+01   2.3763438962e+01     0.147914     0.142952 -16.67   0.00014046    1.026    0.026
       455  -8.9231    185.5368     81.5075   7.2851226635e+01   2.7515721940e+01    0.1511355    0.1467674 -16.72 7.367651e-05    1.016    0.016
       456  -9.5282    215.0770     79.0830   6.7075503091e+01   2.0864036218e+01     0.261702    0.1850095 -13.03 0.0008802804    1.645    0.392
       457  -8.7393    159.2821     80.3097   7.7894720125e+01   3.4085560367e+01    0.1547291    0.1207158  10.45 0.0002198756    1.566    0.361
       458  -8.3666    206.3270     77.3071   6.8010378383e+01   2.3202371017e+01    0.1511359    0.1138764  18.82  0.000355476    1.653    0.395
       459  -8.8401    150.5698     77.4527   7.9007341863e+01   3.6684688964e+01    0.1536731    0.1471167   1.16  6.76771e-05    1.043    0.041
       460  -8.9040    174.6183     76.1717   7.3445757590e+01   3.1084584713e+01    0.2122342    0.1458201 -21.02 0.0005345776    1.619    0.382
       461 -10.3410    223.3119     75.1727   6.4805620351e+01   1.9563118614e+01    0.2238176    0.1734473 -11.52 0.0005695978    1.437    0.304
       462  -9.0601    211.4730     75.0367   6.6571824984e+01   2.2339224581e+01    0.2268285    0.1388073 -31.90 0.0007098407    1.561    0.359
       463  -9.2914    206.4126     72.7377   6.6760434379e+01   2.3899667512e+01    0.2004059    0.1401439 -19.63 0.0006100858    1.557    0.358
       464  -8.7231    193.9984     75.9919   6.9752556399e+01   2.6377680912e+01    0.1849803    0.1658476 -33.16 0.0004262512    1.083    0.077
       465  -8.3987    140.2708     72.3194   7.9862564684e+01   4.0044088037e+01    0.1532509    0.1190934   6.42 0.0002321192    1.564    0.361
       466 -10.9000      1.6173     68.2569   1.2449416263e+02   6.1196521027e+01    0.4679025   0.08480511 -64.62  0.001418986    3.291    0.696
       467 -10.1936    223.4814     65.5275   6.2285356083e+01   2.0956815862e+01    0.3181916    0.1419233 -21.32 0.0008739992    2.893    0.654
       468  -9.0595    203.6154     70.2085   6.6522675285e+01   2.4964636596e+01    0.2014015    0.1394897 -19.83 0.0004201857    1.578    0.366
       469  -9.2612     92.5908     69.7667   9.2368161351e+01   5.0579426281e+01    0.2022798    0.1322995 -51.14 0.0009134967    1.591    0.371
       470  -9.8779    214.2742     68.9603   6.4520544542e+01   2.2606361102e+01    0.2085289    0.1787717 -32.85 0.0006622876    1.114    0.102
       471  -8.5775    163.3003     69.3357   7.3717501427e+01   3.5022682970e+01    0.1583896    0.1190089  14.97 0.0003108788    1.658    0.397
       472  -9.6115     10.4690     69.5175   1.2149021205e+02   6.0449162822e+01    0.1209595   0.09448375 -59.47 8.189405e-05    1.015    0.014
       473  -9.1964    170.7773     68.2575   7.1864261638e+01   3.3355754767e+01    0.2066428    0.1748085  17.04 0.0003936325    1.319    0.242
       474  -9.2710    218.2912     67.3610   6.3503000587e+01   2.1898624300e+01    0.1463928    0.1108672  13.33 0.0004597207    1.696    0.411
       475  -8.7752    212.3234     65.3265   6.3841551491e+01   2.3613771085e+01    0.1485024    0.1115249  20.10 0.0004732864    1.690    0.408
       476 -12.9147    219.7575    221.9009   9.7323174896e+01  -2.1560112643e+00      1.07524    0.7372637  55.21  0.005717891    2.172    0.540
       477  -9.2152     68.5940     63.7848   9.8452623293e+01   5.5763424835e+01    0.1943644    0.1233054 -54.88 0.0009295688    1.646    0.392
       478  -9.0041    208.4497     62.9222   6.3773835500e+01   2.4900491759e+01    0.2203781    0.1380271 -31.68 0.0007675763    1.539    0.350
       479  -8.7147    197.3236     63.2881   6.5622836930e+01   2.7558555703e+01    0.1495356    0.1130114  24.91  0.000307959    1.605    0.377
       480 -10.6709    217.1003     61.3160   6.2076433262e+01   2.3065330270e+01    0.2469897    0.1895741 -20.14 0.0006221645    1.373    0.272
       481  -9.1441    221.2980     59.3264   6.0969678607e+01   2.2359829058e+01    0.1410631    0.1093791  18.18 0.0007026338    1.632    0.387
       482  -8.8095    157.5385     59.5033   7.1864194078e+01   3.8059956126e+01    0.1513919     0.145409  17.25 0.0001379369    1.042    0.040
       483  -8.8730    164.7931     57.9662   6.9898564911e+01   3.6495258293e+01    0.2015773    0.1205735 -30.83 0.0005011753    1.687    0.407
       484  -9.5333    217.3481     56.8319   6.0852463041e+01   2.3647857561e+01    0.2029188    0.1318243 -19.06 0.0005320307    1.726    0.421
       485  -9.1098    147.1483     56.5923   7.3173055735e+01   4.1082414888e+01    0.2123075    0.1339168  42.62 0.0003965851    1.612    0.380
       486 -11.2227      2.4193     53.8234   1.2136257896e+02   6.4284967073e+01    0.3222983    0.2245005 -74.76  0.002121009    1.389    0.280
       487  -9.9310     78.7709     52.9946   9.1181499612e+01   5.6249869559e+01    0.2051583    0.1481304  10.35 0.0008119633    1.613    0.380
       488 -12.1953      8.8313     49.1787   1.1761747715e+02   6.4928628820e+01    0.4667369    0.2600231 -47.47  0.002095621    1.373    0.272
       489 -11.7547    221.4532     48.4373   5.8098154890e+01   2.3830469631e+01    0.3866918    0.3035403 -28.41  0.001596293    1.265    0.210
       490  -8.5449    201.2860     52.2988   6.1915340030e+01   2.8188380601e+01    0.1425055    0.1112947  23.60 0.0002780627    1.552    0.356
       491  -8.8955    163.2984     51.3302   6.8101195582e+01   3.7879491885e+01    0.1550478    0.1140024  21.61 0.0004321594    1.641    0.391
       492  -8.8592     75.3336     51.3181   9.1769232966e+01   5.7135770876e+01    0.1438012    0.1009245  -6.59 0.0006624752    1.695    0.410
       493  -9.4595    172.1055     49.9537   6.6018140466e+01   3.5855969987e+01    0.2121556    0.2061274  35.78            0    1.038    0.037
       494 -10.5280      1.9569     45.6895   1.1968969616e+02   6.6017856557e+01    0.3027439     0.136808 -52.18 0.0003783871    1.575    0.365
       495 -10.6385      4.7401     41.4436   1.1738469676e+02   6.6752242794e+01    0.2128884    0.1668574 -53.16 0.0002686934    1.089    0.082
       496 -10.2321     11.2603     35.7283   1.1274266175e+02   6.7517459937e+01    0.1912531    0.1301466 -50.77  0.001249961    1.177    0.150
       497 -10.3894     17.2758     40.4245   1.1146472443e+02   6.6172215002e+01    0.2620125    0.1596821  36.27  0.001167709    2.127    0.530
       498 -11.2554     10.3783     39.8859   1.1441152698e+02   6.6745069288e+01    0.3370852    0.1961375 -10.76 0.0005365847    2.010    0.503
       499 -12.0382    222.1591     37.5784   5.5180546244e+01   2.5077032587e+01    0.4605171    0.2910877 -16.27  0.002213709    1.876    0.467
       500  -8.5024    173.6918     33.7259   6.0701900100e+01   3.7642144012e+01     0.146146    0.1057317  34.07 0.0001976105    1.548    0.354
       501 -10.3831      5.3956     33.6155   1.1484643639e+02   6.8287591239e+01    0.2423131    0.1067204 -35.62 0.0008544186    1.992    0.498
       502  -9.2257     30.4880     31.4650   1.0229342751e+02   6.6749529701e+01    0.1244585   0.09712791 -28.06 0.0002436587    1.027    0.026
       503 -10.0253     23.4816     27.5479   1.0404733776e+02   6.8128290242e+01    0.2280169    0.1607367 -32.94 0.0005934921    1.120    0.107
       504 -10.6090    124.2181    246.9558   1.1807352337e+02   9.2178741850e+00    0.2059647    0.1861019 -56.40 0.0006378189    1.414    0.293
       505 -10.2989     12.7919     27.4933   1.0922932594e+02   6.8998445739e+01    0.2081145    0.1300559 -46.84 0.0004695827    1.258    0.205
       506 -11.2179      4.3459     27.7075   1.1348526728e+02   6.9495447613e+01    0.3432877    0.2303406   8.77   0.00124179    1.710    0.415
       507 -10.3125      4.1842     23.3175   1.1207002034e+02   7.0336605634e+01    0.2228146    0.1277222 -22.16 0.0008224183    1.693    0.409
       508 -12.2880    227.8419    218.1529   9.5288676167e+01  -2.9343634394e+00    0.5307232    0.3765593 -30.84  0.002859122    1.569    0.362
       509 -10.0987     29.3843     20.2126   9.8120855848e+01   6.8829101685e+01    0.2854243    0.2663732 -37.42  0.002075601    1.422    0.297
       510  -9.5756     16.4363    248.9997   1.3646100212e+02   2.2389514853e+01    0.1504789    0.1272306  44.89 0.0007791297    1.553    0.356
       511  -9.6498      8.3640    248.3197   1.3767265093e+02   2.3287521302e+01    0.1506073    0.1175721  81.71 0.0006971834    1.281    0.219
       512 -12.1785    191.5847    244.5506   1.0573386603e+02  -6.5989084893e-01    0.2719855    0.2121282  14.73 0.0003814489    1.206    0.171
       513  -8.9654    186.5438    245.5035   1.0675308662e+02  -1.5311490729e-02    0.1173062   0.09067341  29.21 0.0001519727    1.017    0.017
       514  -8.8075    108.3014    249.3129   1.2113676757e+02   1.1156951751e+01   0.09962393   0.08344389  17.32  0.000334701    1.610    0.379
       515  -9.9184     31.6037    247.3587   1.3399538211e+02   2.1094919926e+01    0.1668973    0.1553085 -63.78 0.0007783089    1.702    0.412
       516 -10.7370    242.8528    245.8380   9.7209376411e+01  -8.2025061875e+00      0.23559    0.1536386  -3.40 0.0007628562    1.445    0.308
       517 -11.3157    233.7566    244.5029   9.8502312659e+01  -6.8145637915e+00    0.2703289    0.1827219   0.45 0.0004827431    1.395    0.283
       518  -8.8264     34.3682     20.2796   9.5770900440e+01   6.8267803449e+01    0.1263817    0.0789732 -10.58 0.0007012069    1.687    0.407
       519  -8.9676     47.4901     18.5074   8.9005644814e+01   6.6871456792e+01     0.129348   0.09939957  -8.24 0.0008080837    1.114    0.102
       520  -9.7360     37.9023     15.6656   9.1954577342e+01   6.8570102154e+01    0.1627647     0.132575  -2.87 0.0003500739    1.097    0.089
       521 -11.6796    176.8264    243.8529   1.0825432555e+02   1.6787976686e+00    0.2507189    0.2070684   4.99 0.0004949585    1.312    0.238
       522 -10.5520    156.9841    245.9491   1.1207706593e+02   4.4366449810e+00    0.1958595    0.1703223 -30.12 0.0004618967    1.446    0.309
       523 -12.0253    245.5588    239.9608   9.5856954068e+01  -7.9672319597e+00    0.7175975    0.5783641  43.61   0.00519806    1.758    0.431
       524 -11.5146    235.5048    143.6151   7.9364480605e+01   6.2426166811e+00    0.7382772    0.4089924  -3.58  0.002819349    3.054    0.673
       525 -13.1426    190.1193    216.6946   1.0184506842e+02   3.2855783430e+00     1.534432    0.8263061 -33.00  0.006745916    2.169    0.539
       526 -12.3811    200.0368    198.9530   9.6992445812e+01   4.2038319086e+00     1.129582    0.5712807 -12.83  0.003952897    4.535    0.779
       527 -12.0359    216.3472    230.6202   9.9320799757e+01  -2.7076434727e+00    0.3597412     0.300301  -7.24 0.0006549893    1.239    0.193
       528 -12.0435    210.6577    213.8022   9.7597687161e+01   3.3018091246e-01     1.253819    0.3206091 -41.88  0.004493382    4.818    0.792
       529 -11.8481    235.9136    226.7571   9.5338728115e+01  -5.1650619153e+00    0.3515832    0.2737657  -1.56 0.0005486703    1.161    0.139
       530 -11.8971    238.3863    217.5915   9.3386154369e+01  -4.4591179652e+00    0.4121838    0.2655686 -19.16 0.0009092508    1.528    0.346
       531 -11.7285    212.6077    178.4578   9.0791244984e+01   5.0923143698e+00     1.189312    0.6374632  -6.73  0.003685992    3.613    0.723
       532  -9.3415     50.5541     13.3272   8.5181829371e+01   6.7170191218e+01    0.1651719    0.1029226 -19.55 0.0009274192    1.467    0.318
       533 -12.1867    202.1962    214.0011   9.9171858302e+01   1.6790509290e+00    0.6253341    0.4090461 -39.83  0.001987775    1.790    0.441
