#   1 NUMBER                 Running object number                                     
#   2 MAG_AUTO               Kron-like elliptical aperture magnitude                    [mag]
#   3 X_IMAGE                Object position along x                                    [pixel]
#   4 Y_IMAGE                Object position along y                                    [pixel]
#   5 X_WORLD                Barycenter position along world x axis                     [deg]
#   6 Y_WORLD                Barycenter position along world y axis                     [deg]
#   7 A_WORLD                Profile RMS along major axis (world units)                 [deg]
#   8 B_WORLD                Profile RMS along minor axis (world units)                 [deg]
#   9 THETA_WORLD            Position angle (CCW/world-x)                               [deg]
#  10 FWHM_WORLD             FWHM assuming a gaussian core                              [deg]
#  11 ELONGATION             A_IMAGE/B_IMAGE                                           
#  12 ELLIPTICITY            1 - B_IMAGE/A_IMAGE                                       
         1  -8.9953     25.3947     22.7988   1.0651230710e+02   6.7304569970e+01    0.4477426    0.1630653 -36.86  0.002113809    2.383    0.580
         2 -11.4650     80.2734     23.4522   8.6483816653e+01   5.9414733733e+01    0.5719439    0.2328144  37.00 0.0008387612    2.361    0.576
         3  -9.1059     45.9705     20.9821   9.7342488769e+01   6.5120859955e+01    0.3464797    0.1675214 -31.74  0.001509729    1.964    0.491
         4  -9.3357     79.3438     12.8371   8.2722551837e+01   6.0702169394e+01    0.3719732    0.1980318  48.07  0.001614309    1.674    0.403
         5  -9.5292     74.3222     13.3281   8.4417919278e+01   6.1554109632e+01    0.4255109    0.2341585  -0.61  0.001937119    2.300    0.565
         6  -8.8514    121.4393     14.8347   7.3025657153e+01   5.1959774905e+01    0.3300909    0.1569451  27.27  0.001346711    3.166    0.684
         7  -8.7448    125.0976     10.3965   7.0874108182e+01   5.1557915055e+01    0.2261653    0.1618505  34.24 0.0003513215    1.394    0.283
         8  -9.6586     64.3154     13.9922   8.7883239864e+01   6.3186369263e+01    0.3764888    0.1913799  23.45   0.00165967    2.143    0.533
         9  -9.1978    134.0331     13.5838   7.0174874462e+01   4.9250152998e+01    0.2299463    0.1901341  34.91 0.0002538172    1.226    0.184
        10  -8.5462     87.7627     13.3522   8.0534775078e+01   5.9078447643e+01    0.2651677    0.1415186  19.36 0.0008215467    2.346    0.574
        11  -9.2636    130.0717      9.9050   6.9777461831e+01   5.0486723918e+01    0.4162398    0.1995678 -14.03  0.001754784    2.853    0.649
        12  -8.2735     96.9718     12.0728   7.7656083045e+01   5.7390662416e+01    0.1963508     0.150509  34.15 0.0007310805    1.117    0.105
        13  -8.9461     31.6241     10.9576   9.8952002490e+01   6.8143594157e+01    0.2379882    0.1506739   9.21 0.0003736233    1.397    0.284
        14  -9.0844     31.6291      6.4298   9.6969556688e+01   6.8658685421e+01    0.2808846    0.1600031   3.59 0.0004820251    1.766    0.434
        15  -7.8605    144.3377      8.3011   6.6824253679e+01   4.7367352727e+01    0.2113622   0.07245472  47.48 0.0008445706    2.737    0.635
        16  -9.0421     70.5297      9.0030   8.3876059169e+01   6.2635895228e+01    0.2517634    0.1273569  35.07  0.001377678    1.725    0.420
        17  -8.9521     40.9597      6.1107   9.3027930020e+01   6.7495786680e+01    0.3228513    0.1870367   4.22  0.001261756    1.753    0.429
        18  -9.3403     46.5521      6.2523   9.0938899011e+01   6.6702895426e+01    0.2463157    0.1784258   8.71 0.0006121869    1.112    0.101
        19 -10.1500      7.0414      5.6386   1.0782751533e+02   7.1271301888e+01    0.5324476    0.2147399  11.23  0.002715388    3.194    0.687
        20  -9.1696    119.2459      6.8046   7.0872793456e+01   5.3162728911e+01    0.2196417     0.169292  41.59 0.0002111273    1.155    0.134
        21  -9.4521     76.3914      5.8331   8.0859122577e+01   6.1885409891e+01    0.3295661    0.2353738 -22.79  0.001266276    1.532    0.347
        22  -8.1617    100.9342      6.5397   7.4727694904e+01   5.7073708116e+01    0.1888772    0.1030306  55.01  0.001020853    1.564    0.361
        23  -9.3828     92.4551      5.3265   7.6338523235e+01   5.8883388120e+01    0.4311736    0.1631129  49.74  0.002057534    2.082    0.520
        24  -9.7670     84.8308      5.3621   7.8324475016e+01   6.0359208455e+01    0.2454243    0.1971291   1.97  0.001680134    1.252    0.201
        25  -7.7705    179.4889      4.9984   6.1051572110e+01   3.9435807861e+01    0.1769807   0.08259489 -55.14 0.0008097307    2.481    0.597
        26  -9.5095    110.7143      3.4558   7.1504948797e+01   5.5279959410e+01    0.3202973    0.2088213 -38.98  0.001275191    1.875    0.467
        27  -8.7061    105.4669      1.8791   7.2083801478e+01   5.6511100040e+01    0.3161385    0.1503882  46.01  0.001532314    1.714    0.417
        28  -8.5002    134.1601      3.1816   6.7003808731e+01   5.0137227506e+01    0.1855357     0.141484  49.91  0.000342046    1.151    0.131
        29  -8.4382     56.9643      2.7673   8.5710276581e+01   6.5461812190e+01    0.2615278    0.1631291  42.86  0.001679025    1.487    0.328
        30  -8.2191    155.9984      7.0345   6.4674925174e+01   4.4765319310e+01    0.1981189    0.1281523  43.77 0.0004186972    1.596    0.374
        31  -8.1363    143.1857      2.1722   6.5242637032e+01   4.8160155971e+01    0.1820752    0.1406838  51.74 0.0003195797    1.165    0.142
        32  -8.0319      2.6604      1.5939   1.0821315320e+02   7.2132409896e+01    0.1630643   0.08708964 -12.79 0.0004353368    1.647    0.393
        33  -7.8293    133.9089    106.0613   9.7614719911e+01   3.4838883866e+01    0.2449254    0.1942852   2.02 0.0008197525    1.661    0.398
        34 -10.8114    199.3055    249.4509   1.1263733195e+02  -7.2687168540e+00     0.631059    0.2115178  42.95  0.002581221    2.757    0.637
        35  -8.5719    246.5233    102.0361   7.4559299816e+01   1.0173717467e+01    0.2091171    0.0976152 -57.31  0.000809978    2.564    0.610
        36  -9.2650      7.4779     96.9936   1.3359151968e+02   5.4891201496e+01    0.3825578    0.1482552 -36.00  0.001730124    2.921    0.658
        37 -10.3565     15.8031     94.8270   1.3056810165e+02   5.4816744646e+01     0.498968    0.2915792 -35.37   0.00185037    1.693    0.409
        38  -8.8384     12.4626     93.5058   1.3138771312e+02   5.5331560326e+01    0.3647767    0.1392128 -52.89  0.001642187    1.920    0.479
        39  -7.6570    129.8363     97.3801   9.6309617368e+01   3.7538013052e+01    0.2232008    0.1407466  35.88 0.0009461133    1.739    0.425
        40  -9.0263     42.7647     92.5116   1.2128387747e+02   5.2962757247e+01    0.3684451    0.2130556 -38.19  0.001904375    1.636    0.389
        41  -8.5242     96.0992     90.8738   1.0389213311e+02   4.5641482080e+01    0.4973474    0.3062311  -5.91  0.001831653    3.172    0.685
        42  -7.5303     56.4916     91.5210   1.1653022088e+02   5.1593774440e+01    0.1342055    0.1180434 -38.62 4.855992e-05    1.009    0.009
        43  -7.5297    110.2561     90.5821   9.9703492061e+01   4.3006252558e+01     0.209391     0.139182  31.66 0.0009480664    1.649    0.394
        44 -10.1826     37.3172     81.1014   1.2034274903e+02   5.5933464830e+01    0.6406268    0.3417018 -13.32  0.002855401    2.911    0.656
        45  -7.9430    126.1369     84.2341   9.3559160729e+01   4.0946169504e+01     0.338267    0.2156297  13.34  0.001282999    2.736    0.634
        46  -7.8090     65.8702     84.7013   1.1164090452e+02   5.1783127801e+01     0.233622    0.1319892 -18.87 0.0006693078    2.755    0.637
        47  -8.8309     88.5170     78.7816   1.0268199700e+02   4.9403627839e+01    0.4380351    0.2407219  23.03  0.001799763    2.484    0.597
        48  -9.7796      8.5074     77.4869   1.2951702119e+02   5.8962050629e+01    0.4171024     0.219012 -28.41  0.002081777    1.994    0.498
        49  -7.8540    184.0094     77.9926   7.8994301920e+01   2.8527055083e+01    0.2250003    0.2115505 -87.52 0.0005945425    1.010    0.010
        50  -8.9381     49.2421     77.3055   1.1521057942e+02   5.5422349968e+01    0.4398834    0.2320745   8.44  0.001911405    2.917    0.657
        51  -9.6220    234.7506     73.9888   7.0073666614e+01   1.7420511714e+01    0.2535205    0.2347635 -73.97 0.0003866447    1.118    0.106
        52  -8.0059     74.8620     74.4076   1.0571171121e+02   5.2497536611e+01    0.2182041    0.1707817 -16.62  0.000729759    1.292    0.226
        53  -9.8867     23.6235     74.1367   1.2342186980e+02   5.8582240246e+01    0.8111252    0.2948955 -28.67  0.002772264    4.939    0.798
        54  -9.2476     24.0088     69.7150   1.2217147325e+02   5.9433736084e+01    0.5168681    0.2091591  24.42  0.002456877    2.778    0.640
        55  -8.2804    238.9699     70.2786   6.8718794290e+01   1.7103693807e+01    0.1895758     0.164127  88.77 0.0005971505    1.125    0.111
        56  -7.4683    120.8569     67.8829   9.0076610424e+01   4.5048046744e+01     0.183745    0.1662826 -70.99            0    1.283    0.220
        57  -8.2663    105.9956     67.0235   9.3865258338e+01   4.8283589939e+01    0.2315396    0.1668545  12.15   0.00081623    1.704    0.413
        58  -8.6990     83.3873     64.7563   9.9954613382e+01   5.2875779770e+01    0.4864907    0.2950535   0.60  0.002038588    2.713    0.631
        59  -8.8620     16.6431     63.6905   1.2334251048e+02   6.1175685223e+01    0.2563064    0.1288083 -30.27  0.000938473    1.936    0.484
        60  -9.3309     19.4900     61.4813   1.2168533093e+02   6.1386755989e+01    0.3163444    0.1482957  13.15  0.001645101    2.567    0.610
        61  -8.4890     58.1572     62.3667   1.0766716154e+02   5.7156932971e+01    0.2529074    0.1786365  38.95  0.000903497    1.608    0.378
        62  -9.4603     62.8139     61.2952   1.0569538550e+02   5.6705662727e+01    0.5319267    0.2498118  22.07  0.001951295    2.878    0.653
        63  -9.7346     36.9726     59.4517   1.1449044092e+02   6.0199437594e+01    0.4705409    0.1839849 -30.80  0.001878483    3.264    0.694
        64  -7.7916     24.6573     62.3060   1.1995669826e+02   6.0815430378e+01    0.1717829   0.08949212 -44.49 0.0006331148    1.533    0.348
        65  -9.5347     27.5638     60.0433   1.1821982269e+02   6.0990754580e+01     0.216882    0.1706401  23.19  0.001359019    1.459    0.315
        66  -8.8261     97.3763     58.3068   9.3572762358e+01   5.1428884311e+01    0.5849648    0.3255435  -5.77  0.002031631    3.944    0.746
        67  -7.7905    110.8122     58.7816   8.9916524042e+01   4.8674165206e+01    0.2434938    0.1464705  12.74 0.0009543839    2.830    0.647
        68  -7.6558     49.5311     58.4804   1.0953237606e+02   5.8960546343e+01    0.1258774    0.1064125 -19.94   0.00080947    1.019    0.018
        69 -10.0621     74.9363     50.4322   9.7949963001e+01   5.6674095012e+01    0.4243886    0.2778646  -9.21 0.0003758726    1.790    0.441
        70  -8.2538    118.4968     51.1930   8.5469093389e+01   4.8212337995e+01     0.241105     0.176672  48.95 0.0002828829    1.284    0.221
        71  -9.1348     45.2935     49.0392   1.0801913959e+02   6.1101238026e+01    0.3736688    0.2108042 -10.90   0.00131751    2.305    0.566
        72  -8.6253    106.7316     48.6845   8.7751251223e+01   5.1056039062e+01    0.3371444    0.2094346  11.11  0.001487337    2.385    0.581
        73  -9.5765     12.7167     45.8133   1.1989583975e+02   6.4747921318e+01    0.5800411     0.245897 -24.68  0.002604456    2.740    0.635
        74  -9.2623     56.3147     43.3292   1.0193815448e+02   6.0595375250e+01    0.5574911    0.2725764 -12.75  0.002045176    4.195    0.762
        75  -8.4415     91.8819     44.6091   9.0605555905e+01   5.4563154317e+01    0.4158624    0.1423191 -29.24  0.001481902    3.603    0.722
        76  -8.5735     92.5301     37.3066   8.7873222655e+01   5.5443017630e+01    0.3054668    0.2458152  -3.38  0.001015224    1.240    0.194
        77 -10.7290     83.0786     40.2966   9.1778945552e+01   5.6784493454e+01    0.3781554    0.2462589  -9.43 0.0002902749    1.765    0.433
        78  -8.7609     87.6751     38.0149   8.9559628814e+01   5.6261445671e+01    0.2917253    0.2029551  -0.64 0.0007191143    1.609    0.379
        79  -8.3286      1.9954     45.0101   1.2407105092e+02   6.5570358013e+01    0.1911536   0.09265791 -32.89  0.001137068    1.708    0.415
        80  -8.0830    124.0447     39.9479   8.0526084826e+01   4.8555864021e+01    0.2231116    0.1506634  24.06 0.0006371851    1.755    0.430
        81  -9.4354      6.4587     33.5935   1.1871099061e+02   6.7246030470e+01    0.3168858     0.206363  -8.96  0.001664935    1.420    0.296
        82  -9.0891      1.7470     29.8608   1.1956667385e+02   6.8151753129e+01    0.3144935    0.1680428 -58.39  0.001873221    2.263    0.558
        83  -9.7299     70.5101     35.4811   9.4104291869e+01   5.9590814220e+01    0.5179737    0.2138012  27.93  0.002043274    3.272    0.694
        84  -9.0448     38.7427     35.4204   1.0577422014e+02   6.4031557201e+01    0.2352632    0.1644287   5.68 0.0008581117    1.337    0.252
        85  -8.6431     35.6965     37.6831   1.0781240405e+02   6.4027897491e+01    0.2154806    0.1418574 -31.02 0.0006570393    1.295    0.228
        86  -7.3027    106.5091     36.4936   8.3731956816e+01   5.2765641938e+01    0.1340389    0.1166743  28.38  0.000392519    1.035    0.034
        87  -8.6986     56.1607     35.5162   9.9149975036e+01   6.1774961109e+01       0.2326    0.1589358  -4.48 0.0004169906    1.453    0.312
        88  -9.8331     21.7031     34.2450   1.1236236616e+02   6.5955894072e+01    0.4351999    0.3248885 -34.87  0.003105426    1.222    0.182
        89  -7.3713     92.2746     31.3551   8.5840317674e+01   5.6247897825e+01     0.132589   0.08929843  14.36 0.0004164503    1.646    0.392
        90  -9.2237     61.6774     27.0702   9.3961640346e+01   6.2093939218e+01    0.2519475    0.1516035  11.04 0.0007872735    1.870    0.465
        91  -9.5867     69.5704     26.0805   9.0884874348e+01   6.0956136688e+01    0.2288126     0.198849  70.92   0.00147162    1.804    0.446
        92  -8.9552    217.0529    249.5045   1.0927606593e+02  -1.0041338623e+01    0.1916793    0.1050921  35.56  0.001035535    1.598    0.374
        93  -8.6873     28.8093     21.1640   1.0439855248e+02   6.7172328169e+01     0.275445    0.1523155 -35.20  0.001509366    1.641    0.391
        94  -8.4981    228.3176     25.5461   6.0377487674e+01   2.5878417370e+01    0.2231133    0.2133243  -4.54  0.001038647    1.513    0.339
        95  -7.8276    110.5848     26.2592   7.9240458423e+01   5.3133781980e+01     0.172535    0.1206646  -4.16 0.0009432026    1.678    0.404
        96  -9.2006     15.4488    104.6900   1.3247332174e+02   5.2668017505e+01    0.3910895    0.1727915 -28.40  0.001684832    3.343    0.701
        97  -7.3798    102.5280     25.4450   8.0972975248e+01   5.4902435625e+01    0.1292041    0.1103791  32.84 0.0001400738    1.012    0.012
        98  -8.6132    144.8419     23.3350   7.1118598538e+01   4.5763956052e+01    0.2048894    0.1866485   8.01 0.0003249251    1.263    0.208
        99  -9.5291     41.7764     27.1233   1.0142665590e+02   6.4859990206e+01    0.3184788    0.1704244 -44.37  0.001142257    2.227    0.551
       100  -9.1298    165.7372    249.1524   1.1914253437e+02  -1.6959169705e+00    0.2598105    0.1596969  18.65  0.001260222    2.181    0.541
       101  -7.7503    128.9684     22.5084   7.3920743733e+01   4.9507148017e+01    0.2045456    0.1117522  55.59 0.0006638498    1.565    0.361
       102  -8.6906     92.4264     21.0761   8.2099134732e+01   5.7395523653e+01    0.2680028    0.1574493  28.96  0.001126502    1.716    0.417
       103  -8.2390    140.3476     20.0647   7.0969075309e+01   4.7156811881e+01    0.2099434    0.1529679  53.20 0.0003169102    1.195    0.163
       104  -8.3309      9.4614     19.6765   1.1241852926e+02   6.9175296941e+01    0.2251969    0.1360056   1.87   0.00103657    1.552    0.356
       105  -8.0025      5.2118     19.1398   1.1418852266e+02   6.9571231694e+01    0.1508478     0.121834 -27.34  0.000354585    1.268    0.211
       106  -7.1184    111.6727     19.2753   7.6626445528e+01   5.3645703964e+01    0.1188574   0.09790027 -86.86 0.0002700525    1.588    0.370
       107  -8.5422    127.6174     16.8828   7.2425558408e+01   5.0385315805e+01    0.2108943    0.1492007  49.40 0.0003250469    1.217    0.178
       108  -9.0717    156.4263    248.2668   1.2085711916e+02   2.4895643694e-02    0.2358245    0.1407195  55.08  0.001197063    1.780    0.438
       109  -8.6641     67.5614    104.6482   1.1626190929e+02   4.7246994669e+01    0.3385394    0.1821117  13.68  0.001320324    3.098    0.677
       110  -8.0157    231.6718    246.6871   1.0609643612e+02  -1.1821696953e+01    0.1264367   0.08106547   5.01 0.0007042969    1.669    0.401
       111  -8.1392    108.9330    246.4639   1.3002904953e+02   8.2874533090e+00    0.1922858    0.1080403  44.73 0.0005736725    1.515    0.340
       112 -11.9702    247.1636    237.3890   1.0169653606e+02  -1.2757276101e+01    0.2514913    0.2211127  -6.94 0.0001246577    1.210    0.174
       113  -7.3030    147.4794     14.4746   6.8086572516e+01   4.6058545182e+01    0.1298955    0.1112814  66.29 0.0001428325    1.018    0.017
       114  -9.5880    188.3475    234.2671   1.1231428529e+02  -3.0603533172e+00    0.2395482    0.2071665 -67.04  0.001453917    1.521    0.343
       115  -8.5149    105.4653     14.5223   7.6453033021e+01   5.5421876000e+01    0.1737792    0.1165437   0.88 0.0009749897    1.752    0.429
       116  -8.4982     12.9707    235.0702   1.4681843092e+02   2.3635275140e+01     0.168905     0.121917  79.14 0.0004083019    1.019    0.019
       117 -10.1198    159.8612    215.7555   1.1507731697e+02   5.3614969909e+00    0.2458633    0.2307795 -43.64 0.0004498497    1.162    0.139
       118  -7.4646     33.5582    213.5289   1.4145143330e+02   2.5860354148e+01    0.1238301   0.09471899  81.78 0.0003631503    1.013    0.013
       119  -8.3919     11.6001    207.1700   1.4515731745e+02   2.9596549873e+01    0.1642807   0.08463192 -67.94 0.0006100594    1.703    0.413
       120  -8.0578    160.9861    200.7067   1.1218747902e+02   8.1645261930e+00    0.2131351    0.1687595  45.96 0.0005671736    1.199    0.166
       121  -7.5153    141.6927     10.3060   6.7844757819e+01   4.7797001068e+01     0.195602   0.09613898  55.25 0.0009612204    1.674    0.403
       122  -7.8482    177.5302    166.0144   1.0162726891e+02   1.2155776949e+01    0.2327029    0.1491472 -46.19 0.0005463238    1.561    0.359
       123  -7.7977    250.6636    159.2437   8.6052289381e+01  -8.2863067404e-01    0.1899495     0.112343 -32.25  0.000298175    1.587    0.370
       124  -7.7976    151.7062    157.6648   1.0570059946e+02   1.9428673826e+01    0.1563002    0.1254002  -9.45   0.00048879    1.642    0.391
       125  -7.5994    205.6678    152.3329   9.2739046991e+01   9.1133578581e+00    0.1527192    0.1187629 -80.64 0.0004185696    1.728    0.421
       126  -9.7572    220.5307    147.9627   8.8927383465e+01   6.9329590070e+00    0.2674828     0.246697 -27.55 0.0003204303    1.053    0.050
       127  -9.2664     67.2629    144.8013   1.2477267771e+02   3.7794591749e+01    0.4579067    0.3015518  67.29  0.002183058    1.876    0.467
       128  -7.1175     55.3338    135.3182   1.2632050875e+02   4.1658076248e+01    0.1408644   0.09741195 -34.75 0.0007048429    1.695    0.410
       129  -8.7049    238.9912    129.9207   8.1755161704e+01   6.6576908737e+00    0.2107102    0.1890964 -35.58 0.0003012368    1.075    0.069
       130  -8.1933     22.9974    129.5151   1.3429375834e+02   4.6396975027e+01    0.1656506   0.09669417 -24.11 0.0008101094    2.538    0.606
       131  -7.1814    144.3132    126.6653   1.0028715862e+02   2.8054438930e+01    0.1633029    0.1252491 -87.42 0.0007045742    1.685    0.407
       132  -7.6114    132.6885    124.6417   1.0271080529e+02   3.1016070434e+01    0.1615102    0.1259149  -9.01 8.206191e-05    1.740    0.425
       133  -7.4509    119.5325    118.5466   1.0464258704e+02   3.5122484668e+01     0.152929    0.1483434 -71.03 0.0003298813    1.027    0.026
       134  -7.8187    142.7585    111.8232   9.6906219627e+01   3.1655601026e+01    0.2629647     0.177344   2.97 0.0009519338    2.792    0.642
       135  -7.9355     22.6695    112.6789   1.3168810570e+02   5.0316822996e+01    0.1323863   0.07772599 -40.34  0.000325654    1.694    0.410
       136  -8.8016      2.1329    109.8505   1.3723536883e+02   5.2376036730e+01     0.323129   0.09360171 -47.72  0.001394943    2.870    0.652
       137  -8.2463    123.5290    107.4554   1.0070113070e+02   3.6758070496e+01    0.3491574    0.2397561   2.17  0.001370408    2.468    0.595
       138  -8.0479    108.7949    106.9958   1.0461696666e+02   3.9825019407e+01     0.253385    0.1734717 -19.35   0.00107782    2.009    0.502
