#   1 NUMBER                 Running object number                                     
#   2 MAG_AUTO               Kron-like elliptical aperture magnitude                    [mag]
#   3 X_IMAGE                Object position along x                                    [pixel]
#   4 Y_IMAGE                Object position along y                                    [pixel]
#   5 X_WORLD                Barycenter position along world x axis                     [deg]
#   6 Y_WORLD                Barycenter position along world y axis                     [deg]
#   7 A_WORLD                Profile RMS along major axis (world units)                 [deg]
#   8 B_WORLD                Profile RMS along minor axis (world units)                 [deg]
#   9 THETA_WORLD            Position angle (CCW/world-x)                               [deg]
#  10 FWHM_WORLD             FWHM assuming a gaussian core                              [deg]
#  11 ELONGATION             A_IMAGE/B_IMAGE                                           
#  12 ELLIPTICITY            1 - B_IMAGE/A_IMAGE                                       
         1 -12.3538      2.4706     40.8929   1.4031714118e+02   6.7784264185e+01     1.237394    0.1662174 -71.25  0.003503416    5.667    0.824
         2 -13.6421      4.5026     11.8489   1.3059796369e+02   7.4227877654e+01     1.999462    0.8138861 -55.55   0.01005141    1.828    0.453
         3 -13.9085    201.5990      9.5218   6.7243457023e+01   3.3329138095e+01     1.741279     1.131445  38.16  0.008849058    1.740    0.425
         4 -13.4684    189.1650     27.2265   7.4016715014e+01   3.4644304470e+01     1.221109     1.185508  53.81  0.005781158    1.072    0.067
         5 -10.7050     46.5106    248.2173   1.4700333356e+02   2.1200658890e+01    0.2544708    0.1393776  62.67 0.0009134489    1.604    0.376
         6 -10.9062    248.5058    249.4327   1.1342424906e+02  -2.6435139106e+00    0.2483008    0.1548823  20.93  0.001993575    1.128    0.114
         7 -11.3131    139.4025    248.8139   1.3099006257e+02   1.0674890149e+01    0.2849507    0.2121169 -37.57  0.002262902    1.773    0.436
         8 -10.5627     98.5913    249.0977   1.3810024779e+02   1.5530283361e+01    0.2041646    0.1351571  41.54  0.001568738    1.113    0.101
         9 -10.2808     66.5850    243.0336   1.4327390906e+02   1.9918397314e+01    0.1966767     0.139692  62.46 0.0006617627    1.275    0.216
        10 -10.5107     67.2804    249.9479   1.4356383235e+02   1.8859488486e+01    0.2270192    0.1819705 -84.09  0.001318716    1.495    0.331
        11  -9.0714     63.0933    250.5508   1.4431204211e+02   1.9209642876e+01    0.1482124   0.07120987  37.39 0.0004431918    1.543    0.352
        12 -10.2167     37.5005    249.5223   1.4856991102e+02   2.1869041956e+01    0.2591945     0.172208  39.22  0.001644982    1.244    0.196
        13 -11.2141     29.3903    249.4072   1.4990725439e+02   2.2628234531e+01    0.2940915    0.2415588  52.66  0.001309368    1.205    0.170
        14  -9.7361     33.5007    247.9945   1.4917402685e+02   2.2459980120e+01    0.1868772    0.1590799 -15.95  0.001539783    1.961    0.490
        15 -11.6964     35.9695    244.0117   1.4859960210e+02   2.2816194369e+01    0.4031599    0.1878759  27.84  0.002633287    2.163    0.538
        16 -14.5220     54.1449    210.2227   1.4348876903e+02   2.6403448886e+01      8.86052    0.9820247  46.04   0.03126517    5.142    0.806
        17  -9.3711     76.0379    244.4740   1.4170940302e+02   1.8697818823e+01    0.1536627     0.076237  36.14 0.0005460961    1.546    0.353
        18 -10.4784     94.9591    241.6032   1.3815846282e+02   1.6974872557e+01    0.2057382    0.1508616 -72.96  0.001247366    1.744    0.427
        19 -10.7220     19.2928    241.9765   1.5132498553e+02   2.4610936197e+01    0.2033665   0.09091242  58.01  0.001442201    1.689    0.408
        20 -14.5434      3.3488    234.1574   1.5376288170e+02   2.7114576647e+01     4.657436    0.7116848 -75.67   0.02115365    5.752    0.826
        21 -10.5505    183.8944    238.5556   1.2221644936e+02   6.2118129170e+00    0.2322838    0.1268088  37.73  0.001200289    1.499    0.333
        22  -9.6287     34.7667    229.7184   1.4819005244e+02   2.5112531789e+01    0.2121549    0.1074178  54.95 0.0008876149    1.530    0.346
        23 -12.6379     43.8762    234.3187   1.4679143954e+02   2.3528138561e+01      0.25984    0.2327626  46.48 0.0007426388    1.283    0.221
        24  -9.4551    177.0806    227.0182   1.2191879578e+02   8.4156059759e+00    0.1599326    0.1288271  36.01 0.0006110605    1.286    0.223
        25 -10.7534    173.2175    221.7647   1.2191112881e+02   9.5712100023e+00    0.3152705    0.2617131  58.66  0.002279477    1.748    0.428
        26  -9.0554    227.2553    226.2527   1.1342017386e+02   1.9153610079e+00    0.1373971   0.08182696 -38.43 0.0008872314    2.436    0.590
        27  -9.6475     27.8180    221.9217   1.4909623121e+02   2.7001920735e+01    0.1616189    0.1122317  45.77  0.000424874    1.156    0.135
        28  -8.9695    152.3562    212.9601   1.2457481229e+02   1.3608138797e+01    0.1473291    0.1280876  18.61 0.0004056568    1.113    0.101
        29 -12.2603     27.5446    203.7897   1.4831795586e+02   3.0108323233e+01     0.428656    0.1674344  42.28  0.001093156    1.919    0.479
        30  -9.9892    192.9181    194.8203   1.1440211505e+02   1.0137983298e+01    0.5198178     0.289081 -58.38  0.001895585    6.519    0.847
        31 -11.6344     73.4620    191.4401   1.3803645127e+02   2.7571210176e+01    0.2247187    0.2121586 -54.63 0.0006507544    1.289    0.224
        32 -11.4330     68.2201    199.3331   1.3983888771e+02   2.6762268640e+01    0.2895979    0.2139753 -38.09  0.001211715    1.906    0.475
        33  -8.3919    105.4822    181.4423   1.2998329640e+02   2.5256883939e+01    0.1227099    0.1046381  48.38 0.0001140221    1.064    0.061
        34 -10.9290     82.4596    178.6899   1.3475433135e+02   2.8840064254e+01    0.2142004    0.2020856  77.02 0.0005492431    1.109    0.098
        35 -13.2082     69.8784    176.5595   1.3735857237e+02   3.0796097742e+01    0.4385228    0.2596076 -42.28  0.001702949    2.305    0.566
        36  -8.3813    172.4736    174.4451   1.1482841486e+02   1.6136300392e+01    0.1265466    0.1084463  21.58 0.0002164211    1.050    0.047
        37 -11.9385     88.9565    168.9808   1.3210544139e+02   2.9861263976e+01    0.7343253    0.5529056  52.73  0.004559849    1.242    0.195
        38 -10.1381    193.9488    157.6982   1.0756456281e+02   1.5027193982e+01    0.3173167    0.2476849 -65.76  0.001252466    2.301    0.565
        39  -9.8883    100.9567    152.8290   1.2694283992e+02   3.1375131940e+01    0.2708814    0.2319303 -56.55  0.000899641    1.232    0.188
        40  -9.1555    103.5024    148.5255   1.2562169584e+02   3.1862777435e+01    0.2460639    0.1666749 -25.91  0.001223287    2.056    0.514
        41 -12.5150     66.9478    143.9556   1.3424819546e+02   3.7870911680e+01    0.8329358    0.5114464  70.00  0.004268528    1.935    0.483
        42 -11.8306     58.0646    132.8089   1.3512633736e+02   4.1396518114e+01    0.6572396    0.2992844 -86.05  0.002513665    3.414    0.707
        43  -9.4326    235.6767    151.3193   9.9047584678e+01   8.9481207930e+00    0.1090625    0.0981897 -43.92 0.0003451912    1.673    0.402
        44 -13.9054     49.9135    225.2484   1.4522001120e+02   2.4354586784e+01    0.8720399    0.5952296  63.58  0.005132261    1.262    0.207
        45 -12.0259     29.6397    139.5569   1.4358310665e+02   4.2751061169e+01    0.3563855    0.2618947  73.07  0.002298418    1.231    0.187
        46  -9.6768    111.1609    137.6930   1.2179373873e+02   3.2866008235e+01    0.3458557    0.2273328 -18.31  0.001563825    2.370    0.578
        47 -10.7757     98.8786    135.2878   1.2450162573e+02   3.5316453790e+01    0.3105881    0.2299854 -46.03 0.0006273212    1.408    0.290
        48  -9.3982    168.6921    132.5670   1.0731950394e+02   2.3511727210e+01    0.2359461     0.200609  74.18  0.001163553    1.650    0.394
        49  -8.5019    191.9824    144.0191   1.0514198793e+02   1.7381436033e+01    0.1600969    0.1368042  -3.86 0.0004169712    1.061    0.058
        50 -10.7086    238.8388    247.8607   1.1464922509e+02  -1.4187616773e+00    0.1653933   0.09765574  13.37  0.001114714    1.266    0.210
        51 -10.4358    174.4159    137.8548   1.0729199810e+02   2.1559134867e+01    0.3974542    0.2952417  81.11  0.001843378    2.614    0.617
        52  -9.1529    108.0887    124.2098   1.1992340938e+02   3.6178841591e+01    0.1911829      0.17765   3.58 0.0002928919    1.138    0.121
        53 -11.9250     89.8186    152.1610   1.2958103335e+02   3.3118520890e+01     0.255635    0.2337395 -17.43 0.0005418095    1.278    0.218
        54 -15.0661     19.0694    170.8064   1.4836302730e+02   3.7047974715e+01     6.796295     1.823606  86.59   0.02239818    6.131    0.837
        55  -9.3329    154.8607    120.2791   1.0750896938e+02   2.8331879407e+01    0.3679575    0.2321204  79.68  0.001144502    5.043    0.802
        56 -10.5002    168.0569    113.3027   1.0292239703e+02   2.6923029175e+01    0.3432284    0.2958922 -70.80   0.00112275    1.563    0.360
        57  -8.8634    203.1923    111.6256   9.5679825920e+01   2.0095614064e+01    0.1939163    0.1192098  34.47 0.0004858276    1.658    0.397
        58  -9.5038     42.4161    108.7803   1.3630369432e+02   4.8649749227e+01    0.1927401    0.1028919 -58.09 0.0009554435    1.686    0.407
        59  -8.7053    126.0769     99.3751   1.0926122797e+02   3.8039329695e+01    0.2095449    0.1360558  55.77 0.0009256834    1.820    0.450
        60 -13.5387     10.1013    206.7251   1.5177560661e+02   3.1074127606e+01    0.9012111    0.6583927  64.38  0.003455194    1.045    0.043
        61  -9.5406    155.4854     75.4822   9.5213318589e+01   3.6148658071e+01    0.1529009    0.1407277   0.70 0.0008098372    1.045    0.043
        62 -12.0042      2.8757     62.3980   1.4380886187e+02   6.2666617646e+01    0.5058584    0.2559502 -72.10  0.002707025    1.561    0.359
        63  -9.8459     19.2946     67.1989   1.3771692491e+02   6.0602000668e+01    0.2685686     0.180908  40.30   0.00119581    1.709    0.415
        64 -11.2437     17.8668     56.8567   1.3627675807e+02   6.3175781788e+01    0.5292681    0.1873567  34.48  0.002220357    3.127    0.680
        65 -10.3665     83.5259    244.3477   1.4038633899e+02   1.7890538620e+01    0.3166128     0.131121  55.65  0.001781511    2.562    0.610
        66 -10.9982    197.3024    242.7463   1.2051115305e+02   4.0663147987e+00     0.318017    0.2328189 -61.36  0.002058058    3.353    0.702
        67 -10.3551     81.5447    248.7398   1.4103334915e+02   1.7497342910e+01    0.2166979    0.1197956  51.89 0.0009372901    1.509    0.337
