#   1 NUMBER                 Running object number                                     
#   2 MAG_AUTO               Kron-like elliptical aperture magnitude                    [mag]
#   3 X_IMAGE                Object position along x                                    [pixel]
#   4 Y_IMAGE                Object position along y                                    [pixel]
#   5 X_WORLD                Barycenter position along world x axis                     [deg]
#   6 Y_WORLD                Barycenter position along world y axis                     [deg]
#   7 A_WORLD                Profile RMS along major axis (world units)                 [deg]
#   8 B_WORLD                Profile RMS along minor axis (world units)                 [deg]
#   9 THETA_WORLD            Position angle (CCW/world-x)                               [deg]
#  10 FWHM_WORLD             FWHM assuming a gaussian core                              [deg]
#  11 ELONGATION             A_IMAGE/B_IMAGE                                           
#  12 ELLIPTICITY            1 - B_IMAGE/A_IMAGE                                       
         1 -15.0851      6.2477     71.5198   1.0600786516e+02   6.0914728320e+01     1.978197    0.5931996 -55.50  0.007608621    2.282    0.562
         2 -13.5132      2.9693     10.4025   8.7926105441e+01   7.2695408328e+01    0.7307221    0.4087529 -46.65  0.004536029    1.872    0.466
         3 -13.5987      6.3938     43.3744   9.8633042062e+01   6.6750549635e+01     1.613707     0.811907 -19.67   0.00865419    2.016    0.504
         4 -13.3502      8.3166      2.6442   8.0892825548e+01   7.3327039429e+01    0.5942065    0.4169568  43.53  0.003766785    2.584    0.613
         5 -15.9769     12.7627     21.1873   8.7189916790e+01   7.0211687229e+01     1.839782    0.9940696 -21.11   0.01064662    1.692    0.409
         6 -14.0185     24.8042     14.0592   7.7563478790e+01   7.0027086851e+01    0.7392961    0.2979921  30.78  0.003754274    2.380    0.580
         7 -13.6700    166.1544     31.0514   4.3096129325e+01   3.9826091014e+01    0.7671109    0.4310589  75.01  0.002854625    1.847    0.459
         8 -13.6085    148.0720     29.9791   4.5692791786e+01   4.4222773142e+01    0.7878852    0.5027238 -36.30  0.003083302    1.662    0.398
         9 -13.1593    189.3973     26.6675   3.8840363245e+01   3.4926545037e+01    0.6683655    0.2701336 -56.77  0.002610171    3.216    0.689
        10 -14.9671     98.7811     11.9563   4.9627219024e+01   5.7340673219e+01     1.249638    0.6601108  58.35  0.005597756    1.710    0.415
        11 -12.1134     85.4542     13.7812   5.3804382199e+01   5.9983128526e+01    0.2978449    0.2685464  -9.85  0.001364297    1.219    0.180
        12 -12.3427     70.2891     16.5708   5.9626050702e+01   6.2678885081e+01     0.350061    0.2958934  84.39  0.001566181    1.895    0.472
        13 -11.5733     46.8288     13.2364   6.6912634063e+01   6.7097276458e+01    0.2241392    0.2068192  24.67  0.001535646    1.412    0.292
        14 -12.4045    214.9143     10.3266   3.2482229322e+01   3.1048767781e+01    0.2795474    0.2457092 -51.75 0.0007310961    1.205    0.170
        15 -13.8370     41.8914      4.4464   6.4706012245e+01   6.8832675936e+01    0.6478955    0.4506564   9.62  0.003514719    1.221    0.181
        16 -10.9357    119.9963      3.9684   4.2348313294e+01   5.3272517284e+01     0.183513    0.1498099  57.56 0.0005327687    1.043    0.041
        17 -10.8033    117.4744      1.4844   4.1954790813e+01   5.4036765535e+01    0.2161806     0.106556  63.89 0.0006516311    1.726    0.421
        18 -11.4752     61.4279      1.5792   5.5859022214e+01   6.5769715931e+01    0.3113252    0.1263071  53.44  0.001417272    2.361    0.576
        19 -11.5681     81.5244      1.4231   4.9776001137e+01   6.1862870750e+01    0.3717501     0.100849  57.49  0.001441763    3.126    0.680
        20 -10.6446    153.1682      8.8477   3.8695485812e+01   4.5160075130e+01     0.171011    0.1349508  45.52 0.0005708282    1.298    0.230
        21 -10.6675    148.6856    207.6474   8.9838243548e+01   1.0112296389e+01    0.1449928    0.1043664  -8.28 0.0007046001    1.733    0.423
        22 -12.4630     51.7850    246.8139   1.1556456958e+02   1.6192152540e+01    0.4529923    0.3330993   6.17  0.002765465    2.139    0.532
        23 -13.5279      9.2607    246.0125   1.2343879431e+02   2.0857586584e+01     0.675769    0.3383599  66.14  0.003537313    1.684    0.406
        24 -11.4030     41.2159    206.2156   1.1434577288e+02   2.5863889119e+01    0.1823918    0.1265503  66.49  0.001069739    1.343    0.255
        25 -11.8785     57.2577    203.2064   1.1041783553e+02   2.4679229971e+01      0.44015    0.2196945  86.39  0.001835939    2.807    0.644
        26 -14.0287     30.0045    169.1809   1.1330364125e+02   3.5692080078e+01     1.355678    0.9538305  48.30  0.007858658    1.457    0.314
        27 -13.3198     22.2282    181.3479   1.1642146353e+02   3.3505856677e+01    0.7196565    0.3647944 -61.92  0.003362928    1.778    0.438
        28 -15.5096      7.8589    183.6634   1.1993821791e+02   3.4192458125e+01     1.545669     1.000381 -82.69  0.009449398    1.287    0.223
        29 -15.1719     15.8253    175.5287   1.1742344852e+02   3.5440087017e+01      2.33843     1.000791  69.03  0.009813962    2.964    0.663
        30 -13.1222     15.4564    196.5923   1.1921758655e+02   3.0599725157e+01    0.4800324    0.3977265 -88.02  0.002476144    1.075    0.070
        31 -13.4181     40.6037    195.8060   1.1349432204e+02   2.8294392683e+01    0.7421783    0.2915746  53.03  0.003117352    2.734    0.634
        32 -10.9597    122.5093    182.0128   9.1512050413e+01   1.9947411748e+01    0.2059613    0.1320808 -82.41 0.0008106112    2.608    0.617
        33 -11.4746     48.7276    182.3977   1.1010910723e+02   3.0538384564e+01    0.2984043    0.1605116 -40.15  0.001325501    2.508    0.601
        34 -11.7270     86.1995    180.6150   1.0041549639e+02   2.6061172156e+01    0.1987289    0.1367584  20.75 0.0008965053    1.708    0.415
        35 -12.3737    124.1304    167.3851   8.8345668290e+01   2.3004240246e+01    0.6003714    0.4062271 -80.85  0.002503407    2.271    0.560
        36 -12.0302    200.7672    191.6923   7.5754775846e+01   4.4787439135e+00    0.2762329    0.2311524  -1.23  0.001124556    1.084    0.077
        37 -13.3080     74.1912    154.6490   9.9356201268e+01   3.4121650326e+01    0.9336653    0.5435795  48.50  0.004182032    1.886    0.470
        38 -11.8567    110.3746    155.1482   8.9483012223e+01   2.8294737891e+01    0.4444414    0.2676372 -77.28  0.001645318    2.739    0.635
        39 -12.0746    188.8928    156.1436   7.0831368496e+01   1.3282271252e+01    0.2201604     0.208862 -69.83 0.0009784485    1.263    0.208
        40 -11.1613    103.0107    150.3241   9.0497541634e+01   3.0716959082e+01    0.2981209    0.2019151 -31.38  0.001320273    1.734    0.423
        41 -12.0757    189.4796    150.0048   6.9349874409e+01   1.4380112051e+01    0.2378171    0.1377042 -40.63  0.001044151    1.626    0.385
        42 -11.5422    245.8337    149.1753   5.8967440121e+01   4.5121993160e+00    0.1901781    0.1432242 -12.23  0.001096296    1.358    0.263
        43 -12.0089     59.4903    148.5251   1.0248095244e+02   3.7595204487e+01    0.2602684    0.2379246 -71.75   0.00123481    1.017    0.017
        44 -12.3118      7.8024    145.2809   1.1657889627e+02   4.3328353837e+01    0.4971475    0.3027544 -47.02  0.002781551    1.670    0.401
        45 -11.3916     38.2741    146.0213   1.0817565770e+02   4.0601762667e+01     0.196814    0.1625481 -69.49 0.0006404702    1.062    0.058
        46 -12.1971    148.6687    141.3368   7.6539361362e+01   2.4266321470e+01    0.2437564    0.1956072  89.97   0.00112291    1.727    0.421
        47 -12.2593     40.5549    136.9953   1.0615194675e+02   4.2628790685e+01    0.2632662    0.1814934  48.49   0.00138425    1.621    0.383
        48 -11.7529    133.9872    132.4922   7.8132818774e+01   2.9170754125e+01    0.2226749    0.1351326  63.42 0.0008105711    2.581    0.613
        49 -13.5294    108.4374    124.1645   8.3082185151e+01   3.6007507040e+01    0.6110288    0.5081047   1.71  0.003028009    1.370    0.270
        50 -13.4419    111.1765    117.1400   8.0535328046e+01   3.7118130514e+01    0.4143598    0.2720561  35.39  0.001366838    1.583    0.368
        51 -12.3081    180.2710    124.9894   6.5435359878e+01   2.1189134909e+01    0.3342943    0.2485168  86.78  0.001484416    2.072    0.517
        52 -10.8378     59.0645    125.4728   9.8398783676e+01   4.3409465914e+01    0.1977281    0.1428626  28.51 0.0004985013    1.515    0.340
        53 -13.0475     29.0880    122.3548   1.0732987481e+02   4.7351329656e+01    0.4505004     0.295608 -65.62  0.002423724    1.311    0.237
        54 -11.9628      4.2273    119.8753   1.1472438864e+02   4.9726310467e+01    0.4510658    0.1853961  15.16  0.002091412    3.027    0.670
        55 -13.1665     82.8477    114.4475   8.8404784551e+01   4.2713214740e+01    0.9250411    0.7166206  35.95  0.004693414    1.364    0.267
        56 -13.8201     94.6620    110.5124   8.3730500329e+01   4.1659146491e+01    0.7775201    0.5682233  48.23  0.003716426    1.524    0.344
        57 -14.7506    107.2179    104.5885   7.8363607218e+01   4.0692347257e+01     1.537065     1.147037  16.99  0.007217854    1.558    0.358
        58 -11.3235     34.5437     86.9112   9.8401363207e+01   5.5356448262e+01    0.3757395     0.200516 -35.32  0.001125443    1.842    0.457
        59 -13.5794      2.2238     97.2115   1.1223448467e+02   5.5249059018e+01    0.9915026    0.3734291 -77.63  0.004060477    2.851    0.649
        60 -14.3942     18.2390    111.2644   1.0903864900e+02   5.0923594581e+01    0.9264549    0.7491893 -25.98  0.003884191    1.332    0.249
        61 -14.2167     11.8376    103.8987   1.0999172065e+02   5.3126299611e+01    0.8445492    0.6451408 -64.80  0.005039046    1.101    0.091
        62 -14.3549     21.6708     95.5242   1.0504596675e+02   5.4444667555e+01     1.335916    0.9644751   5.64   0.00781841    1.600    0.375
        63 -13.1305     29.7388     89.6881   1.0085254567e+02   5.5155575905e+01     1.104931    0.6433128  75.83   0.00391659    3.763    0.734
        64 -12.0128    120.9854    112.2757   7.6501303570e+01   3.6294940331e+01    0.3887134    0.2896826  69.87  0.001442086    1.845    0.458
        65 -12.1887     31.6762    111.3205   1.0457619576e+02   4.9834712850e+01    0.2669214    0.2036674 -53.36 0.0007311105    1.114    0.103
        66 -11.5644     61.4206    109.6712   9.4228944737e+01   4.6969152864e+01    0.4587858    0.2699663 -79.75  0.001791656    2.783    0.641
        67 -12.3596    137.3388    103.7802   6.9860035637e+01   3.4706549095e+01    0.5974905    0.3226081  59.74  0.002184155    2.579    0.612
        68 -11.8936     42.5710     90.9917   9.6394697055e+01   5.3611025479e+01      0.37122    0.2597052 -80.29 0.0008321347    1.921    0.480
        69 -12.0874     46.7290     99.5674   9.6935229207e+01   5.1158130757e+01    0.5070772    0.3678255  86.56  0.002523229    1.969    0.492
        70 -11.6398     52.5174     97.9896   9.4513317580e+01   5.0857600709e+01    0.3571945    0.1996838 -16.18  0.001430427    2.740    0.635
        71 -12.1710     49.1765     94.3172   9.4804869860e+01   5.2107065500e+01    0.4376008    0.3266555 -87.90  0.001660562    1.882    0.469
        72 -11.9199     61.1291     97.7589   9.1432406404e+01   4.9817277013e+01    0.4026759    0.3071891 -86.53  0.002002726    1.839    0.456
        73 -11.5503    163.3254     98.2615   6.2243786450e+01   3.0078184957e+01    0.3160704    0.2072263  35.77 0.0009802605    1.720    0.418
        74 -12.1906    136.2352     95.2179   6.7760862107e+01   3.6678873224e+01    0.3688517    0.2472704  45.43   0.00109043    1.506    0.336
        75 -12.8599    187.2821     84.8006   5.3999658430e+01   2.7124075594e+01    0.3924786    0.2241414  43.14  0.001727211    1.971    0.493
        76 -12.1455     47.3069     82.0076   9.2298059048e+01   5.5108837213e+01    0.4651318    0.2390082 -53.83  0.002135178    1.795    0.443
        77 -13.5041    160.8343     81.0030   5.8073588105e+01   3.3794818258e+01    0.8862582    0.5173914  23.15  0.002593786    3.083    0.676
        78 -13.3886    169.3948     77.2042   5.5307965488e+01   3.2475932674e+01    0.5143912    0.3428985  39.12  0.001541294    1.679    0.404
        79 -13.9676     61.1131     75.7540   8.5283592743e+01   5.4669703923e+01     1.369578    0.4759657 -51.99  0.004911593    2.980    0.664
        80 -13.1021     52.5352     70.1420   8.6819039471e+01   5.6992574656e+01    0.7959124    0.6476066 -47.32  0.004636677    1.250    0.200
        81 -11.9974    216.8800     81.7861   4.8535100901e+01   2.1202553451e+01    0.2780464    0.1556925 -57.81   0.00122474    2.041    0.510
        82 -12.4019    136.3938     79.9294   6.3297679668e+01   3.9553397352e+01    0.5939652    0.2883729  45.80   0.00163447    2.043    0.511
        83 -11.5101    131.5512     77.4866   6.3770713180e+01   4.1076773441e+01    0.2543923     0.145444  49.82 -4.262701e-06    1.746    0.427
        84 -11.8648    114.5800     80.4423   6.9199579454e+01   4.4198044935e+01    0.3384179    0.2729088 -62.54 0.0005956311    1.518    0.341
        85 -11.6926     41.9541     77.5310   9.3127439370e+01   5.6694670182e+01    0.4807938    0.1849985 -58.82  0.001762706    2.792    0.642
        86 -12.7098    106.7473    245.2429   1.0431228241e+02   9.3188808434e+00    0.3891643    0.3480852 -37.44  0.002078399    1.332    0.249
        87 -14.0159      4.2475     63.3809   1.0501087070e+02   6.2787135298e+01    0.6123221    0.4682141  -4.50  0.004083376    1.399    0.285
        88 -11.6905     27.3168     75.9769   9.8512023411e+01   5.8463880558e+01    0.4241886    0.2249883 -72.90   0.00185149    2.674    0.626
        89 -12.8522     54.3492     82.0808   8.9667493024e+01   5.4231166741e+01    0.5252338    0.3380345 -38.70  0.002570783    1.407    0.289
        90 -13.0753     87.1072     65.6179   7.2813499311e+01   5.2394432780e+01    0.5812669    0.3717654  23.65  0.002174237    1.741    0.426
        91 -12.2014     80.9521     69.9777   7.6334736337e+01   5.2686419139e+01    0.4781612    0.3028994  43.00  0.002286889    1.679    0.404
        92 -12.6346     70.7053     75.5377   8.1713849008e+01   5.3284525049e+01    0.5371614    0.3040343  17.66  0.001779324    2.273    0.560
        93 -11.9108     77.0452     73.7074   7.8894302773e+01   5.2626709072e+01     0.333198    0.2335992 -22.29 0.0009959014    1.496    0.332
        94 -12.7718    164.0798     71.6556   5.4816174385e+01   3.4626025809e+01     0.492468      0.27468  40.48  0.002088316    2.044    0.511
        95 -12.8788    199.0638     70.1820   4.8377509257e+01   2.6869232669e+01    0.4765505    0.3344887  41.99  0.001811719    1.666    0.400
        96 -12.3709     40.6701     68.1378   9.0930056374e+01   5.8833845793e+01    0.6353581    0.2041123  28.60  0.002455821    3.262    0.693
        97 -12.4356    134.6650     66.7781   5.9749576702e+01   4.2227121776e+01    0.5314332    0.2687236  50.00  0.001640433    1.911    0.477
        98 -11.9022     31.5781     63.5465   9.3324830047e+01   6.0727680843e+01    0.4645547    0.2273238 -60.51  0.002108375    2.340    0.573
        99 -12.9105     78.5146     60.6748   7.4031533152e+01   5.4833391057e+01    0.6071011    0.4912843  30.21  0.003414454    1.216    0.177
       100 -12.4772     82.1879     54.7931   7.0697847371e+01   5.5192395656e+01    0.4435474    0.3522254  -3.71  0.001701348    1.257    0.204
       101 -11.4995     77.4848     53.9979   7.2026068196e+01   5.6174495210e+01     0.288085    0.2182562 -24.31 0.0009500608    1.273    0.214
       102 -13.0716    177.9074     58.9161   4.8834758829e+01   3.3387797494e+01    0.4916807    0.4753105  73.78  0.001632121    1.055    0.052
       103 -11.9925     92.0039     60.5167   6.9488881218e+01   5.2370853327e+01    0.3454859    0.1852932  40.33  0.001111409    1.822    0.451
       104 -12.5307     91.4329     57.0929   6.8482924545e+01   5.3061409024e+01    0.4182531     0.289865  43.04  0.001129864    1.429    0.300
       105 -12.0437     24.3547     60.2019   9.5432991410e+01   6.2075597910e+01    0.2969949    0.2302873 -29.98 0.0007838187    1.063    0.059
       106 -10.9861     38.6549     60.0675   8.9254929781e+01   6.0695779773e+01     0.199487    0.1597396 -59.53  0.001176354    1.511    0.338
       107 -14.3510    119.9615     54.9940   5.9623979118e+01   4.7416860068e+01    0.6848248    0.4260302  39.42  0.003234029    1.595    0.373
       108 -12.6024     64.4569     55.4811   7.7299619971e+01   5.8097100190e+01    0.5821069    0.2552671  39.60  0.002497088    2.356    0.576
       109 -12.9115     65.2194     49.5295   7.4838738378e+01   5.9005801399e+01    0.5379739    0.4547097  23.80  0.002437895    1.172    0.147
       110 -12.0386     99.9470     44.4670   6.1416203011e+01   5.3299213405e+01    0.4947751    0.2466038  43.55  0.001576319    1.868    0.465
       111 -13.5423    103.2977     50.7269   6.2672495671e+01   5.1674617900e+01    0.7458965    0.5256241  81.48  0.001040407    2.474    0.596
       112 -12.9353     97.8307     50.8126   6.4299551816e+01   5.2793701443e+01    0.4386364    0.3372719 -47.90  0.001593206    1.535    0.349
       113 -11.7699    136.4735     49.7156   5.4034544259e+01   4.4430929745e+01     0.271593    0.2367493  46.94 0.0006711037    1.086    0.079
       114 -10.2822     23.3458     50.2924   9.2810258334e+01   6.4138538322e+01     0.133549   0.07756905 -23.20 0.0007028922    1.663    0.399
       115 -11.5784    153.6917     47.0005   4.9744128489e+01   4.0766129115e+01    0.3599324     0.166895  59.53  0.001513802    2.049    0.512
       116 -13.2483    101.4992    239.1827   1.0471020762e+02   1.1195896731e+01      0.66652    0.3999315  30.26  0.003589292    1.604    0.377
       117 -12.3136     28.5565    245.5673   1.1990117630e+02   1.9018988943e+01    0.4017949    0.2345981  50.42  0.002575596    1.401    0.286
       118 -12.2562     17.5476     40.5867   9.2263367287e+01   6.6468922913e+01    0.2159561    0.1629428 -27.08 0.0002643032    1.036    0.035
       119 -12.7482      2.8765    248.3356   1.2466791744e+02   2.1010174528e+01    0.4685069    0.2562596  88.13  0.003105141    1.579    0.367
       120 -13.5405    171.6159    242.0650   9.0455645216e+01   3.7452963935e-01    0.4366674    0.2783253  29.63  0.002479747    1.355    0.262
       121 -11.5920    147.5029    239.4775   9.5043889497e+01   4.3843551366e+00    0.1289495    0.1109709  26.53 0.0001595043    1.014    0.014
       122 -13.4801    217.4948     42.5769   3.9402437295e+01   2.6753580179e+01      1.02564    0.3036147  62.74  0.003883343    3.221    0.690
       123 -12.6860    204.7129     40.0804   4.0284250950e+01   2.9858533434e+01    0.4251854    0.2230102  84.46  0.001944178    2.323    0.570
       124 -11.8662    159.1783     43.6276   4.7776769188e+01   3.9919480979e+01    0.3745541    0.2484585  62.92  0.001495462    1.434    0.303
       125 -11.9856    109.2279     42.0898   5.8020123760e+01   5.1648875541e+01    0.4730811    0.1943022  55.99  0.001485352    2.507    0.601
       126 -12.7530    131.9890     32.6959   4.9558350652e+01   4.7685531769e+01    0.4076342    0.3617765  48.65  0.001837285    1.035    0.033
       127 -12.3878    113.9552     38.1499   5.5440597393e+01   5.1129416322e+01    0.3380531    0.2966881  -6.91  0.001033901    1.186    0.157
       128 -13.7862    122.1516     37.3299   5.3210246522e+01   4.9387501654e+01    0.8438817    0.3994592  41.84  0.002218017    2.123    0.529
       129 -12.4203     75.4197     37.2575   6.6426258975e+01   5.9146945415e+01    0.3319626    0.2332795  41.97  0.000936527    1.394    0.283
       130 -11.6796     70.7278     36.5816   6.7806248907e+01   6.0088538760e+01    0.2559389     0.210492  39.31  0.000879986    1.284    0.221
       131 -12.5536    241.6587     36.3837   3.5676028654e+01   2.2566686576e+01    0.4205821    0.2114323  69.94  0.001875628    2.045    0.511
       132 -10.9613    104.4992     36.9485   5.7447174626e+01   5.3356586583e+01    0.2006574    0.1323323 -29.73  0.001032764    1.600    0.375
       133 -12.4094     45.6655     33.6421   7.6498081122e+01   6.4506306296e+01    0.4587835    0.3319534   7.17  0.002781499    1.265    0.209
       134 -13.8191     92.4851    230.1768   1.0558992181e+02   1.4227797823e+01    0.6152205    0.5921319  25.02   0.00416655    1.162    0.140
       135 -12.3323    152.4967     31.5183   4.5395866474e+01   4.2999286580e+01    0.3109266    0.2501892  46.77  0.001223809    1.229    0.186
       136 -12.7565     13.9693    222.6328   1.2128076726e+02   2.5081586512e+01    0.4591283    0.3233424  65.91  0.001997112    1.169    0.145
       137 -13.0860    143.0064     30.2956   4.6685478763e+01   4.5382128044e+01    0.4542777    0.3560289  83.67  0.001908034    1.362    0.266
       138 -13.4372     26.1911    226.5749   1.1912272266e+02   2.3066796484e+01    0.7430218    0.3541413 -58.54  0.003991002    2.283    0.562
       139 -13.0168     55.3767     27.2716   6.9753778340e+01   6.3974965993e+01    0.6302251    0.2942998  42.00  0.002818682    2.125    0.530
       140 -12.0903    120.9270     26.4263   4.9796100776e+01   5.0953240497e+01    0.3115314    0.2410514  74.38  0.001759252    1.406    0.289
       141 -10.9506     98.3738     27.4054   5.5579072590e+01   5.5837484437e+01    0.2520306    0.1110375  49.84  0.001112422    1.988    0.497
       142 -11.8233    171.5022     28.4945   4.1623757578e+01   3.8863258557e+01    0.2592059    0.1923647 -86.64 0.0008661338    1.386    0.278
       143 -11.6437     36.5543     23.3300   7.6140601954e+01   6.7270041697e+01     0.215842    0.1644299  -4.24 0.0004595818    1.064    0.061
       144 -12.6171    138.0266     21.8939   4.4970772777e+01   4.7467646861e+01    0.5759858    0.2549364  67.00  0.002208648    2.204    0.546
       145 -12.0769     48.5499     20.4906   6.9554387475e+01   6.5942537732e+01    0.5394765    0.2270438  40.47  0.002582662    2.280    0.561
       146 -10.8178    224.3356     21.3231   3.4046121846e+01   2.7877067269e+01    0.1119806   0.08971955  40.15 0.0007050748    1.712    0.416
       147 -12.9368     20.7071    224.9315   1.2009975659e+02   2.3956892047e+01    0.4623562    0.3372741 -38.79  0.002652039    2.041    0.510
       148 -13.3821     64.8659    223.2339   1.1080750576e+02   1.9351436264e+01     1.077447    0.6615095  50.57  0.006021158    1.474    0.322
       149 -13.7819     63.7915    214.6024   1.1015626499e+02   2.1336382918e+01    0.5219021    0.3883451  71.33  0.003003484    1.304    0.233
       150 -12.3973     24.2334    217.3598   1.1887544328e+02   2.5203772567e+01    0.4821817     0.445831  77.05  0.003572405    1.204    0.170
       151 -13.0056     59.4877    212.9944   1.1094583715e+02   2.2225027923e+01    0.3713714    0.2377155 -55.35  0.001272353    1.680    0.405
       152 -11.2375    249.6560    216.3271   7.1312458926e+01  -6.5522828171e+00    0.1026928   0.09731302 -45.16 0.0007050792    1.744    0.426
       153 -11.4984    200.5255    215.0058   8.0148262027e+01   4.9591812022e-01      0.19662    0.1211691 -36.30  0.001035996    1.603    0.376
       154 -11.5860    156.1473    214.8860   8.9401723848e+01   7.5006875371e+00    0.2109163    0.1870343  47.99  0.001252806    1.252    0.201
       155 -12.1764      4.8424    213.8260   1.2255728517e+02   2.7754016313e+01    0.2738729    0.1842905  65.29  0.001832234    1.242    0.195
       156 -11.9627     72.5021    207.5685   1.0740053736e+02   2.1756268341e+01    0.3843213    0.2651733 -77.35  0.002111051    1.494    0.330
