#   1 NUMBER                 Running object number                                     
#   2 MAG_AUTO               Kron-like elliptical aperture magnitude                    [mag]
#   3 X_IMAGE                Object position along x                                    [pixel]
#   4 Y_IMAGE                Object position along y                                    [pixel]
#   5 X_WORLD                Barycenter position along world x axis                     [deg]
#   6 Y_WORLD                Barycenter position along world y axis                     [deg]
#   7 A_WORLD                Profile RMS along major axis (world units)                 [deg]
#   8 B_WORLD                Profile RMS along minor axis (world units)                 [deg]
#   9 THETA_WORLD            Position angle (CCW/world-x)                               [deg]
#  10 FWHM_WORLD             FWHM assuming a gaussian core                              [deg]
#  11 ELONGATION             A_IMAGE/B_IMAGE                                           
#  12 ELLIPTICITY            1 - B_IMAGE/A_IMAGE                                       
         1 -15.1166    249.7366     57.9667   6.3274386820e+01   1.7231659474e+01     1.504047    0.2121066 -40.15  0.004428108    5.307    0.812
         2 -14.5448    249.2836     14.6694   5.4972566952e+01   2.3149328980e+01    0.5930577    0.3683974 -27.21  0.003443936    2.331    0.571
         3 -14.5412    241.2936     10.7406   5.4864794888e+01   2.5249710275e+01    0.5423045    0.2270207 -44.19  0.002873596    2.118    0.528
         4 -13.5305     17.8728     10.6633   1.0291531055e+02   6.9778991656e+01    0.2900721    0.1739361  -4.18  0.001398191    1.491    0.329
         5 -12.2427    149.6080      3.6262   6.3066940691e+01   4.6549661356e+01    0.4191836    0.1954037  43.33  0.002008466    2.312    0.568
         6 -10.8757    109.1751      3.4056   7.0028883948e+01   5.5540808563e+01    0.1548716     0.103766  68.25 0.0002821541    1.479    0.324
         7 -12.1431     23.0884      2.1661   9.6741681879e+01   7.0198928544e+01    0.1735496    0.1121408   4.34   0.00123311    1.256    0.204
         8 -11.9779    176.0829    239.0530   1.1358873137e+02  -1.8508188208e+00    0.3665156    0.2344108 -25.15  0.001850157    2.006    0.501
         9 -17.1071    248.2538    198.1720   9.2207736079e+01  -6.6710630183e+00     8.217854     1.305573 -40.93   0.02272558    5.731    0.826
        10 -11.1374    155.6372    249.2821   1.1930308153e+02  -2.0207578572e-01    0.1875906    0.1516126 -83.20  0.001105127    1.633    0.388
        11 -20.9019     98.8478    200.8729   1.2441274587e+02   1.9382596792e+01     10.61382     7.099676  45.80   0.05344481    1.427    0.299
        12 -12.3041    181.4935    156.6483   9.6644136108e+01   1.3523404807e+01     0.381273    0.2447057  33.36  0.001642096    1.765    0.433
        13 -11.5299    177.3185    156.6747   9.7561825358e+01   1.4394184801e+01    0.3048413    0.1938177  70.45  0.001162178    2.475    0.596
        14 -12.5892    182.5978    225.5191   1.1000047282e+02  -5.7113958670e-01    0.3323008    0.2969826  36.44  0.001244495    1.097    0.089
        15 -11.3255    166.5077    155.0923   9.9631836957e+01   1.7023398768e+01    0.2417302    0.2046333  25.32 0.0005722439    1.304    0.233
        16 -16.0742    167.9528    215.4356   1.1132651261e+02   3.9164002067e+00     1.418401     1.072967  10.16  0.007305514    1.592    0.372
        17 -12.0622    176.5937    151.5572   9.6575065699e+01   1.5659003353e+01    0.4459309    0.2496027  60.13 0.0007694054    2.367    0.577
        18 -13.1347    176.0781    223.4280   1.1099432726e+02   9.4708387210e-01    0.4511023    0.3331313  50.60  0.001813255    1.422    0.297
        19 -13.9895     50.1284    147.3227   1.2817674085e+02   3.9479777149e+01    0.9348651    0.2684013 -61.41  0.003312646    2.890    0.654
        20 -13.9660     45.9832    148.3067   1.2945060561e+02   3.9721061259e+01    0.5124298    0.2690853 -80.57  0.002205861    2.208    0.547
        21 -13.6187     52.0945    136.2123   1.2572824875e+02   4.1961907995e+01    0.4752445    0.2994848 -34.92  0.001340941    1.892    0.471
        22 -11.0210    181.9423    148.5055   9.4717803424e+01   1.5177343065e+01    0.2067407    0.1526783  52.24 0.0003606397    1.422    0.297
        23 -11.8217    157.9738    147.7622   9.9950237159e+01   2.0483302727e+01    0.3117906    0.2082156  35.01 0.0009853429    1.646    0.392
        24 -13.5128    171.5537    230.5763   1.1314061518e+02   4.2381031592e-01      0.44945    0.2903397  61.53  0.002023324    2.143    0.533
        25 -13.1044     37.8761    145.0092   1.3111673153e+02   4.1410688122e+01    0.2004482    0.1920177  77.84 0.0002739402    1.168    0.144
        26 -12.5863    152.3772    142.6940   1.0010795720e+02   2.2831276952e+01    0.4586029    0.3331112  86.54  0.001925338    1.958    0.489
        27 -12.5282    171.5299    226.5049   1.1246793436e+02   1.1746324812e+00    0.2301165    0.2109211 -11.91 0.0009701562    1.147    0.128
        28 -11.7739    113.7985    140.4578   1.0939683358e+02   3.1250827947e+01     0.284598    0.2415074 -75.87 0.0005681466    1.250    0.200
        29 -11.0088    137.8583    137.2247   1.0239169161e+02   2.7174467222e+01    0.2431419    0.1999278 -49.71 0.0002030504    1.195    0.163
        30 -12.8509     48.5904    135.1795   1.2653747880e+02   4.2624589963e+01    0.2269398    0.2090243 -34.12 0.0002790724    1.195    0.163
        31 -11.4916     27.2649    232.1876   1.4289385866e+02   2.2359716097e+01    0.1583933    0.1259817  89.61  0.001106256    1.150    0.130
        32 -11.7615      9.4613    231.7599   1.4607852711e+02   2.4372714617e+01    0.1660357    0.1509692 -50.34 0.0008642917    1.699    0.412
        33 -11.0304     11.5636    227.9714   1.4545866758e+02   2.4944268631e+01    0.1558919   0.08998373 -81.51 0.0003617411    1.421    0.296
        34 -10.9610    138.4264    140.5122   1.0302119921e+02   2.6293665891e+01    0.2353177    0.1560026  44.04  0.000544682    1.532    0.347
        35 -13.1195     63.6369    132.5786   1.2174081089e+02   4.1382655578e+01    0.3408535    0.3286037 -38.74  0.001280289    1.114    0.102
        36 -14.4957     27.1239    130.7907   1.3188062656e+02   4.5872152357e+01    0.6611437    0.2240738 -49.78  0.002711514    2.589    0.614
        37 -12.6375    203.2012    228.2505   1.0630472257e+02  -4.5224026694e+00    0.2717416    0.1852037  35.52 0.0009427955    1.369    0.270
        38 -11.0683    210.4405    227.3732   1.0472326169e+02  -5.5526838799e+00    0.1296267     0.111808  12.64 5.051396e-05    1.026    0.026
        39 -12.4809     43.9528    128.9736   1.2675873074e+02   4.4642421341e+01    0.2041006    0.1743535 -60.17  0.000338746    1.014    0.014
        40 -11.3408     25.5670    237.6947   1.4360572262e+02   2.1410736011e+01     0.233405    0.1270609  77.13 0.0005985397    1.614    0.380
        41 -13.8157     47.2745    122.5635   1.2458200890e+02   4.5806161091e+01    0.4613647    0.3214121  15.74  0.001286889    1.774    0.436
        42 -12.5347     43.3126    119.0094   1.2508252793e+02   4.7081912965e+01    0.2487927    0.2047532 -41.54 0.0006941938    1.167    0.143
        43 -12.8278    191.4352    218.3183   1.0691371982e+02  -8.0153054200e-01    0.3585725    0.2101432  32.69   0.00172555    1.655    0.396
        44 -11.3645    117.1981    122.0970   1.0412808254e+02   3.4906519481e+01    0.2185379    0.2025533 -17.93 0.0003591674    1.153    0.133
        45 -13.5000     28.0200    245.4136   1.4371150507e+02   1.9561630670e+01    0.5371435    0.3623509 -84.79  0.003632792    1.284    0.221
        46 -13.9003     22.0517    121.0075   1.3177361833e+02   4.8611014805e+01    0.3456006    0.2920785 -47.12  0.001101657    1.151    0.131
        47 -13.0105     19.7860    115.9161   1.3160319730e+02   4.9973843363e+01     0.219959    0.2051122 -55.91 0.0003326122    1.146    0.127
        48 -11.9545     79.7914    120.1871   1.1434452648e+02   4.2017101953e+01     0.242265    0.2245082 -70.41 0.0007187763    1.099    0.090
        49 -11.3815     71.8253    120.8996   1.1687896813e+02   4.3045043549e+01    0.2086238    0.1766584 -39.11 0.0002659529    1.152    0.132
        50 -12.3004     99.2420    119.7473   1.0856126093e+02   3.8854545377e+01    0.3005477    0.2546539 -18.66 0.0004428293    1.329    0.247
        51 -11.9961    102.6819    118.7086   1.0732405712e+02   3.8468524961e+01    0.2425928    0.2281324 -70.54 0.0002563005    1.091    0.083
        52 -12.7340    205.4571    212.4449   1.0299704933e+02  -2.1648152758e+00    0.2438849    0.2384753  63.95 0.0007032896    1.261    0.207
        53 -15.1167    247.1845    169.3397   8.6694653982e+01  -1.5467723140e+00     1.536926    0.9908067   4.42  0.007128193    2.400    0.583
        54 -11.8583    125.4618    117.7318   1.0080813876e+02   3.4217378576e+01    0.2568069    0.2254672  57.41 0.0002710666    1.187    0.158
        55 -11.3793    120.6269    117.6268   1.0207475209e+02   3.5233786869e+01    0.2903349    0.1911911  44.30 0.0006863418    1.552    0.356
        56 -12.7843     91.7941    114.9748   1.0954798944e+02   4.1266524855e+01    0.5438473    0.2473548 -43.29  0.002085406    2.187    0.543
        57 -11.8404    198.1148    209.5889   1.0394658757e+02  -3.7555893164e-01    0.2037555    0.1874744 -57.26 0.0006320933    1.288    0.224
        58 -11.5035    148.8526    115.8707   9.4399752415e+01   2.9570029343e+01    0.2175773    0.2080014  -0.57 0.0002792219    1.133    0.118
        59 -11.6757    145.0115    115.7935   9.5315136735e+01   3.0440993749e+01    0.2970749    0.2053164  60.79   0.00064998    1.631    0.387
        60 -11.7572     22.3461    242.7245   1.4452594247e+02   2.0751293785e+01    0.1914437    0.1106484  86.43 0.0004965512    1.445    0.308
        61 -12.2167     66.7682    114.0304   1.1685716037e+02   4.5372779364e+01     0.310625    0.1517293 -55.27  0.001061794    1.865    0.464
        62 -12.7336     58.0738    114.1159   1.1955232673e+02   4.6505652226e+01    0.4641382    0.2695047  55.57  0.002055699    2.435    0.589
        63 -11.5474    159.2508    112.4376   9.1073420368e+01   2.7950517011e+01    0.2560752    0.2054488 -47.42 0.0003454928    1.230    0.187
        64 -12.2137    152.2289    107.6836   9.1478040298e+01   3.0541100334e+01     0.432761    0.2860441  40.15   0.00189139    1.609    0.378
        65 -11.7413     97.3414    108.3865   1.0624892116e+02   4.1783140301e+01    0.2854353    0.2181278   6.98  0.001140662    1.652    0.395
        66 -11.3377    206.5598    205.6347   1.0149445583e+02  -1.1295452630e+00    0.2743845    0.1306278 -41.97  0.001183466    2.100    0.524
        67 -10.9359    197.1323    202.2036   1.0274935735e+02   1.1759170328e+00    0.1826305    0.1688069  15.15 0.0003936516    1.032    0.031
        68 -11.4764    140.4960    106.7886   9.4084412697e+01   3.3364467997e+01    0.2800488     0.206618  44.92 0.0006653826    1.367    0.268
        69 -10.8806    195.3191    198.7527   1.0245753312e+02   2.1623593577e+00    0.1921367    0.1902018 -19.97 0.0002214794    1.123    0.109
        70 -11.7157    144.6469    102.5623   9.1939780839e+01   3.3314711144e+01    0.3006383    0.2291426 -15.89 0.0008793612    1.687    0.407
        71 -11.9491    129.0827    101.0087   9.5441003790e+01   3.7068150648e+01    0.2490596    0.2190173  44.40  0.000373917    1.142    0.124
        72 -11.9791    198.2901    197.2740   1.0155826645e+02   1.9038332141e+00    0.2762724    0.2383034 -71.51  0.001241215    1.480    0.324
        73 -11.9938     29.4986    239.5089   1.4302723772e+02   2.0585763683e+01    0.2326834    0.1070087 -70.56  0.001023027    1.983    0.496
        74 -12.3792     21.5000    237.8965   1.4434838219e+02   2.1826738653e+01    0.3663419    0.1387298 -62.08  0.001817335    2.672    0.626
        75 -12.3177    131.6393     96.9010   9.3654245826e+01   3.7357383004e+01    0.3106498     0.225462  58.12  0.001445411    1.486    0.327
        76 -12.4195    142.7120     95.8168   9.0589578968e+01   3.5114019368e+01    0.3105084    0.2659224  56.18 0.0006521273    1.172    0.147
        77 -11.3032    183.7834    190.1962   1.0320442974e+02   6.0109002145e+00    0.1882868    0.1608066  -4.68 0.0003664035    1.272    0.214
        78 -12.7942    217.4091    186.3541   9.5569825707e+01   5.1548029687e-01    0.3611393    0.2571773 -60.52  0.001778143    1.847    0.458
        79 -11.5503    151.0460     93.9993   8.8119259340e+01   3.3568903663e+01    0.2403962    0.2271867  82.65 0.0009973781    1.067    0.062
        80 -13.1937    132.2416     91.2795   9.1939324746e+01   3.8347161800e+01    0.3203032    0.2948817  40.63   0.00172102    1.082    0.076
        81 -13.0075     46.8665     90.4484   1.1763180158e+02   5.3147219558e+01    0.2773028    0.2121398 -56.51  0.001371436    1.263    0.208
        82 -13.3580    118.4418     89.0063   9.4928805640e+01   4.1754703024e+01    0.3154936    0.3019117 -64.56 0.0006566956    1.113    0.101
        83 -13.2741    122.9614     87.0338   9.3149267497e+01   4.1186349785e+01    0.4395646    0.2196572  52.75 0.0003278614    2.156    0.536
        84 -13.5925     89.0759     86.2392   1.0267029635e+02   4.7953061472e+01    0.4952825    0.3818893 -61.65  0.002558785    1.549    0.355
        85 -12.8865     72.8379     87.9458   1.0831168933e+02   5.0250419649e+01    0.3718415    0.2609802  15.52  0.001011892    1.640    0.390
        86 -12.4656     36.0877     87.9108   1.2069070823e+02   5.4820835749e+01    0.1822412    0.1662386 -70.61  0.000411502    1.266    0.210
        87  -9.8910    180.9716    238.0000   1.1242533886e+02  -2.4889658092e+00    0.2623259     0.139458  36.37  0.001265687    1.691    0.409
        88 -11.0483    196.0801    236.7226   1.0917742038e+02  -4.7694056230e+00    0.1653479    0.1437291  11.14  0.001032327    1.041    0.040
        89 -13.0854    110.5771     89.1946   9.7162701654e+01   4.3325328874e+01     0.417275    0.2608199  50.95 0.0009401008    1.715    0.417
        90 -14.2506     43.9937     82.4065   1.1656240318e+02   5.5158692106e+01    0.5134689    0.3372749  41.43  0.002563912    1.864    0.464
        91 -12.1749    196.5385    185.1097   9.9498381113e+01   4.6030940646e+00    0.2399339    0.2021729  39.73 0.0004021708    1.206    0.171
        92 -11.0741     13.4401    237.0200   1.4571354708e+02   2.2880092658e+01      0.15135     0.104688  86.30   0.00039813    1.119    0.106
        93 -11.0187     13.3975    233.5598   1.4549817412e+02   2.3593746984e+01    0.1473219   0.08602715 -74.84 0.0001471199    1.513    0.339
        94 -11.1514    193.7381    175.9333   9.8191280590e+01   6.9910102153e+00    0.1935854    0.1855421 -44.36 0.0002636393    1.074    0.069
        95 -11.3913    152.3066     68.6518   8.0845356239e+01   3.7848007251e+01    0.1511117    0.1117693 -75.58 0.0005143209    1.702    0.412
        96 -11.5276     25.8731     65.8799   1.1872597575e+02   6.0228721366e+01      0.14793    0.1378354 -51.77 0.0003662382    1.300    0.231
        97 -10.9351     17.6181    248.7908   1.4573206016e+02   2.0069519859e+01   0.08796901    0.0842566  56.00 0.0006817606    1.594    0.373
        98 -10.8778    208.6331    234.2006   1.0627199570e+02  -6.3766293772e+00    0.1201898   0.09150636  48.94 0.0003796036    1.559    0.359
        99 -11.0931    213.3345    172.4035   9.3496509615e+01   3.9238180687e+00      0.17198     0.139201  51.37 0.0002914643    1.383    0.277
       100 -12.3991    118.2590     54.1487   8.4471302827e+01   4.7852308996e+01    0.2636108    0.1749469  39.90  0.001323043    1.449    0.310
       101 -10.9304    218.6066     53.2110   6.5896397640e+01   2.4634316730e+01    0.1705904    0.1264842 -32.19 0.0005981023    1.583    0.368
       102 -11.0971    187.2831    168.5299   9.7988252528e+01   9.8070361259e+00    0.3478427    0.1855875 -29.39  0.001291937    2.484    0.597
       103 -12.2881    165.8453    233.7845   1.1484768813e+02   8.2583026847e-01    0.2265515    0.2027228   1.30  0.001151405    1.189    0.159
       104 -11.4647     24.3622     46.5830   1.1356244656e+02   6.3868471644e+01    0.2239537    0.1196782 -42.72 0.0008421856    1.575    0.365
       105 -11.3602    221.2276    231.8648   1.0343418653e+02  -7.9702109404e+00    0.1727705    0.1590962 -18.89 0.0004744758    1.225    0.184
       106 -11.3327    108.2195     44.2280   8.3880410331e+01   5.1393613524e+01    0.1743111    0.1593326  85.09 0.0006725049    1.342    0.255
       107 -11.2573    174.7997     64.7816   7.5367446522e+01   3.3121734720e+01    0.2001494    0.1603037 -75.48 0.0006731235    1.318    0.241
       108 -11.1883     96.9662     40.4881   8.5694279649e+01   5.4172193914e+01    0.2044656    0.1185661  46.22  0.001030573    1.586    0.369
       109 -12.4457    129.4866     33.4392   7.5368058082e+01   4.8144665290e+01    0.2772026    0.2336558  51.87 0.0009141871    1.053    0.050
       110 -11.7713     60.5066     28.3399   9.2826082217e+01   6.2159302409e+01    0.2802788    0.1912015  -3.76  0.001699317    1.451    0.311
       111 -12.5879    250.4620     24.2633   5.6661279858e+01   2.1733347476e+01    0.2722456   0.09559703 -41.04  0.001031613    2.519    0.603
       112 -10.6479    109.2641     21.3355   7.5999199357e+01   5.3905195262e+01    0.1283436    0.0861567  25.90 0.0003734363    1.584    0.369
       113 -11.7175    181.6270    245.0055   1.1341851587e+02  -3.7763542848e+00     0.302797    0.1930548 -16.47  0.001383869    2.198    0.545
       114 -11.4056    216.3006     16.6609   5.8237917782e+01   2.9941339921e+01    0.1320523   0.07660165 -68.88 0.0007036322    1.666    0.400
       115 -13.0053    167.1298    242.8042   1.1600236797e+02  -9.9719910026e-01    0.5594614     0.397601  82.68  0.002772046    2.428    0.588
       116 -11.0012     10.3189    245.5381   1.4676978327e+02   2.1498963370e+01    0.2069022   0.09366199 -66.03   0.00118625    2.181    0.542
       117 -12.6472    195.3691    231.8462   1.0849094688e+02  -3.8381288865e+00    0.4774704    0.1840738  36.23  0.001956591    2.435    0.589
       118 -13.1477      5.0303    237.6373   1.4720420410e+02   2.3622667248e+01    0.3845489    0.2112034 -66.58  0.002148162    1.831    0.454
