#   1 NUMBER                 Running object number                                     
#   2 MAG_AUTO               Kron-like elliptical aperture magnitude                    [mag]
#   3 X_IMAGE                Object position along x                                    [pixel]
#   4 Y_IMAGE                Object position along y                                    [pixel]
#   5 X_WORLD                Barycenter position along world x axis                     [deg]
#   6 Y_WORLD                Barycenter position along world y axis                     [deg]
#   7 A_WORLD                Profile RMS along major axis (world units)                 [deg]
#   8 B_WORLD                Profile RMS along minor axis (world units)                 [deg]
#   9 THETA_WORLD            Position angle (CCW/world-x)                               [deg]
#  10 FWHM_WORLD             FWHM assuming a gaussian core                              [deg]
#  11 ELONGATION             A_IMAGE/B_IMAGE                                           
#  12 ELLIPTICITY            1 - B_IMAGE/A_IMAGE                                       
         1 -13.8211    203.5867     52.4326   3.5630306607e+02   2.9386293951e+01     1.062121    0.9353088  24.15   0.00444813    1.637    0.389
         2 -12.8551    237.1471     28.8576   3.4864416254e+02   2.6206151891e+01    0.8213379    0.3890472 -27.53  0.004538499    2.259    0.557
         3 -12.9837    231.2285     27.4671   3.4870446254e+02   2.7385385264e+01    0.8253497    0.4132431 -25.59  0.004554359    2.296    0.564
         4 -11.3299    245.4169     11.7395   3.4486274992e+02   2.6669598470e+01    0.2593973    0.1075656 -43.65  0.001370163    1.614    0.380
         5 -10.3181     19.7978      5.1873   2.3917950108e+01   7.6310846954e+01    0.1798713     0.133785  11.86  0.001082762    1.347    0.257
         6  -9.3792    125.3296    237.4698   4.7309827066e+01   8.7795648984e+00     0.182241    0.1131666 -52.15 0.0009125708    1.853    0.460
         7  -9.9432    101.4679    250.1618   5.3906524778e+01   9.2348022215e+00    0.2007732    0.1793902  25.15 0.0009321243    1.125    0.111
         8 -10.4100    100.6475    245.6657   5.3633245770e+01   1.0109085836e+01     0.349805    0.2557393  74.99  0.002104196    2.002    0.501
         9 -11.6013     76.1252    245.0142   5.9078813256e+01   1.2886114516e+01     0.299377    0.2199427 -51.01   0.00051343    1.597    0.374
        10 -14.7541     69.9934    148.5079   4.9034955419e+01   3.5756532646e+01     4.538843     2.321814 -77.54   0.01657228    2.608    0.617
        11  -9.3624    124.7565    206.9611   4.3398752459e+01   1.4479788722e+01    0.1636989    0.1092817 -48.91 0.0004719044    1.575    0.365
        12 -10.1102    117.5030    200.5049   4.4164817816e+01   1.6733071541e+01    0.1335967    0.1227161  19.38 0.0008099804    1.058    0.055
        13 -10.5852    192.4419    194.2066   2.7386220098e+01   8.1007476910e+00    0.5530121    0.2907327 -60.99  0.001922631    5.879    0.830
        14  -9.0646     74.4173    194.1112   5.4292823900e+01   2.3775996553e+01    0.1902515     0.136165 -66.37  0.000364639    1.497    0.332
        15 -13.8057     20.7185    195.4766   6.9139270401e+01   2.9212395165e+01    0.4288961    0.3275456  57.76  0.001223793    1.168    0.144
        16  -8.5307    234.4815    191.4310   2.0088298707e+01   3.7596887267e+00    0.1116822   0.08323348 -20.75 0.0001330961    1.022    0.022
        17  -9.5056     69.9554    184.8201   5.4368686846e+01   2.6544317142e+01    0.2293863    0.1981238 -79.24 0.0006420805    1.222    0.182
        18  -9.0263    107.7392    235.7772   5.0989535504e+01   1.1088518176e+01    0.2268516   0.09258707 -49.65  0.001053042    2.637    0.621
        19  -8.9418     97.5241    182.4956   4.6506035489e+01   2.3405057524e+01    0.1404902    0.1340122  22.51 7.614789e-05    1.011    0.010
        20 -12.3222    127.9762    229.5385   4.5746866880e+01   9.8614594818e+00    0.7453706    0.4434052  29.50  0.004180958    1.481    0.325
        21  -9.9940    174.8446    179.8092   2.8177158619e+01   1.2838724964e+01    0.2451249    0.1657269 -39.05 0.0006246049    1.351    0.260
        22 -11.1264    180.1871    166.8530   2.4773959835e+01   1.4414889816e+01    0.6778445    0.4652478 -43.37  0.003833896    1.365    0.268
        23 -10.8603    171.8020    175.4338   2.7983437891e+01   1.4056253856e+01    0.3534488    0.2634973 -45.93 0.0007998278    1.360    0.265
        24 -11.1292    173.9625    171.8444   2.6900004748e+01   1.4404718814e+01    0.4230107    0.3413503 -69.12  0.002136041    1.785    0.440
        25 -18.6749     11.1396    223.0222   7.2999631045e+01   2.3684409233e+01      7.41139     4.070445 -81.32   0.02170541    1.896    0.473
        26  -9.2006     81.0418    214.8254   5.4968797721e+01   1.8353172714e+01    0.1972853    0.1556228  46.38 0.0004568173    1.232    0.188
        27 -10.9600    104.6255    172.0368   4.2942199488e+01   2.4793975848e+01     0.328595    0.2785813 -76.11 0.0006640353    1.344    0.256
        28 -11.2088    111.8030    168.9272   4.0515139326e+01   2.4423548828e+01     0.650855    0.3801815 -78.62  0.002438036    3.094    0.677
        29 -11.0768    133.8941    146.9377   3.0692983343e+01   2.5756643529e+01    0.8313392    0.2702734 -54.95  0.002505083    3.863    0.741
        30 -10.4478    133.0000    140.4883   2.9540540241e+01   2.7324486384e+01    0.4862084    0.1982452 -55.68  0.001674971    2.892    0.654
        31 -10.7631     81.9370    150.0562   4.5577578157e+01   3.3598266848e+01    0.2596024    0.2518634   4.19 0.0003484432    1.065    0.061
        32 -11.6805    136.2326    227.6059   4.3706206627e+01   9.2312654207e+00    0.3808877    0.1976179  16.31  0.001898408    1.959    0.490
        33  -9.6642     71.9486    232.7576   5.8968637783e+01   1.5698660403e+01    0.2430489    0.1837877  38.81 0.0009440975    1.157    0.135
        34 -11.6348     89.1101    144.2531   4.2312869189e+01   3.3952415704e+01    0.6694203    0.4939359 -26.55  0.003105329    1.626    0.385
        35 -10.0289     32.4306    144.9880   6.1089118234e+01   4.1313144056e+01    0.4781975     0.256773  42.33  0.002062069    1.812    0.448
        36  -8.4714    116.4847    144.4630   3.4585058281e+01   2.9317781767e+01    0.1463723    0.1443398 -57.07 0.0001516147    1.043    0.042
        37 -10.1164    146.8715    143.0993   2.6862140314e+01   2.4334593406e+01     0.215898    0.1968199 -67.07 0.0009934355    1.222    0.182
        38  -9.6714     24.8018    137.1362   6.2856574485e+01   4.4215881478e+01    0.3662163    0.1846257  31.67  0.001465064    1.923    0.480
        39 -10.8593    103.1836    132.8468   3.5779220000e+01   3.4401121537e+01     0.550629    0.3673715 -21.21  0.002274874    2.136    0.532
        40 -11.5866     90.8912    131.8201   3.9225118738e+01   3.6789367104e+01    0.5651677    0.4207371  61.87  0.002615496    1.565    0.361
        41 -10.8036     43.5027    130.6802   5.5134391967e+01   4.4058093318e+01    0.4322213     0.313765 -63.90  0.001109258    1.317    0.240
        42  -9.7157     38.9813    128.0480   5.6390490035e+01   4.5307674673e+01    0.3533973    0.1770253  38.77 0.0008175537    1.962    0.490
        43  -9.7787    136.0000    129.5387   2.6382603809e+01   2.9165915502e+01    0.3242724   0.08028506 -47.25 0.0009206551    3.822    0.738
        44 -12.5150    148.6437    228.3019   4.1184249527e+01   7.6655557282e+00    0.7484285    0.2565091  25.23  0.003164001    2.807    0.644
        45 -10.8757    111.9731    126.0516   3.1751599866e+01   3.4427260479e+01    0.3822643    0.3078783  -2.71  0.001018946    1.556    0.357
        46 -10.1296     79.3409    126.0617   4.1667622899e+01   4.0190854868e+01    0.5157266    0.2850606  61.36  0.001811876    2.724    0.633
        47 -10.3203     45.0120    123.9912   5.3452609995e+01   4.5721334216e+01    0.2660996    0.2514302 -64.08  0.001446396    1.039    0.037
        48 -10.8442    116.8131    121.6840   2.9398075798e+01   3.4528989484e+01    0.2716838    0.2246323 -52.20   0.00102443    1.174    0.148
        49 -10.3801     98.9275    121.2363   3.4381183683e+01   3.7984957929e+01    0.3083589    0.2564713   8.65 0.0008833794    1.425    0.298
        50  -9.8683     71.5449    226.5564   5.8495044040e+01   1.6996208852e+01    0.2324926    0.2063079  85.53 0.0004842509    1.276    0.216
        51 -12.2160    159.5594    225.0559   3.8503652223e+01   6.9468140919e+00     0.560446    0.3715825  -5.98  0.003343421    1.503    0.335
        52 -10.5580     54.0325    118.1644   4.8954881256e+01   4.6138565105e+01    0.3411823    0.2249789 -69.92  0.001020507    1.541    0.351
        53  -9.9091    107.9299    116.0120   3.0475257236e+01   3.7540033755e+01    0.2294249    0.2203613 -54.65 0.0003526439    1.010    0.010
        54  -9.9165     40.1320    113.5924   5.3474781644e+01   4.9172966090e+01    0.2707357    0.2175459  66.45 0.0003503864    1.333    0.250
        55 -11.5565     33.4375    109.5165   5.5463113956e+01   5.1054522588e+01    0.6764609    0.2997208 -58.27  0.002633756    2.023    0.506
        56 -10.6626     53.3703    111.4049   4.7803497047e+01   4.8054168459e+01    0.4627372    0.2192673  44.45  0.001736746    2.242    0.554
        57 -11.7051    115.3476    108.7160   2.6559272292e+01   3.7755320307e+01    0.4532535    0.3310204  63.32  0.002099308    1.612    0.380
        58  -9.3596    112.1601    216.9839   4.7702232353e+01   1.4113375907e+01    0.2184274    0.1713616 -48.73  0.001047625    1.389    0.280
        59 -10.0886     38.7442    103.7699   5.2129096743e+01   5.2025108717e+01     0.340627    0.1845821  37.70 0.0009627166    1.863    0.463
        60 -11.5197     33.6925    100.8158   5.3699578902e+01   5.3411853494e+01    0.5741446     0.408069  55.29  0.001518026    1.556    0.357
        61  -9.9721     71.6472    223.2465   5.8155921217e+01   1.7668460090e+01    0.2473702    0.1799487 -57.60 0.0006699171    1.540    0.351
        62 -11.3896    114.8417     95.5268   2.3143874468e+01   4.0753724820e+01    0.4204889    0.2731976  66.89  0.001774865    2.002    0.501
        63  -9.8117    102.9435     92.1514   2.5532547028e+01   4.3975038662e+01    0.5161406    0.3230476  84.75  0.001778925    3.249    0.692
        64 -10.8286     58.3231     93.1958   4.1459730510e+01   5.2086752684e+01    0.5643144    0.1513262  41.10  0.001631936    3.736    0.732
        65 -10.4590     14.9780     89.4992   6.0171442297e+01   5.8261055288e+01    0.3322855    0.1130279  27.10  0.001207389    2.812    0.644
        66  -9.5952    184.4789     77.0035   4.4024336747e+00   2.9535085604e+01    0.1979184    0.1877145  -0.96 0.0007557312    1.309    0.236
        67 -10.4250    180.6616     76.2890   4.7653802802e+00   3.0410979042e+01    0.3972659    0.1512603 -52.66  0.001254687    2.975    0.664
        68  -9.1918     80.8630     75.8512   2.7621173539e+01   5.2100180859e+01    0.2085887    0.1776603  76.04 0.0004832397    1.323    0.244
        69 -11.2295     31.6908     72.7207   4.7956030924e+01   6.1020972629e+01    0.3469997    0.2595395   7.41 0.0007982373    1.467    0.318
        70  -8.5118    133.5249     69.5413   1.1083448897e+01   4.1723073785e+01    0.1462811    0.1323568 -71.05 6.062402e-05    1.046    0.044
        71 -12.3484    186.7473     64.5443   1.0592889584e+00   3.0993361116e+01    0.4736556    0.4016155 -33.89 0.0008517348    1.240    0.194
        72 -10.8751     44.6750     65.6297   3.9226334925e+01   6.0949819623e+01    0.4489781    0.1923895 -46.92  0.001721673    2.287    0.563
        73  -8.6821    125.0000    244.0108   4.8157572996e+01   7.7048587086e+00    0.1745466   0.06812697 -54.17  0.000807327    2.976    0.664
        74 -12.5870    209.4931     47.8483   3.5470316029e+02   2.8867364799e+01    0.4648776     0.392139 -39.97  0.001264659    1.219    0.179
        75  -9.4757    185.3341     56.2807   3.5919098009e+02   3.2482640894e+01     0.116229    0.1010369  22.81 0.0002275659    1.613    0.380
        76  -9.9610     38.1884     53.7341   3.8245724881e+01   6.4621405857e+01    0.2392811    0.1933843 -63.25 0.0006890454    1.373    0.272
        77  -8.8522     48.3905     52.1438   3.2404659881e+01   6.3307255424e+01      0.19103    0.1360278 -60.11 0.0006467431    1.618    0.382
        78 -11.0929    105.9900    214.1312   4.8791619588e+01   1.5447254488e+01    0.4076647     0.235284 -50.16  0.001233292    1.841    0.457
        79 -10.6249     69.5972    243.4706   6.0439118538e+01   1.3868049453e+01    0.2208194    0.1870807  -0.08 0.0005804971    1.271    0.213
        80 -10.3152    102.7543    238.4114   5.2401409802e+01   1.1175759660e+01    0.3520748    0.1564699 -53.50   0.00109808    2.485    0.598
        81  -9.7423     60.9880     21.5139   1.2532861861e+01   6.6032452332e+01     0.254086    0.2066141  82.96 0.0009890628    1.454    0.312
        82 -10.9421     34.6465     15.5735   2.1391548500e+01   7.2237626762e+01    0.2898271    0.1840719  50.11  0.001526042    1.581    0.368
        83  -9.0996    189.4872     15.0199   3.4857465838e+02   3.6749313447e+01     0.176475    0.1014292 -36.62 0.0006107099    1.552    0.356
        84  -8.8104     70.2769    239.2843   5.9932460361e+01   1.4598231276e+01    0.1148517   0.08938045 -12.89 0.0002258613    1.510    0.338
