#   1 NUMBER                 Running object number                                     
#   2 MAG_AUTO               Kron-like elliptical aperture magnitude                    [mag]
#   3 X_IMAGE                Object position along x                                    [pixel]
#   4 Y_IMAGE                Object position along y                                    [pixel]
#   5 X_WORLD                Barycenter position along world x axis                     [deg]
#   6 Y_WORLD                Barycenter position along world y axis                     [deg]
#   7 A_WORLD                Profile RMS along major axis (world units)                 [deg]
#   8 B_WORLD                Profile RMS along minor axis (world units)                 [deg]
#   9 THETA_WORLD            Position angle (CCW/world-x)                               [deg]
#  10 FWHM_WORLD             FWHM assuming a gaussian core                              [deg]
#  11 ELONGATION             A_IMAGE/B_IMAGE                                           
#  12 ELLIPTICITY            1 - B_IMAGE/A_IMAGE                                       
         1 -13.2269     30.9580     10.3122   9.2755128536e+01   6.8150637291e+01     1.161504      0.49686 -23.27  0.006302283    2.415    0.586
         2 -14.5662      5.1790     76.1512   1.2532704706e+02   5.9877781996e+01     2.651059      1.64115 -75.56   0.01503661    2.036    0.509
         3 -15.5433      8.7868     27.3214   1.0955780207e+02   6.8289003059e+01      2.61139    0.9726805 -40.18   0.01414538    2.203    0.546
         4 -14.5413     44.2369     41.5671   9.9701175690e+01   6.2459222364e+01     1.865179     1.252184 -18.71   0.01148188    1.375    0.273
         5 -15.6313     52.6910     70.8222   1.0619874078e+02   5.6452645128e+01     3.741207     2.437684   6.09   0.01902661    1.768    0.434
         6 -13.6379     24.1110     49.5161   1.1053664950e+02   6.3446858247e+01     1.221622    0.7376695 -15.50  0.007039932    1.632    0.387
         7 -14.9971     76.2363     63.9683   9.5918836289e+01   5.4160213222e+01     2.896791     1.922797 -38.24   0.01554792    1.499    0.333
         8 -11.7384    149.4198      8.2767   6.1507920292e+01   4.5889370088e+01    0.6614743    0.3112789  75.62  0.003106486    2.081    0.519
         9 -13.0227    138.3454      4.2258   6.2063299601e+01   4.8706452146e+01     2.335463    0.1382883  58.56  0.007266045    4.821    0.793
        10 -11.7953     73.3039      1.4977   7.4551099895e+01   6.2299940085e+01    0.2632116    0.1167275  52.26 0.0006044413    1.875    0.467
        11 -12.8504     80.6852     31.8003   8.3564394581e+01   5.8015114410e+01    0.7784485    0.5280457  47.56   0.00252351    1.415    0.293
        12 -13.6693    123.6386     10.2656   6.6236099939e+01   5.1432297959e+01     1.507507    0.5569517  50.07  0.000620368    2.222    0.550
        13 -13.3690     83.5896     22.4340   7.9386927283e+01   5.8517189541e+01    0.8835303    0.5373116  52.69  0.001906191    1.571    0.363
        14 -12.3762     75.7667     13.4531   7.8341448906e+01   6.0846951220e+01    0.3363487    0.2971336  46.63 0.0009683221    1.256    0.204
        15 -14.2143     86.1132     11.9317   7.4963653739e+01   5.9043336995e+01     2.271207    0.6257988  56.97  0.007424088    3.541    0.718
        16 -14.2708     96.3558     71.6042   9.2058999745e+01   4.9241709010e+01     1.383742     1.079295  10.38  0.002513439    1.418    0.295
        17 -11.9607    150.9356     20.9561   6.4618706189e+01   4.4325629220e+01    0.5203902    0.4193698  55.35  0.001924227    1.161    0.139
        18 -12.0951    176.0853     12.2036   5.8977932172e+01   3.9508678666e+01    0.7638252    0.4665491  22.44  0.003689449    3.240    0.691
        19 -11.5218    170.1066     10.5415   5.9314642736e+01   4.1019057539e+01    0.3720569    0.2412107  77.06    0.0020299    1.311    0.237
        20 -12.9726    185.8993     13.0866   5.8041500527e+01   3.7218049650e+01    0.7150968    0.5211975 -49.96  0.003719854    1.426    0.299
        21 -12.5514    192.0431      5.8427   5.5802934418e+01   3.6591635162e+01    0.5879252     0.428218 -85.61  0.002489176    1.152    0.132
        22 -11.5323     64.6081     17.6935   8.3354084177e+01   6.2394393769e+01    0.4044905    0.2530149  29.41  0.001393267    1.386    0.279
        23 -10.0020    132.8247     14.8575   6.5936348920e+01   4.9000514131e+01    0.3328947    0.1200512 -41.84  0.001424085    3.270    0.694
        24 -14.5714     84.6914      3.6974   7.2389923565e+01   5.9996417572e+01      3.32485    0.5738902  58.46  0.009899509    6.072    0.835
        25 -10.3913     49.0608      4.1699   8.3163728168e+01   6.6189860654e+01    0.2207676    0.1708592  41.16  0.001029776    1.370    0.270
        26 -10.7375    168.0057      2.5925   5.7680340627e+01   4.2228570715e+01    0.2377958     0.214898 -84.35  0.001356499    1.163    0.140
        27  -9.3669    212.0002      1.5057   5.3087028829e+01   3.2722944119e+01    0.1710852   0.09272025  77.42 0.0005445724    1.521    0.343
        28  -9.7632    141.0100     33.1600   6.9653168946e+01   4.5242587534e+01    0.2852107    0.1869027 -23.10  0.001530839    1.862    0.463
        29 -11.8418    152.4242     88.4022   8.2530036786e+01   3.4223100960e+01    0.4486195    0.3275088  64.82  0.001320186    1.443    0.307
        30 -11.0820     18.8673    153.8671   1.3427327496e+02   4.1093121675e+01    0.2091325    0.1561607 -55.58  0.001240877    1.242    0.195
        31 -11.4880    116.8960     67.6132   8.5150548860e+01   4.5770974051e+01    0.8394577    0.5217854  -1.53  0.003305156    2.999    0.667
        32 -12.9575    126.7307     72.9168   8.4225874135e+01   4.2762115623e+01     1.835178    0.6347763  42.73  0.006201899    3.086    0.676
        33 -12.2100    114.3120     96.8382   9.4293054482e+01   4.0903667570e+01     1.283217    0.7914395 -18.44  0.003020167    2.566    0.610
        34 -12.9103    128.1369     81.8536   8.6437771194e+01   4.0878248370e+01     1.563818    0.8125004 -22.45  0.005002794    3.372    0.703
        35 -13.2034    122.1339     80.5243   8.7585142052e+01   4.2417919504e+01     1.200627     0.962348  25.53  0.006238187    1.363    0.267
        36 -11.0903    188.0459     93.3559   7.6667194211e+01   2.5134965072e+01    0.5328957    0.3344696 -56.23  0.002448594    1.634    0.388
        37  -9.3956    203.2746     94.0381   7.4196075062e+01   2.1605207288e+01    0.2007176    0.1754951 -65.46 0.0005814298    1.037    0.036
        38 -12.1079    248.8162     85.5535   6.5925250432e+01   1.3647552976e+01    0.5555195    0.3322425 -53.79  0.001987117    1.416    0.294
        39  -9.1005    214.3239     88.2697   7.1150159161e+01   2.0225533133e+01    0.1261297    0.1113726  21.74            0    1.571    0.364
        40 -10.4719    171.6822     84.6209   7.7570150208e+01   3.0472946377e+01    0.2711678    0.1891463  69.60  0.001296369    1.522    0.343
        41 -10.7424    177.2591     82.6395   7.6018172815e+01   2.9535523294e+01    0.5020587    0.2146341  62.79  0.001834147    2.683    0.627
        42 -11.3409    164.0436     84.3157   7.9002770741e+01   3.2294473606e+01    0.4142848    0.3028869 -24.49  0.001990798    1.690    0.408
        43 -11.1195     64.3712    102.3262   1.1093123035e+02   4.8418706595e+01    0.4766036    0.2539552  29.96  0.002150274    2.045    0.511
        44 -10.6301    195.9705     75.8435   7.1159344582e+01   2.6415136670e+01    0.3895625    0.2441323 -63.08  0.001517983    1.720    0.419
        45 -10.6753    162.2975     76.7822   7.7394535913e+01   3.4020084433e+01    0.2982109    0.1920855  45.70  0.001095914    1.618    0.382
        46 -10.0865    234.6475     75.9226   6.5721806729e+01   1.8039122514e+01    0.2535253    0.1830629  84.24  0.001453226    1.405    0.288
        47 -10.3940    250.1694     74.5187   6.3602713943e+01   1.5181724221e+01     0.239554    0.1600134 -31.48  0.001265885    1.880    0.468
        48 -10.0577    201.8269     75.2670   7.0112556850e+01   2.5192644678e+01    0.2568371    0.1821177  46.65  0.001324907    1.654    0.396
        49 -11.0026    170.2916     72.3634   7.4718417682e+01   3.2905702090e+01    0.4912931    0.3234273  78.33  0.002297035    1.767    0.434
        50 -10.7991    182.6402     72.0176   7.2438027416e+01   3.0099202754e+01    0.2495946    0.1943016  67.04 0.0003012789    1.236    0.191
        51 -11.4458    214.5955     61.3631   6.5203986759e+01   2.4583543119e+01    0.3970016    0.3341362 -39.87  0.001456734    1.352    0.260
        52 -10.8117    170.1733     62.9947   7.2350277437e+01   3.4433868975e+01    0.3257455    0.2419367  54.87 0.0007759948    1.312    0.238
        53 -10.4254    165.9755     62.9699   7.3098465821e+01   3.5415709118e+01    0.2265407    0.1900177  67.63 0.0003845982    1.115    0.103
        54  -9.3148    117.3076     61.3064   8.3146513216e+01   4.6693516690e+01    0.1406532    0.1044869  18.17 0.0002801209    1.610    0.379
        55 -12.1187     58.6684    144.5164   1.2186860065e+02   3.9119933982e+01     1.190151    0.4801857  51.36  0.004051453    3.640    0.725
        56 -12.2393    124.6294     57.4409   8.0187134509e+01   4.5698025218e+01    0.3863531    0.2837155  52.60  0.001339807    1.274    0.215
        57 -11.1003    174.6843     56.4256   6.9917994479e+01   3.4376819274e+01    0.2570907     0.215782 -85.77  0.000491957    1.143    0.125
        58 -10.9563    146.9020     66.5768   7.7812385737e+01   3.9271392594e+01    0.3440556    0.3173227  35.47  0.001155828    1.152    0.132
        59 -11.9990    134.2294     53.8925   7.6954342218e+01   4.4083371532e+01    0.5491519    0.3044018  61.90  0.001415826    1.837    0.456
        60  -9.9211    209.6195     54.9620   6.4454575981e+01   2.6636781825e+01    0.2410634    0.1664413  53.13 0.0007925631    1.628    0.386
        61 -10.1272    153.0314     53.7671   7.3076904098e+01   3.9799314584e+01    0.2792579    0.2417873  75.75   0.00103385    1.097    0.088
        62  -9.9380    156.3265     52.3112   7.2066874365e+01   3.9243065147e+01    0.2566775    0.2028329  66.71  0.001259886    1.169    0.145
        63 -11.4989    145.2400     50.0579   7.3572498676e+01   4.2119540076e+01    0.4369836    0.2917497 -44.64  0.001424261    1.611    0.379
        64  -9.1291    213.2115     50.5912   6.3054504907e+01   2.6482385249e+01    0.1759806    0.1105164  58.49 0.0009423505    1.645    0.392
        65 -10.2056    137.2927     47.9935   7.4601041993e+01   4.4215734849e+01    0.2786772    0.2197116 -49.27  0.001142299    1.393    0.282
        66 -10.6621    139.7074     43.8091   7.2914756798e+01   4.4224132381e+01    0.3844966    0.2488905  60.56  0.001393145    1.412    0.292
        67 -11.2257    175.5106     46.3394   6.7277611593e+01   3.5615563634e+01    0.4899649    0.3630006  34.09  0.001876743    1.783    0.439
        68 -10.6236    181.5366     43.3615   6.5645420155e+01   3.4625576420e+01    0.3372609    0.2156125  62.75 0.0006774733    1.428    0.300
        69  -9.3919    126.5744     48.0977   7.6950930310e+01   4.6602410879e+01    0.1905943    0.1330394 -33.58 0.0008229229    1.564    0.361
        70 -11.7545    157.4303     43.6582   6.9565796882e+01   4.0168764600e+01    0.3286968    0.2457959  56.14 0.0007134785    1.237    0.191
        71 -10.9391    122.3225     43.5166   7.6535723595e+01   4.8146437827e+01    0.2375548    0.2192567  19.96 0.0006309386    1.126    0.112
        72 -13.2895    210.7185     39.0437   6.0881888178e+01   2.8624036392e+01     1.615015    0.4072239  62.82  0.006021937    3.455    0.711
        73 -11.0667    197.1961     41.1413   6.2985811276e+01   3.1351741019e+01    0.3125329    0.2297471 -55.10  0.001041274    1.309    0.236
        74 -10.3914    188.6173     40.2756   6.3919672173e+01   3.3411447311e+01    0.3111159    0.1904694 -58.01   0.00128521    1.665    0.400
        75  -9.4218    172.3354     40.2899   6.6267123406e+01   3.7153219599e+01     0.130466   0.09565304  40.46 0.0007021192    1.635    0.388
        76  -8.8757     90.2483     40.6149   8.3818232319e+01   5.5131908805e+01    0.1187661    0.1000315 -63.47 0.0006948527    1.659    0.397
        77 -10.1441    160.0457     36.3460   6.7204003913e+01   4.0493025116e+01    0.1900517    0.1758238  48.63 0.0003657299    1.190    0.159
        78  -8.8333    130.4594     37.4327   7.2949906251e+01   4.7111614877e+01    0.1311014    0.1166171  59.71  0.000112275    1.032    0.031
        79 -10.3471    240.4354     34.4284   5.6905664839e+01   2.2971604176e+01    0.2033925    0.1778471  80.25 0.0007820035    1.325    0.246
        80 -12.8351     47.8758    141.8472   1.2447460769e+02   4.1122228062e+01    0.7599334     0.561062 -21.21  0.003980763    1.714    0.417
        81 -11.2128     75.9325    139.4767   1.1591608097e+02   3.7942926249e+01    0.7045231    0.2059291 -53.27   0.00227628    2.975    0.664
        82 -12.2399     34.8720    135.5606   1.2714272397e+02   4.4090001994e+01    0.5158436    0.2662085  16.08  0.002329568    2.627    0.619
        83 -11.5289     82.0358    134.0151   1.1297832607e+02   3.8340163465e+01    0.3717252    0.2785008 -80.43  0.001776575    1.589    0.371
        84  -9.9200     21.7505    133.6168   1.3062233014e+02   4.5780083793e+01    0.2128545    0.1680113  43.31   0.00129507    1.482    0.325
        85 -11.3736    122.5278    127.7680   1.0013612965e+02   3.2450493308e+01    0.5351901    0.4662558  89.85  0.001638014    1.298    0.229
        86  -9.6863     87.0000    129.9531   1.1061941646e+02   3.8520393717e+01    0.2585284   0.08153663 -53.55  0.000807611    2.978    0.664
        87 -12.3339    190.9948    113.0884   8.0816651764e+01   2.0690555971e+01    0.5380525    0.4841438 -20.38  0.002331191    1.290    0.225
        88 -10.3068     97.1654     33.6696   7.9568829070e+01   5.4638863581e+01    0.2667158    0.1931337  35.59 0.0007953023    1.243    0.195
        89 -10.7109    151.0511     32.0451   6.7563740512e+01   4.3079422639e+01    0.5107485     0.201179  56.55  0.002222558    2.144    0.534
        90 -10.2551    109.1393     28.3247   7.4835216127e+01   5.2788816618e+01    0.3495322    0.1913872  35.71  0.001547913    1.897    0.473
        91  -9.8996    104.0246     29.5245   7.6447726907e+01   5.3721396334e+01    0.3014469    0.1732373  63.40  0.001208821    1.915    0.478
        92  -9.9785    216.3491     28.3020   5.8031878921e+01   2.8781573005e+01    0.1907449    0.1735354  84.52  0.000644047    1.266    0.210
        93  -9.8168    168.6594     27.8797   6.3729830006e+01   3.9514052670e+01    0.2385888    0.1481339  58.86  0.001127324    1.442    0.307
        94  -9.5023    162.5504    117.4946   8.7748132707e+01   2.6121685452e+01    0.1540474    0.1481001 -64.37 0.0003014643    1.011    0.011
        95  -8.6766    124.6822     26.7102   7.0947161097e+01   4.9616801883e+01    0.1308671   0.08622602  35.51 0.0003920611    1.597    0.374
        96 -11.9238    240.6609     22.5741   5.4681735387e+01   2.4436357209e+01    0.6137633    0.2876265  88.17  0.002497145    2.184    0.542
        97 -11.9271    148.1391    114.5047   9.0318842891e+01   2.9960933951e+01    0.4443735    0.3408796 -37.73  0.002112643    1.340    0.254
        98 -10.5461    139.7316     20.5959   6.6361410847e+01   4.6899156519e+01    0.3028252    0.2063433  61.97 0.0009264119    1.244    0.196
        99 -11.1483    208.9898     18.7322   5.6813879042e+01   3.1512869826e+01    0.3058158    0.2303836 -81.21  0.001038117    1.094    0.086
       100 -12.7975    178.3739    104.1402   8.1118331308e+01   2.5277554316e+01    0.7446315    0.5518202  63.36  0.003637064    1.408    0.290
       101 -11.8501    170.6544    102.3497   8.2236905664e+01   2.7381493081e+01    0.4865332    0.3295166 -54.65  0.001902402    1.506    0.336
       102 -12.2379     94.5192     51.9670   8.6367161008e+01   5.2745833992e+01    0.8546523    0.3507946  32.96  0.001240564    3.246    0.692
       103 -10.8152    194.5260    249.1515   1.0779165787e+02  -7.0146357364e+00    0.2491153    0.1378501  16.42  0.001151811    2.260    0.558
       104 -10.0225    222.0921     19.2653   5.5671804407e+01   2.8651988370e+01    0.2348779    0.1365332 -84.48  0.001350068    1.582    0.368
       105  -9.6446    201.3435    236.3192   1.0427089039e+02  -5.9129875247e+00    0.1379424   0.09362742  -1.36 0.0007049503    1.722    0.419
       106 -10.2259      2.1566    171.1486   1.4030850697e+02   3.8283150342e+01    0.1787177    0.1211861  81.69 0.0009632003    1.343    0.255
       107  -8.8676    208.5500    161.4595   8.8287873308e+01   7.1725504962e+00    0.1463908      0.13376 -36.12 9.936721e-05    1.013    0.012
       108 -10.1248    201.2504     11.4471   5.6071128741e+01   3.4000564892e+01    0.2946303    0.1023965  73.75   0.00129555    2.590    0.614
       109 -11.5855    176.5656     33.2986   6.3930927657e+01   3.7056125399e+01    0.3004289     0.219118  72.72 0.0005121853    1.204    0.169
       110 -10.7195     29.3912    153.7671   1.3148424271e+02   4.0143490299e+01     0.254591    0.1440689 -60.29 0.0009318894    1.473    0.321
       111 -13.5139    147.1554     77.3908   8.0724937551e+01   3.7409523082e+01     1.338246     1.076709  16.69  0.005985064    1.586    0.370
       112 -13.9374    139.8505     95.8520   8.7426558028e+01   3.5637153562e+01     1.856305     1.021385  38.28   0.00750789    2.048    0.512
