#   1 NUMBER                 Running object number                                     
#   2 MAG_AUTO               Kron-like elliptical aperture magnitude                    [mag]
#   3 X_IMAGE                Object position along x                                    [pixel]
#   4 Y_IMAGE                Object position along y                                    [pixel]
#   5 X_WORLD                Barycenter position along world x axis                     [deg]
#   6 Y_WORLD                Barycenter position along world y axis                     [deg]
#   7 A_WORLD                Profile RMS along major axis (world units)                 [deg]
#   8 B_WORLD                Profile RMS along minor axis (world units)                 [deg]
#   9 THETA_WORLD            Position angle (CCW/world-x)                               [deg]
#  10 FWHM_WORLD             FWHM assuming a gaussian core                              [deg]
#  11 ELONGATION             A_IMAGE/B_IMAGE                                           
#  12 ELLIPTICITY            1 - B_IMAGE/A_IMAGE                                       
         1 -14.3147    200.6915     17.0532   6.4156366409e+01   3.2797461140e+01     2.578226     1.602003  29.89   0.01023829    2.358    0.576
         2 -13.6880    205.7849     10.1922   6.1780088097e+01   3.2242806455e+01     1.409274    0.7146795  49.88  0.001450068    2.197    0.545
         3 -12.1058      2.2923     25.5789   1.2629150418e+02   7.0572720044e+01    0.8140349   0.06152427 -56.68  0.002681267    5.294    0.811
         4 -12.0316      2.2498     14.7817   1.2238328246e+02   7.2514132583e+01    0.4530078     0.253571 -56.26  0.002867119    1.699    0.411
         5 -13.0075      2.4406      5.0963   1.1809176693e+02   7.4118816245e+01    0.7038125    0.5519217 -45.42  0.005422742    1.372    0.271
         6 -10.3953    222.9587    244.4985   1.1214937889e+02  -6.4779351846e+00     0.181001   0.09131896  36.91 0.0006165362    1.586    0.370
         7  -9.6242    205.4776    250.4779   1.1605588874e+02  -4.5347512230e+00    0.1177874   0.08884074  27.63 0.0005006948    1.013    0.013
         8  -9.9328    184.3959    250.3142   1.1975489935e+02  -1.2466112014e+00    0.2011273    0.1219335  32.84 0.0006640452    1.343    0.255
         9 -11.5367    132.5473    224.3456   1.2604548526e+02   1.1129212283e+01    0.4254729    0.2841266  68.24  0.001904588    1.720    0.419
        10 -11.5488    143.3984    244.9435   1.2652432135e+02   6.0515631208e+00    0.5647283    0.1492181  47.78  0.002128138    3.382    0.704
        11 -12.0111    136.1579    227.7905   1.2578132115e+02   9.9480129199e+00    0.5079681    0.3500198 -26.08  0.002766289    2.391    0.582
        12 -11.2670    150.2567    248.5722   1.2570049767e+02   4.4205447150e+00    0.4257416    0.2297593  48.44  0.002424317    1.528    0.346
        13 -10.6214    143.3439    249.0382   1.2701576809e+02   5.4517812258e+00     0.248474    0.1776759  63.05 0.0008155405    1.476    0.322
        14 -11.6648    135.8769    241.0417   1.2745772497e+02   7.8559375374e+00     0.377708     0.256135  17.04  0.001552939    2.215    0.549
        15 -11.8893    135.0082    237.0530   1.2714692527e+02   8.6260633581e+00     0.368478    0.3439771   4.20  0.001053707    1.381    0.276
        16 -10.9270    122.8546    250.0835   1.3085558240e+02   8.5002677381e+00    0.4127003    0.1814151  38.70  0.002129836    1.932    0.482
        17  -9.7252    108.6045    242.7682   1.3270654065e+02   1.1848059000e+01    0.2115837    0.1526183 -85.52  0.001390733    1.588    0.370
        18 -11.5616    121.4989    244.8222   1.3054699614e+02   9.5333352088e+00    0.4430323    0.1712431  46.66   0.00175835    2.011    0.503
        19 -12.2415    126.5292    240.4829   1.2913809751e+02   9.4359806141e+00     0.495317    0.3812616  66.33  0.003314155    1.274    0.215
        20 -11.6015    113.9583    250.0492   1.3245961601e+02   9.8643838011e+00      0.55633    0.3048154  30.79  0.003005928    2.171    0.539
        21 -11.1243    109.9653    247.6502   1.3294417346e+02   1.0848826580e+01    0.3412846    0.2504782  43.99  0.001172143    1.190    0.160
        22 -10.1670    135.8059    250.6276   1.2856695028e+02   6.4046905330e+00    0.1824668    0.1433285  55.69  0.000261149    1.134    0.118
        23 -11.2567    132.2286    248.8357   1.2901873223e+02   7.2345764838e+00    0.3227198     0.186511  58.57  0.001503133    1.720    0.419
        24 -10.9305    103.8761    237.5855   1.3306002184e+02   1.3432586826e+01    0.3697935    0.1490266  50.07  0.001813376    2.023    0.506
        25 -11.9856     98.9325    247.3861   1.3491225662e+02   1.2533449562e+01    0.5894631    0.3790018  55.74  0.003849995    1.216    0.178
        26 -11.7836     96.6330    239.6349   1.3460505353e+02   1.4167040154e+01    0.4210207    0.2800093 -88.24  0.001855794    1.680    0.405
        27 -10.1023     87.9112    250.5212   1.3715154280e+02   1.3606594483e+01    0.4043934    0.1154066  38.46  0.001675903    3.185    0.686
        28 -10.6410     88.1702    247.2928   1.3683206747e+02   1.4103205643e+01    0.2717019    0.1597413  34.23  0.001583327    1.863    0.463
        29 -10.8332     80.8547    245.7573   1.3800556302e+02   1.5388749287e+01    0.5142204    0.2474426  82.80  0.002553273    2.949    0.661
        30 -11.4345     89.8368    236.8482   1.3559862093e+02   1.5642584281e+01    0.2980088    0.2059059  76.32  0.001734242    1.393    0.282
        31 -10.7600     83.5982    242.2497   1.3722017558e+02   1.5601721729e+01     0.200706    0.1536205 -68.70 0.0009810273    1.552    0.356
        32 -10.3699     82.9682    238.4732   1.3700807046e+02   1.6343203855e+01      0.33979    0.1299668  39.49  0.001663469    2.285    0.562
        33  -8.9752     74.5096    250.7084   1.3951002283e+02   1.5427271711e+01    0.2125168   0.07904242  41.47  0.001096986    2.161    0.537
        34 -11.9661     54.9948    196.8308   1.3868405062e+02   2.8120904598e+01      1.11599     1.026665   2.49  0.007741097    1.678    0.404
        35 -14.7707     14.1637    171.6554   1.4516169377e+02   3.7908694994e+01     2.666958    0.8429544 -61.45   0.01237572    2.914    0.657
        36 -13.0178     46.3064    248.6985   1.4418156692e+02   1.9374231721e+01     1.514362    0.4560649  36.94  0.007147235    3.259    0.693
        37 -11.7666     42.7235    237.4281   1.4410391857e+02   2.1772246242e+01    0.2990754    0.2154376  65.04  4.33352e-05    1.031    0.030
        38 -13.1159     43.9962    228.4269   1.4329974591e+02   2.3259019889e+01    0.4339836    0.3697872  64.88 0.0007892022    1.276    0.216
        39 -14.4300     50.8498    217.7851   1.4127521907e+02   2.4438323435e+01     1.555635     1.160186  59.07   0.01093944    1.124    0.110
        40 -14.4937     30.0507    246.2308   1.4673414630e+02   2.1684973566e+01     2.110909     0.923983  34.13   0.01207417    2.640    0.621
        41 -12.4393     13.7324    248.9460   1.4947190692e+02   2.2968803680e+01     0.258703     0.188324  54.17 0.0008873972    1.310    0.237
        42 -13.8808      4.6377    247.7028   1.5083583393e+02   2.4091980615e+01     0.662029    0.4606536  79.06  0.005554687    1.170    0.146
        43 -12.7269      1.4254    241.0250   1.5109020323e+02   2.5547521399e+01    0.3183028    0.1146872 -78.17 0.0004024212    2.453    0.592
        44 -10.6387    152.8474    243.6549   1.2462321711e+02   4.7210837725e+00    0.2024897    0.1772179 -77.55  0.001433484    1.460    0.315
        45 -10.5368    104.5737    245.7446   1.3373709940e+02   1.1966825116e+01    0.2609109    0.1477927  83.51  0.001372011    2.466    0.595
        46 -11.7694    249.6824    241.1717   1.0713883584e+02  -9.9630242609e+00    0.5043899    0.1827998 -31.58  0.002577197    2.976    0.664
        47 -10.4570    165.4104    241.9021   1.2207831179e+02   2.9337533491e+00    0.2843473    0.1479977  33.80 0.0006520219    1.723    0.420
        48 -10.5186    173.1940    239.9059   1.2037387685e+02   1.9452754878e+00     0.236919    0.1945231 -57.56  0.000811693    1.632    0.387
        49 -11.1432    145.5510    240.7566   1.2561844180e+02   6.3377497206e+00    0.3026045    0.1546898  53.14  0.001088171    1.863    0.463
        50 -10.3632    115.8043    239.9554   1.3108116150e+02   1.1205237435e+01    0.2113098    0.1445047  54.13 0.0005877877    1.179    0.152
        51 -10.4981    165.8492    235.4172   1.2112409066e+02   3.8007213179e+00    0.2502827    0.2335709  61.40  0.001459979    1.243    0.196
        52  -9.9701    161.9316    232.9209   1.2151951587e+02   4.8253283928e+00    0.1951383    0.1550512  47.18 0.0006258257    1.111    0.100
        53 -11.2470    129.1647    233.1323   1.2778723790e+02   1.0209648894e+01    0.3700791    0.2478582 -88.87  0.002099143    2.065    0.516
        54 -10.1365     71.3701    233.8376   1.3873738063e+02   1.8771764976e+01      0.31216    0.1648242 -59.91  0.001819098    2.242    0.554
        55 -11.2913    122.2551    232.7797   1.2906590666e+02   1.1381268138e+01    0.3413396    0.2914318  53.27  0.001565324    1.085    0.079
        56  -9.5916     77.6438    232.8599   1.3749843190e+02   1.8084270164e+01    0.3622729    0.1768298  82.17  0.001762416    2.768    0.639
        57 -14.9018      7.8424    210.1073   1.4870227835e+02   3.0608119855e+01     2.478431    0.7940428 -72.61   0.01303727    2.672    0.626
        58 -11.0903    156.6767    231.6467   1.2234305761e+02   5.8994725978e+00    0.2250164    0.1962469  33.85 0.0004892579    1.119    0.106
        59  -9.8753     93.9046    217.5612   1.3288693764e+02   1.8537946005e+01     0.351227    0.1973808  84.04  0.001746099    2.334    0.572
        60 -11.5713    111.3518    230.3099   1.3087487151e+02   1.3531338105e+01    0.4909514    0.3148316  48.10  0.001589533    1.252    0.201
        61 -11.9680     99.5666    230.9221   1.3319354727e+02   1.5240182316e+01    0.5835454    0.3245159  29.90    0.0026344    2.298    0.565
        62 -11.9464     98.6031    223.5133   1.3260238119e+02   1.6717761866e+01    0.4907758    0.2649275  39.54   0.00133523    1.686    0.407
        63  -8.7919     62.3245    233.2354   1.4033882588e+02   2.0084919703e+01   0.09470304   0.08420263  38.72 0.0004864321    1.519    0.342
        64 -10.8848    141.6955    230.9408   1.2511529903e+02   8.5117438399e+00    0.2664136    0.2168982   7.04 0.0008793483    1.654    0.395
        65 -10.6596     92.7354    226.0666   1.3400614443e+02   1.7137197402e+01    0.2622416    0.1625717  54.16 0.0004217272    1.310    0.237
        66 -11.9868    245.7374    240.2648   1.0764543159e+02  -9.3161874439e+00    0.3185456    0.1907253  14.01  0.001997917    1.543    0.352
        67 -10.7520    165.5409    227.1828   1.2002848396e+02   5.0893401873e+00     0.344246    0.2356822 -66.83  0.001603661    2.178    0.541
        68 -11.2052    161.1814    223.1761   1.2029189130e+02   6.4594715465e+00    0.4878688    0.2797388  23.98  0.001954925    2.262    0.558
        69 -10.4382     79.8337    228.1591   1.3666957582e+02   1.8628906596e+01    0.3270482    0.2773014 -24.13  0.002156349    2.053    0.513
        70 -10.1422     78.9731    224.5395   1.3649970251e+02   1.9418149175e+01    0.2582149    0.2125187  -4.51  0.001602467    2.252    0.556
        71 -10.7863     77.6644    221.0625   1.3642596094e+02   2.0254472464e+01    0.2581293    0.1680436  63.80 0.0003932746    1.302    0.232
        72  -9.8487    179.8092    228.3016   1.1748415711e+02   2.5042438666e+00    0.2096732    0.1664777  88.05  0.001111711    1.989    0.497
        73  -8.8811    150.3044    229.6611   1.2329425203e+02   7.2793685532e+00    0.1249387   0.08793858  66.31  0.000301827    1.675    0.403
        74  -9.1656    198.0216    227.6779   1.1400061556e+02  -4.5276682476e-01    0.1767734    0.1379332  30.25 0.0006929102    1.038    0.036
        75  -9.1312    190.8239    228.1638   1.1540502343e+02   6.7577430439e-01      0.16627    0.1244793  20.50 0.0002979225    1.272    0.214
        76 -10.8530    149.5879    222.9373   1.2251712465e+02   8.4867291586e+00    0.3191636    0.2502227   3.19   0.00145225    1.758    0.431
        77 -11.8780    142.1196    221.5782   1.2379758136e+02   9.9870527600e+00    0.3744116    0.3360738  39.09 0.0001070292    1.132    0.116
        78 -11.3179    137.5581    214.6429   1.2375444898e+02   1.1963778653e+01    0.5734176    0.3275804  32.92  0.001343372    1.815    0.449
        79  -8.9968    220.0901    223.6443   1.0935907492e+02  -3.5138576933e+00    0.1748001    0.1342372  44.23  0.001114823    1.419    0.295
        80 -10.7680     84.6360    229.7092   1.3590593199e+02   1.7661917247e+01    0.2600394    0.2178959  68.29  0.001201248    1.114    0.102
        81  -9.8972    110.4779    222.0365   1.3010738458e+02   1.5134616599e+01    0.2863789    0.2025315 -53.81  0.001265363    1.721    0.419
        82 -10.3320    105.3438    219.3652   1.3081533987e+02   1.6433992467e+01     0.347145    0.1924736  69.89 0.0007496934    2.232    0.552
        83 -11.1783     70.5266    219.2448   1.3763765028e+02   2.1592119769e+01    0.4516435    0.2905834 -81.93  0.002521811    1.544    0.352
        84  -9.8225     35.2080    219.0439   1.4427104601e+02   2.6050240753e+01    0.2907857    0.1248734 -60.88 0.0008941152    2.660    0.624
        85  -9.3505     30.8814    218.4564   1.4502170481e+02   2.6646551675e+01    0.2875744   0.09296199  58.65  0.001050571    2.739    0.635
        86  -9.6277    177.7848    220.6003   1.1670377304e+02   3.9941142339e+00    0.1858749    0.1034562  48.09 0.0004560039    1.666    0.400
        87 -10.9181    117.3691    224.3147   1.2901966098e+02   1.3624223874e+01    0.2223797    0.1890939  51.53 0.0002815414    1.089    0.082
        88  -9.0961     89.4951    218.5124   1.3386100897e+02   1.9020684953e+01    0.1251685   0.09943137  62.75 0.0008105424    1.005    0.005
        89  -9.3815    101.1863    216.1622   1.3127829203e+02   1.7681403680e+01    0.1679721    0.1405958  71.57 0.0002809213    1.088    0.081
        90 -10.1729    102.4388    212.3305   1.3058046518e+02   1.8210107444e+01    0.3598867    0.1911988  65.69   0.00170883    2.211    0.548
        91 -10.2357     88.2874    213.1888   1.3353831470e+02   2.0217223643e+01      0.24515    0.1760215  84.99 0.0006460944    1.376    0.273
        92  -9.0601     78.5173    214.5307   1.3562747277e+02   2.1382659816e+01    0.1238927   0.09837253  65.57 0.0008096276    1.005    0.005
        93  -8.8209    151.8916    211.8495   1.2046403426e+02   9.9486567583e+00    0.1809586    0.1394225  60.70 0.0005895065    1.336    0.252
        94  -9.0189    131.6490    212.2811   1.2462455752e+02   1.3399599782e+01    0.1353813   0.08871733  63.85 0.0001843002    1.650    0.394
        95 -10.6966     72.7013    210.0215   1.3634240423e+02   2.3085196182e+01    0.3803739    0.2562934  46.09  0.002338317    1.341    0.254
        96  -9.2542     68.4421    211.5035   1.3733357145e+02   2.3378911618e+01    0.1890166    0.1468406  66.62  0.000668277    1.017    0.017
        97  -9.7017     33.5423    211.4677   1.4407746613e+02   2.7706938051e+01     0.174232    0.1344748  47.51 0.0005619418    1.369    0.269
        98  -9.3863    173.9855    211.2856   1.1597890880e+02   6.1156561162e+00    0.1870618    0.1486624  37.07 0.0002034297    1.071    0.066
        99  -9.8312    135.3988    208.0474   1.2326334666e+02   1.3519616039e+01    0.3077432    0.2182202  26.11   0.00141948    1.650    0.394
       100 -10.2704    108.9315    207.4143   1.2864696549e+02   1.8111787274e+01    0.2514548    0.1755219 -66.51  0.001167279    1.571    0.364
       101  -9.0188    119.5531    208.5588   1.2659976737e+02   1.6137809672e+01    0.1314881    0.1099671  56.92 4.326329e-06    1.010    0.010
       102 -11.5463     92.6930    204.7518   1.3169206545e+02   2.1204203224e+01    0.6098196    0.3597056  48.15  0.001624837    1.452    0.311
       103 -11.5220    247.4351    205.6560   1.0149020233e+02  -5.5483196023e+00    0.4481727    0.2341998  20.46  0.002251519    2.127    0.530
       104 -10.4952    175.3065    205.9121   1.1484374209e+02   6.7497093309e+00    0.4161614     0.254418  23.37  0.001823466    1.953    0.488
       105  -9.5229    125.9601    205.7219   1.2488615609e+02   1.5583803619e+01    0.1922022    0.1499341  50.38 0.0004719538    1.096    0.087
       106  -9.4977    149.4721    204.6468   1.1986252292e+02   1.1639584827e+01    0.2662523    0.1878635 -11.40  0.001300713    2.359    0.576
       107  -9.5715    102.6722    195.7220   1.2845475418e+02   2.1444158791e+01    0.1921195     0.130323 -58.78 0.0003054218    1.604    0.377
       108 -10.8024    102.3438    202.3862   1.2938605999e+02   2.0159119416e+01    0.4332804    0.2237491  57.85  0.001068281    1.947    0.486
       109 -10.6781     98.3780    196.9539   1.2953743898e+02   2.1883790662e+01    0.5226099    0.2309534  49.76  0.001750054    2.033    0.508
       110 -10.3960     37.5591    203.0188   1.4270746046e+02   2.8940515770e+01    0.2457001    0.1617408 -84.46 0.0004760147    1.329    0.248
       111 -10.1988    166.9713    203.2316   1.1607012716e+02   8.7121517837e+00    0.1988326    0.1634905  27.01            0    1.186    0.157
       112 -10.6433    169.6908    200.2007   1.1501662935e+02   8.7300590913e+00    0.2371836    0.2002933  38.13 0.0003210737    1.034    0.033
       113  -9.6431    133.0819    202.8342   1.2298789885e+02   1.4888036041e+01    0.2005717    0.1906671 -84.62 0.0003503099    1.168    0.144
       114 -10.3762    134.0840    197.9441   1.2204722069e+02   1.5633853469e+01    0.2853034    0.1963417 -70.19 0.0003547332    1.767    0.434
       115 -10.5094    112.8397    193.6918   1.2597905639e+02   2.0169140262e+01    0.4429612    0.2712891 -68.39  0.001460013    1.845    0.458
       116 -11.1265    115.2811    200.2239   1.2636716415e+02   1.8457591340e+01    0.2765888    0.2373715 -39.06  0.000240105    1.502    0.334
       117 -10.4366    120.0125    199.1083   1.2520672209e+02   1.7871573108e+01    0.4578834    0.2312153  60.53  0.001464657    2.406    0.584
       118  -9.3145     76.3267    203.1810   1.3490880394e+02   2.3944027319e+01    0.2893178    0.1639329  36.93  0.001546669    1.805    0.446
       119  -9.9126    138.0430    201.7840   1.2179464370e+02   1.4206331665e+01    0.1987996    0.1843503  78.20  0.000345441    1.134    0.118
       120 -10.3487    197.1622    200.6415   1.0966668399e+02   3.6358744795e+00    0.3013062    0.1892376  41.78  0.001593316    1.427    0.299
       121  -8.7621    158.5557    199.4939   1.1717335838e+02   1.0903842562e+01    0.1358469    0.1193306  44.12 8.391943e-05    1.014    0.014
       122  -9.1318     86.2649    199.2937   1.3240102032e+02   2.3280480697e+01    0.1789907     0.162805  85.02  0.000190362    1.174    0.148
       123  -9.6653     85.9679    195.9893   1.3207471070e+02   2.4003541025e+01    0.1970482    0.1584047  68.05 0.0004457915    1.055    0.052
       124 -11.9213     69.0472    194.7701   1.3553972036e+02   2.6695823367e+01    0.4575511    0.3721343  -8.38  0.002440026    2.165    0.538
       125 -11.9103     73.5013    187.6246   1.3378761878e+02   2.7585205395e+01    0.3296252    0.2530705 -60.62 0.0007527311    1.440    0.305
       126  -9.8418     77.3275    188.7404   1.3308167967e+02   2.6799530695e+01    0.1978239    0.1397362  82.85 0.0002311645    1.361    0.265
       127  -9.1059    107.3118    196.0550   1.2750066512e+02   2.0617010880e+01    0.1839625    0.1579925  82.88 0.0006569234    1.126    0.112
       128 -10.8259    120.4999    192.6397   1.2416485687e+02   1.9064991841e+01    0.3680237    0.3058102 -64.54  0.001181261    1.306    0.235
       129  -9.0904    118.0000    190.0119   1.2431944088e+02   2.0028236861e+01    0.1646245    0.1172151 -61.63 0.0003340151    1.517    0.341
       130 -10.6128     38.7009    192.6381   1.4166592741e+02   3.0948811875e+01    0.2737369    0.1606095 -64.64   0.00163193    1.728    0.421
       131  -9.2838     30.7942    194.8145   1.4343302124e+02   3.1367255200e+01     0.163945    0.1003128  63.52 0.0004524023    1.352    0.260
       132 -10.4507    248.6447    193.7238   9.9084266660e+01  -4.2067671821e+00     0.284101    0.1560504  18.41  0.001329091    2.107    0.525
       133  -9.8838    159.9603    194.1370   1.1598987546e+02   1.1601312414e+01    0.2069653    0.1845448  41.60 0.0005015636    1.010    0.010
       134  -9.4060     82.0239    194.2688   1.3271603207e+02   2.4948650492e+01    0.1724907    0.1624462  54.37 0.0002380803    1.270    0.213
       135  -9.2031     84.7085    192.3286   1.3190570629e+02   2.4954034654e+01    0.1606383    0.1181819 -62.19 0.0003472129    1.458    0.314
       136 -10.2614     26.0575    192.9640   1.4424330960e+02   3.2249189639e+01    0.2265341    0.1328286 -89.00 0.0008858353    1.428    0.300
       137  -9.4952     47.5230    192.8673   1.3986860235e+02   2.9871167208e+01    0.1702799    0.1028651 -73.47  0.001000698    1.535    0.349
       138 -13.7191     13.9456    238.9443   1.4901130809e+02   2.4676805900e+01    0.7682915    0.3836837  58.41  0.005302669    1.432    0.302
       139 -10.2214    191.4785    191.4628   1.0911788374e+02   6.1427861052e+00    0.2631086     0.215183  12.73 0.0006508671    1.244    0.196
       140  -9.8156    173.4802    192.0042   1.1283026028e+02   9.4372526809e+00    0.2819237    0.1644384  12.86  0.001037988    3.455    0.711
       141  -9.5814    135.1912    190.0174   1.2057319267e+02   1.6964218221e+01    0.2060415    0.1695064  70.72 0.0005126601    1.254    0.202
       142 -10.6365     31.5718    189.7510   1.4289247484e+02   3.2339406375e+01    0.3873788    0.2362286  54.78  0.001835777    1.419    0.295
       143 -11.1609     25.8124    184.5323   1.4367494428e+02   3.4041615622e+01    0.3088977     0.230611  83.58  0.001398313    1.046    0.044
       144 -10.2666     30.3977    183.2047   1.4261780951e+02   3.3850830411e+01    0.2971066     0.187345  74.86  0.001203848    1.342    0.255
       145 -11.4677    249.7459    187.7433   9.7762168650e+01  -3.5912068237e+00    0.3709145     0.261326  -3.06   0.00220508    1.366    0.268
       146  -9.2808     42.2400    189.1959   1.4064369689e+02   3.1268985707e+01    0.1682929     0.109284  66.67 0.0007645354    1.311    0.237
       147  -9.6924    175.4056    186.6662   1.1147404420e+02   1.0006926714e+01    0.1987226    0.1624641  78.05 0.0006626619    1.599    0.375
       148  -8.9983    150.7010    187.3075   1.1677958411e+02   1.4606188909e+01    0.1382167    0.1049049  73.14  0.000283654    1.594    0.373
       149  -9.1000     67.7853    186.7254   1.3493481752e+02   2.8573825537e+01    0.1768898    0.1536739  31.96 0.0008100497    1.450    0.310
       150  -8.9510     45.2383    186.9897   1.3981627756e+02   3.1388382748e+01    0.1554385   0.08845462 -76.94 0.0005061429    1.584    0.369
       151  -8.8984    154.4995    185.5056   1.1565350775e+02   1.4226855151e+01    0.1407671    0.1269079  43.06 0.0008105992    1.019    0.018
       152 -10.0891    143.4689    184.5659   1.1787243509e+02   1.6497427303e+01    0.2234598    0.1817503 -15.65 0.0006165246    1.639    0.390
       153 -10.4089    140.1429    183.1336   1.1835543097e+02   1.7403579790e+01    0.2568933    0.2184363  53.60 0.0003765451    1.072    0.067
       154  -9.8221     86.2918    183.4999   1.3044511209e+02   2.6588455514e+01    0.3748417    0.1932094  31.14  0.001246507    2.367    0.578
       155  -9.6048     36.9586    184.1235   1.4131372850e+02   3.2947247764e+01    0.2475184    0.1413758  43.89 0.0006184855    1.660    0.398
       156 -10.5705     54.3654    181.9569   1.3735899415e+02   3.1364249837e+01    0.2194491    0.1977254  37.65 0.0004124846    1.399    0.285
       157 -10.6555    236.5641    146.0238   9.1417754295e+01   4.8692741410e+00    0.3681305    0.1939672  42.42  0.001688686    1.947    0.486
       158 -12.5671    248.4957    171.8834   9.4848433474e+01  -1.1934499526e+00    0.7008952    0.5101537 -16.63  0.004119067    1.272    0.214
       159 -13.8073    244.8874    158.1379   9.2618113191e+01   1.4474315413e+00      2.44433    0.8919781 -40.90  0.009622174    2.816    0.645
       160 -12.6539    248.0954    101.6160   7.9485966236e+01   9.5803638322e+00    0.9328407    0.4970559 -31.56  0.004273905    1.740    0.425
       161 -12.0611    247.9966    142.5672   8.8773069819e+01   3.2329791283e+00    0.7218262    0.5654994 -16.79  0.004158294    1.190    0.160
       162 -12.5732    248.4999    134.1417   8.6841084078e+01   4.4326658184e+00     1.071444    0.6511457 -30.30  0.005392466    1.510    0.338
       163  -9.1744    104.0978    180.6753   1.2603117682e+02   2.4344137520e+01    0.1863184    0.1550526  53.74 0.0003541366    1.103    0.094
       164 -13.1185    248.5244    114.0451   8.2300081342e+01   7.5548249706e+00     1.444185     0.655201 -28.56  0.005958281    2.224    0.550
       165  -9.4711    170.0237    180.0268   1.1136258058e+02   1.2246078301e+01    0.2057178    0.1894361  35.63  0.001198965    1.013    0.013
       166  -9.9209    174.9044    179.6927   1.1027858976e+02   1.1351031536e+01    0.3121364    0.1164383  38.43  0.001118343    2.684    0.627
       167 -10.1113    128.9589    179.4964   1.2022406159e+02   2.0215481777e+01    0.2104067    0.1280616  44.30 0.0003900024    1.501    0.334
       168  -9.3902     48.0255    179.6035   1.3851096515e+02   3.2652827162e+01    0.1677007    0.1093148  42.90 0.0005041344    1.524    0.344
       169 -11.5006     82.9068    175.7686   1.3018606587e+02   2.8786231125e+01    0.3455915    0.3247163  64.15   0.00111886    1.183    0.155
       170  -9.3314    115.1166    176.4945   1.2287075708e+02   2.3340124111e+01     0.245234     0.155185 -86.70 0.0009117466    2.185    0.542
       171  -9.0115    109.3122    176.9595   1.2427546332e+02   2.4253123036e+01    0.2227798    0.1104096 -80.95 0.0007045147    4.341    0.770
       172 -11.7861     68.9803    174.1207   1.3318199659e+02   3.1164662520e+01    0.4784848    0.2824954 -55.71  0.002500979    1.803    0.445
       173 -10.8295     68.9829    166.9043   1.3225927056e+02   3.2783406003e+01    0.2448495    0.1986391 -63.42 0.0003236279    1.280    0.219
       174 -10.2251     76.5219    175.2222   1.3158524085e+02   2.9851654353e+01    0.3984713    0.1967794  61.48  0.001435371    2.304    0.566
       175 -10.4098     80.8624    163.8628   1.2899212431e+02   3.1759672117e+01    0.2716891    0.2116549  64.31  0.001550686    1.198    0.165
       176 -10.0694     95.6025    172.8589   1.2682296234e+02   2.7439521751e+01    0.2444951    0.1760522  55.54 0.0004797165    1.287    0.223
       177  -9.8669     91.0094    172.6877   1.2787105380e+02   2.8213920512e+01    0.2638256    0.2026426 -37.30 0.0009034527    1.759    0.431
       178 -12.7292     88.2497    167.0332   1.2768754946e+02   2.9909148450e+01    0.8112084    0.6504691 -64.21  0.004680027    1.258    0.205
       179 -10.8848     90.0222    160.6243   1.2627079774e+02   3.1077779890e+01    0.3420692    0.2346642 -86.32 0.0006456477    1.594    0.373
       180 -11.1618     28.7368    171.2535   1.4197360971e+02   3.6612223163e+01     0.368456    0.2554557 -74.75  0.001229288    1.282    0.220
       181  -9.1663    154.5966    172.4613   1.1325478382e+02   1.6726618366e+01    0.1417689    0.1330872  47.06 5.597785e-05    1.017    0.016
       182 -11.2562      2.1625    168.1905   1.4746341972e+02   3.9657074397e+01    0.5493522    0.1575196 -84.63  0.002331884    3.190    0.686
       183  -8.7703    167.2129    170.0549   1.1004414257e+02   1.4673145433e+01    0.1866003    0.1183624 -43.35 0.0008661212    1.696    0.410
       184  -9.1228    100.5490    170.4989   1.2530176062e+02   2.7144535957e+01     0.139888    0.1232393  73.90 -1.110209e-05    1.021    0.020
       185 -10.5607     43.6536    168.9817   1.3841007072e+02   3.5511204813e+01     0.308458    0.2324322 -55.51   0.00147843    1.527    0.345
       186 -10.2399     48.3859    168.8752   1.3731386364e+02   3.4984177727e+01    0.2729553      0.19387  65.96  0.001655159    1.268    0.211
       187  -9.6465    107.1587    168.2262   1.2337720513e+02   2.6520324923e+01    0.1977337    0.1836532  48.28  0.000435879    1.147    0.128
       188  -9.2311     58.5040    167.4936   1.3480503547e+02   3.4046730011e+01    0.1300423    0.1088089  82.80  0.000810649    1.003    0.003
       189  -9.2358    136.4335    165.5832   1.1605139408e+02   2.1694072286e+01    0.2597236    0.1598947  65.43 0.0009378558    2.097    0.523
       190  -9.1846     53.9860    164.7841   1.3554423893e+02   3.5228735540e+01    0.1745115    0.1454976  85.39 0.0003716563    1.010    0.010
       191 -10.6049     46.8442    163.1003   1.3703402045e+02   3.6467742976e+01    0.2417692    0.1715859  68.19            0    1.288    0.224
       192  -9.0595     37.0273    162.5546   1.3927402944e+02   3.7687062775e+01    0.1678065    0.1113503  43.59 0.0006097555    1.538    0.350
       193 -12.5111     18.6910    148.0040   1.4217851192e+02   4.2750203127e+01    0.5727713    0.3010188 -32.07  0.002580658    3.861    0.741
       194  -9.9117     33.1636    153.8479   1.3928061332e+02   4.0065104200e+01    0.1903999    0.1561192 -79.89 0.0003982916    1.107    0.097
       195 -11.8292     33.5509    159.6206   1.3978677754e+02   3.8714280915e+01    0.4667097    0.3660839 -24.05   0.00289092    1.995    0.499
       196 -11.1741     29.5215    156.9491   1.4046581331e+02   3.9724518668e+01    0.3188407     0.257973  47.98  0.001798073    1.338    0.253
       197 -13.1577     22.6649    155.8906   1.4197268939e+02   4.0616301562e+01    0.7845978    0.4109576 -62.00  0.004396272    1.759    0.431
       198 -10.6353     23.5504    149.4873   1.4115089607e+02   4.1983455630e+01    0.2500534    0.1845362 -82.81 0.0007548828    1.096    0.087
       199 -11.3897     96.0024    157.3247   1.2426032901e+02   3.0855883758e+01    0.4214367    0.2403522 -66.75  0.000894102    1.829    0.453
       200 -11.1085    101.4003    150.7508   1.2176247061e+02   3.1443931721e+01    0.4041915    0.3452082 -73.37   0.00215889    1.137    0.121
       201  -9.7764    104.2082    145.9853   1.2016306444e+02   3.2046335705e+01    0.3159494    0.2399036 -41.49  0.001602391    1.502    0.334
       202  -9.1493    104.2904    142.3090   1.1943137436e+02   3.2877534676e+01    0.2326334    0.2055595 -19.98 0.0009410636    1.421    0.296
       203 -10.9677     73.4691    157.5861   1.2987954272e+02   3.4281247955e+01    0.4325497    0.3640743  69.98  0.002378999    1.093    0.085
       204  -9.8661     79.0522    158.9517   1.2870488068e+02   3.3151965350e+01    0.2070068    0.1784847  83.83 0.0004470629    1.032    0.031
       205  -9.2111     52.2559    158.3974   1.3518756435e+02   3.6897910592e+01    0.1753095    0.1065919  49.81 0.0009441029    1.595    0.373
       206  -9.7080     47.6092    157.7970   1.3623939471e+02   3.7587978006e+01    0.2168109    0.1673679  49.14 0.0008066904    1.319    0.242
       207  -9.7875    134.1911    155.8404   1.1469573035e+02   2.4205006017e+01    0.2260698    0.1955702  73.53 0.0003907742    1.190    0.160
       208 -12.3099     14.2402    154.0384   1.4376670680e+02   4.1771301053e+01    0.4616655    0.2749886  55.37   0.00284363    1.602    0.376
       209 -10.7911      9.1344    155.8334   1.4507988525e+02   4.1790826360e+01    0.2182998     0.125269  63.75 0.0006726226    1.599    0.375
       210  -9.0597    228.3573    155.2641   9.4851332943e+01   4.9848403983e+00    0.1889201    0.1218839 -41.41 0.0005107631    1.606    0.378
       211  -8.8219    124.6810    154.2948   1.1667208189e+02   2.6393020292e+01    0.1504931    0.1109944  75.83 0.0002533936    1.609    0.379
       212 -11.4374    113.9820    150.8597   1.1863324376e+02   2.9171370930e+01    0.3626671    0.3294523 -33.59  0.001669713    1.284    0.221
       213  -9.6844    132.1190    152.3043   1.1448312404e+02   2.5379565507e+01    0.2064119    0.1786772  56.03   0.00035884    1.106    0.096
       214 -10.1025     53.0753    146.1391   1.3338920383e+02   3.9641403292e+01     0.225649    0.1685558 -71.87 0.0002507897    1.185    0.156
       215 -10.2954     60.1300    151.0971   1.3228224652e+02   3.7602078893e+01    0.3106441    0.1681511  55.17  0.000994602    1.918    0.479
       216 -11.1892     55.9692    150.2637   1.3321712238e+02   3.8323330276e+01    0.4718486    0.3480324 -47.84  0.002454495    1.568    0.362
       217  -8.6432    119.7066    151.3136   1.1730551180e+02   2.8000596695e+01    0.1494275     0.111225  79.72 0.0002763377    1.595    0.373
       218 -10.3023     90.2264    149.8412   1.2443300477e+02   3.3521706741e+01    0.2311134    0.2141706  59.13 0.0003816863    1.114    0.102
       219 -13.2454     67.4732    144.1771   1.2937217385e+02   3.8246987888e+01    0.9849826    0.6106972  83.56  0.003885687    1.915    0.478
       220 -12.2628     73.9286    139.2168   1.2685587722e+02   3.8508326268e+01    0.7340719    0.5167825  85.68   0.00266359    1.554    0.357
       221 -10.8636    134.0000    144.9986   1.1251606945e+02   2.6596560666e+01    0.6216028    0.2187733 -52.20  0.002049542    3.052    0.672
       222 -10.8613    133.1960    140.4432   1.1173260661e+02   2.7758733428e+01    0.3983351    0.3839964 -53.20   0.00145961    1.082    0.076
       223 -11.0384     32.1679    146.0918   1.3867814714e+02   4.1944322165e+01    0.2687172    0.1544461 -56.42  0.001478625    1.714    0.416
       224  -8.6810    122.2454    148.3108   1.1608484238e+02   2.8186072827e+01    0.1378937    0.1165429 -20.20 0.0001632355    1.507    0.337
       225  -9.1094     85.9845    147.9778   1.2519764296e+02   3.4630877126e+01    0.1677132    0.1519341  81.44 0.0003529375    1.021    0.021
       226 -10.6991     41.1962    146.8859   1.3650751734e+02   4.0827094157e+01    0.2645865    0.1791972  13.63  0.001448685    2.200    0.546
       227 -10.9600     37.5297    143.9164   1.3707379112e+02   4.1905353869e+01    0.2462431    0.1890392  63.14 0.0006204501    1.266    0.210
       228 -11.8669      2.3844    132.0121   1.4472930064e+02   4.7602371777e+01    0.5143753    0.1914443 -82.96  0.002441702    2.314    0.568
       229 -11.6437      2.3607    144.7486   1.4578271176e+02   4.4756191062e+01    0.3949577    0.1873028 -74.70  0.002249773    1.634    0.388
       230 -12.7157      8.3401    143.5646   1.4426672916e+02   4.4585413624e+01    0.4969056    0.3247711 -87.11   0.00321684    1.208    0.172
       231 -11.3147      1.6948    120.4877   1.4384742139e+02   5.0246233745e+01    0.3442431    0.1235977 -71.27  0.001694788    2.059    0.514
       232 -10.2862     42.3099    140.8703   1.3546160777e+02   4.2108842810e+01    0.3298157    0.1104905  48.99  0.001293372    3.277    0.695
       233 -12.2967     33.7441    135.8858   1.3706251981e+02   4.4158131570e+01    0.5304983    0.2990136 -29.82  0.002424138    3.190    0.687
       234 -11.3051     32.8235    141.4035   1.3797270131e+02   4.2964237659e+01    0.2152413     0.182308  46.64  0.001436013    1.322    0.244
       235 -11.9338     17.9590    140.2368   1.4160246105e+02   4.4578979112e+01    0.2877853    0.1873087  45.65   0.00135301    1.616    0.381
       236 -13.2292     30.7310    227.5475   1.4559701435e+02   2.4950619263e+01     1.550314    0.7413267  43.93  0.009614916    1.770    0.435
       237 -10.8204    111.9724    136.1016   1.1617493359e+02   3.2900688761e+01    0.4094775    0.3183946  19.22   0.00134838    1.655    0.396
       238 -13.1693     45.8830    131.7397   1.3324494822e+02   4.3864611881e+01    0.7085403    0.4568059  60.05  0.003856785    1.656    0.396
       239 -10.9004     20.8530    133.8943   1.4019784402e+02   4.5793206812e+01    0.1833447     0.140294 -63.85 0.0003940889    1.235    0.191
       240 -11.8349     67.9773    128.4498   1.2659303288e+02   4.1901067725e+01    0.4838326    0.3676218  66.01            0    1.390    0.280
       241 -10.5493     35.3046    148.9623   1.3822299575e+02   4.0967225259e+01    0.2069068    0.1544888  62.30 0.0006393861    1.283    0.221
       242  -9.7340    106.1186    128.0546   1.1599270201e+02   3.5840145177e+01    0.3706502    0.2343579 -64.72 0.0009307468    1.710    0.415
       243  -8.6782    161.9895    129.9760   1.0246248097e+02   2.3797557477e+01    0.1812633    0.1771498  49.80 0.0003152224    1.004    0.004
       244 -12.4067     31.7051    127.0025   1.3646053913e+02   4.6431891723e+01    0.4336193    0.2458766  44.04  0.002372841    1.883    0.469
       245  -8.8256     85.4740    126.5852   1.2134461288e+02   3.9738787308e+01    0.1415271    0.1312097 -84.38 0.0002285131    1.015    0.015
       246 -10.4779    209.8322    125.8561   9.1549039277e+01   1.3798700957e+01    0.3058925    0.2399718 -26.16 0.0005930918    1.280    0.219
       247 -13.0620     19.4735    121.6535   1.3914478185e+02   4.8736662623e+01     0.551685    0.3562883 -26.84   0.00312209    2.244    0.554
       248  -9.1692    234.2854    125.3385   8.7139892714e+01   8.6548356229e+00    0.1438314    0.1064488   2.93 0.0005806007    1.632    0.387
       249 -10.2912     59.7146    125.0013   1.2830802308e+02   4.3816489514e+01    0.4037569    0.1954542  23.46  0.001535137    2.918    0.657
       250 -11.1195     38.6292    122.0840   1.3382905119e+02   4.6913924664e+01    0.2874045    0.1685702  58.56  0.001345303    1.939    0.484
       251 -10.1295    238.7964    121.7509   8.5577514524e+01   8.3087515168e+00    0.2739992    0.1789935 -11.23  0.001266288    1.906    0.475
       252 -10.7718     55.1182    120.8951   1.2890437142e+02   4.5364000513e+01    0.2690458    0.2027377  21.88  0.001511936    1.648    0.393
       253 -12.1989      9.5178    118.4083   1.4151210309e+02   5.0215768073e+01    0.3538875    0.2075755 -43.42  0.001453544    1.946    0.486
       254 -12.3669     31.1444    117.3933   1.3527677470e+02   4.8736922653e+01    0.4434299    0.2840294 -48.41  0.001606006    1.583    0.368
       255  -9.5908    231.6231    116.2713   8.5456849043e+01   1.0699669868e+01    0.2056017    0.1297807 -24.82 0.0007106002    1.642    0.391
       256 -11.7000     15.3108    114.4470   1.3942221363e+02   5.0719218249e+01    0.2664025    0.1903134 -76.97 0.0002020885    1.124    0.110
       257  -8.7726     82.2672    114.2920   1.1965754386e+02   4.3143263946e+01    0.1368681    0.1077729 -30.16 0.0006912865    1.507    0.336
       258 -10.9010      2.1597    109.2256   1.4255766572e+02   5.2768877248e+01    0.3240977   0.09100071 -80.23  0.001222895    3.540    0.718
       259 -10.5996     69.9063    111.0531   1.2262487329e+02   4.5755502598e+01    0.2071322    0.1983828  63.26            0    1.121    0.108
       260 -11.4087     56.4996    110.4672   1.2656047999e+02   4.7666258136e+01    0.4314003    0.2472657  14.06  0.001547046    2.719    0.632
       261 -11.4205    168.1988    113.3628   9.6903469805e+01   2.5737248380e+01    0.3865469    0.3281191 -78.50 0.0006759161    1.368    0.269
       262  -9.6804    114.6421    107.0711   1.0863045417e+02   3.8976067521e+01    0.2116894    0.1864066 -51.92 0.0003564061    1.112    0.101
       263  -9.0322    130.7345    119.0228   1.0736914036e+02   3.2997574187e+01    0.1879162     0.133565 -48.98  0.000299097    1.408    0.290
       264 -11.4761     27.5274    106.4165   1.3468745487e+02   5.1621927501e+01    0.2633666    0.2056738 -55.93  0.001685107    1.178    0.151
       265  -9.7089     65.9643    182.0105   1.3480370982e+02   2.9841030281e+01    0.1905336    0.1612151  75.81 0.0003153569    1.038    0.037
       266 -10.2788     65.1297    111.8773   1.2423409278e+02   4.6220772952e+01    0.1861946    0.1535392 -39.65 0.0003674496    1.299    0.230
       267  -9.7501     33.0026    100.0158   1.3191128711e+02   5.2630389054e+01    0.1597897    0.1213128 -65.97  0.000380871    1.099    0.090
       268  -9.5301     62.9795     99.5325   1.2223622672e+02   4.9401255278e+01    0.1808567      0.11942  -7.00 0.0004854473    2.471    0.595
       269  -9.8255     21.8225     98.1659   1.3514844384e+02   5.3993316113e+01    0.1665905    0.1198022 -50.59 0.0002813853    1.288    0.223
       270  -9.1933     44.9633     90.0140   1.2600450698e+02   5.3759490088e+01    0.1528568    0.1395822 -55.83 0.0004564069    1.063    0.059
       271  -9.5627    203.7045    111.4282   8.9153033711e+01   1.7756351990e+01    0.2106605    0.1401318  40.76 0.0009426223    1.596    0.373
       272  -9.0637    124.1345     51.1777   8.8742116700e+01   4.7879565947e+01    0.1943749    0.1724106 -65.14 0.0002567904    1.294    0.227
       273  -9.8678    193.3454    248.8967   1.1796890189e+02  -2.4706206145e+00    0.1508308     0.102734 -19.01 0.0009468587    1.857    0.461
       274  -8.9956     67.7592    247.3961   1.4043520964e+02   1.6885701446e+01    0.1410446   0.09099305  39.42 0.0003128545    1.560    0.359
       275  -9.3429    199.6237    245.7508   1.1641155721e+02  -3.0605676409e+00    0.1284585    0.1131637 -41.19 0.0004353037    1.535    0.348
       276 -10.1756    169.3731    248.8961   1.2226724312e+02   1.3217709321e+00    0.2426151    0.1559716  18.16 0.0008492412    1.941    0.485
