#   1 NUMBER                 Running object number                                     
#   2 MAG_AUTO               Kron-like elliptical aperture magnitude                    [mag]
#   3 X_IMAGE                Object position along x                                    [pixel]
#   4 Y_IMAGE                Object position along y                                    [pixel]
#   5 X_WORLD                Barycenter position along world x axis                     [deg]
#   6 Y_WORLD                Barycenter position along world y axis                     [deg]
#   7 A_WORLD                Profile RMS along major axis (world units)                 [deg]
#   8 B_WORLD                Profile RMS along minor axis (world units)                 [deg]
#   9 THETA_WORLD            Position angle (CCW/world-x)                               [deg]
#  10 FWHM_WORLD             FWHM assuming a gaussian core                              [deg]
#  11 ELONGATION             A_IMAGE/B_IMAGE                                           
#  12 ELLIPTICITY            1 - B_IMAGE/A_IMAGE                                       
         1 -14.0488      6.8519    189.1101   1.2492464041e+02   3.3403338100e+01     2.370157    0.9143091 -70.93   0.01225886    2.147    0.534
         2 -12.1837    236.5739     57.5834   4.5419217622e+01   1.9721486347e+01     1.409647    0.6042982 -21.36  0.004283747    4.166    0.760
         3 -11.5036    237.1454      8.6235   3.4378837890e+01   2.5738142504e+01    0.9268145     0.295055 -29.86  0.003909413    3.185    0.686
         4 -12.6958    247.5165     60.2803   4.4788418535e+01   1.7028311480e+01     2.141601    0.4592566 -33.07  0.006538692    4.548    0.780
         5 -11.6286    249.1588     34.3934   3.8934552602e+01   2.0175381495e+01     1.456334    0.3812183 -28.39  0.004556058    5.257    0.810
         6 -12.0275    244.4907     35.1272   3.9519256706e+01   2.1060266029e+01     1.380869    0.3457113 -41.11  0.004575217    3.024    0.669
         7 -12.2070    241.8319     17.0267   3.5819439648e+01   2.3805674570e+01    0.8745463    0.5548036 -27.67  0.005044635    1.761    0.432
         8 -11.5546    248.1213     21.6521   3.6302949481e+01   2.1945563737e+01    0.9583179    0.4538977 -16.75  0.003808554    4.135    0.758
         9 -11.5161    248.2219      9.2186   3.3700292596e+01   2.3333670218e+01    0.8009731     0.382779 -20.57  0.003748718    3.086    0.676
        10 -11.8692    244.5130      5.1662   3.3120922800e+01   2.4541909827e+01     1.381091    0.7641522  -0.81  0.005296544    5.553    0.820
        11 -11.8845    240.4131     39.7680   4.0940027954e+01   2.1331053843e+01     1.060735     0.314187 -47.43  0.004030649    3.051    0.672
        12 -11.4250    229.2872     19.8878   3.7509135104e+01   2.6205156751e+01    0.4700651    0.2261374 -38.07  0.002364051    1.888    0.470
        13 -11.9446    227.6381     10.7662   3.5596381243e+01   2.7585956208e+01    0.7317808    0.3363283 -31.01  0.003621485    2.204    0.546
        14 -10.3719    231.2571      2.5831   3.3512930386e+01   2.7645267030e+01    0.3231889    0.2472764  85.42  0.001770958    1.188    0.158
        15 -11.1943    203.3008     14.8871   3.8816763812e+01   3.2733208881e+01    0.4273594    0.2572767 -54.95  0.002253397    1.623    0.384
        16 -11.3673    215.9163      8.4272   3.6056096442e+01   3.0475243212e+01    0.5660986     0.271762 -48.69  0.002835178    1.924    0.480
        17 -10.3469    219.6600      3.6121   3.4631273444e+01   3.0115156585e+01    0.3226851    0.2552837   8.68  0.001936469    1.873    0.466
        18 -11.9678    158.5319      4.8409   4.1343233198e+01   4.4610672875e+01    0.6869832    0.4066091 -68.16  0.003330474    2.066    0.516
        19 -10.6536    156.0105     11.7074   4.3791543230e+01   4.4606626617e+01     0.252277    0.1723092 -56.81  0.001328474    1.648    0.393
        20 -11.3017    206.3994      7.5902   3.6715852253e+01   3.2762752247e+01    0.4008276    0.2282521 -35.87  0.002150392    1.747    0.428
        21 -10.9056    187.5817      4.4890   3.7790799071e+01   3.7539194341e+01    0.5268885    0.2018343 -34.42   0.00233888    2.527    0.604
        22 -12.3402    146.7630      5.5813   4.3257514740e+01   4.7440235327e+01    0.6416801    0.4453109  47.94  0.003578456    1.352    0.260
        23 -12.3520    135.9060      3.3878   4.4252841857e+01   5.0271497566e+01    0.7824904    0.3198697  73.52  0.003151218    2.599    0.615
        24 -12.1578    111.1277      5.6299   4.9745616342e+01   5.5953560215e+01    0.6387023    0.4068872 -84.64   0.00302951    2.468    0.595
        25 -12.0985    174.7068      4.0609   3.9093155175e+01   4.0706876155e+01    0.6889647    0.4113955  78.62  0.003595381    1.539    0.350
        26  -9.7514    194.4607      3.0190   3.6718527002e+01   3.6027749764e+01    0.1815201    0.1236642 -30.06  0.001035224    1.606    0.378
        27  -8.4413    181.3320    186.6689   8.5044307384e+01   8.3260023865e+00    0.1374543     0.115019  78.52 0.0006091885    1.723    0.420
        28  -9.4901    218.5499    188.8216   7.7958904387e+01   1.3959942785e+00    0.3192153    0.1238107 -41.05  0.001287842    2.621    0.618
        29 -10.3309    225.0528    181.2593   7.5229532565e+01   1.5342173683e+00    0.4080614    0.1503279 -31.03  0.001516197    2.970    0.663
        30 -10.5650    241.0262    177.3765   7.1561322156e+01  -4.8083270597e-01    0.3177957    0.1669007 -21.24  0.001458083    2.073    0.518
        31 -11.2179    246.6037    198.0934   7.4644968161e+01  -4.4484164892e+00    0.4699811    0.2973876  31.53  0.002712123    1.557    0.358
        32 -11.1326    249.8269    169.7370   6.8503461545e+01  -7.0235623966e-01    0.5479995    0.2763222 -37.09  0.002679092    1.794    0.442
        33 -12.6840      4.9265    154.7112   1.2289533251e+02   4.1295437944e+01    0.6460218    0.4650784  62.01  0.004262399    1.352    0.261
        34  -8.2703    200.3344    170.3436   7.7788421624e+01   7.8173905104e+00     0.153048     0.106382   0.31 0.0007050218    1.762    0.433
        35  -9.4800    223.7347    168.6106   7.2877129557e+01   3.8640370031e+00    0.2660954    0.1551039 -26.37  0.001254817    1.709    0.415
        36  -9.8669    238.0125    128.0246   6.1506943657e+01   8.1636031843e+00    0.2818998    0.1899176 -67.30   0.00128055    2.378    0.579
        37 -10.5649    240.7883    131.7925   6.1900000382e+01   7.0099396576e+00    0.3491757    0.2393531 -10.67  0.001744703    1.716    0.417
        38 -10.8600    240.3391    143.1072   6.4467378397e+01   5.1992860577e+00    0.4635852    0.2004092 -42.59  0.001931468    2.205    0.546
        39 -10.0210    239.0149    137.1287   6.3373308315e+01   6.4413748328e+00    0.3907019    0.1897468 -40.67  0.001728357    1.871    0.465
        40 -10.6306    248.5874    156.2365   6.5913734036e+01   1.6245007131e+00    0.6890906    0.2765594 -47.25  0.002601717    3.206    0.688
        41 -10.4045    249.4440    151.9799   6.4875865182e+01   2.1621787380e+00    0.3733193    0.1988238 -35.80  0.001822837    1.639    0.390
        42  -9.7399    237.7623    165.0104   6.9592713956e+01   2.0325038575e+00     0.374156    0.1033582 -35.75  0.001266619    3.376    0.704
        43  -9.6247    245.0130    160.4824   6.7399987689e+01   1.5422176637e+00     0.444703    0.2463286  -7.77   0.00182072    2.845    0.649
        44  -9.4526    223.1445    156.7643   7.0462463683e+01   6.0010628972e+00    0.3155575    0.1492949 -20.61  0.001083139    3.360    0.702
        45  -9.9337    234.5339    203.9993   7.7898799076e+01  -3.4994562128e+00     0.405793    0.1134225 -39.57  0.001502644    3.637    0.725
        46  -9.9356    238.5922    149.6891   6.6191535222e+01   4.4139763465e+00    0.2674802    0.1199674 -32.94   0.00112791    2.055    0.513
        47 -12.0164      5.3482    147.8309   1.2221629545e+02   4.2868068112e+01    0.4874418    0.2980836  54.40  0.002925703    1.680    0.405
        48  -9.7200    235.6141    145.3101   6.5746917202e+01   5.6836169165e+00     0.280095    0.1178226 -39.89  0.001142668    2.163    0.538
        49 -10.1338    248.9827    138.1454   6.1986062378e+01   4.4802159566e+00    0.3331103    0.2174021 -65.55  0.001491932    2.743    0.635
        50 -10.3826    245.4996    135.0347   6.1860089672e+01   5.6102840156e+00    0.4012198    0.1180381 -37.36  0.001413266    2.942    0.660
        51  -8.6655    219.3293    143.3296   6.8196657245e+01   9.0849004083e+00    0.1500901    0.1073247   0.69 0.0007051469    1.712    0.416
        52  -9.4588    230.0472    146.1081   6.6888116036e+01   6.5691659390e+00    0.3649622    0.1643879 -46.58  0.001449605    2.443    0.591
        53 -10.7914    247.1294    143.6498   6.3471693242e+01   3.9072081988e+00    0.3412754    0.1779344 -33.94  0.001613878    1.678    0.404
        54 -11.6452      4.9957    135.9672   1.2122302689e+02   4.5680873666e+01    0.5181712    0.1987335  45.83  0.002439744    2.841    0.648
        55 -10.6599    244.9736    124.4970   5.9614589650e+01   7.4483891033e+00    0.5277013    0.1806967 -43.32  0.001949519    2.750    0.636
        56 -11.4343    242.8322    116.8080   5.8220642331e+01   9.1256333297e+00     0.542241    0.2697724 -38.33  0.001982573    1.745    0.427
        57  -9.2556    250.6409    124.8214   5.8821839318e+01   6.3556412250e+00    0.3564407    0.1149867 -39.57  0.001098365    2.640    0.621
        58 -10.4925    248.6231    119.4033   5.7927761624e+01   7.6088957839e+00    0.4997576    0.2225939 -31.66  0.002116161    2.106    0.525
        59 -10.9831    247.5219    114.4910   5.6997022294e+01   8.6173121040e+00    0.5843631    0.2824339 -49.14  0.002509561    2.220    0.550
        60  -9.4879    250.4648    133.5042   6.0746900767e+01   4.9742353927e+00    0.2418566    0.1783058 -27.58 0.0009378599    1.184    0.156
        61 -10.1459    248.8997    129.6573   6.0148351238e+01   5.8812250354e+00    0.4293269    0.2003014 -35.04  0.001676502    1.863    0.463
        62 -10.9880    241.9788    153.3204   6.6397615348e+01   3.2202729629e+00    0.5497965    0.2328608 -25.20  0.002043704    2.963    0.663
        63  -9.7923    224.6927    123.3661   6.2663543986e+01   1.1565172605e+01    0.2914823    0.1071514 -47.76 0.0009650947    3.185    0.686
        64 -10.8112    239.1506    121.2219   5.9789776932e+01   9.0933542122e+00      0.49376    0.1846855 -35.49  0.001895186    2.398    0.583
        65  -8.1180    132.7384    198.7268   9.7928028121e+01   1.4676339564e+01    0.1279839     0.106563  -2.90            0    1.466    0.318
        66  -9.3951    230.6738    116.7576   6.0126545968e+01   1.1512523232e+01    0.4243491    0.1229812 -35.53   0.00137322    3.227    0.690
        67 -10.6047    234.9285    111.9928   5.8343053263e+01   1.1473544390e+01    0.3525127    0.1781837 -42.37  0.001555736    1.791    0.442
        68  -9.2494    228.5921    109.2003   5.8697100441e+01   1.3229208951e+01     0.364336    0.1306082 -34.01  0.001291719    2.688    0.628
        69  -9.4424    220.2826    109.0191   6.0020751372e+01   1.4989696812e+01    0.2192366    0.1787673 -37.84  0.000656226    1.122    0.109
        70 -10.8334    248.9122    104.9111   5.4651846865e+01   9.9077988563e+00    0.5158464    0.2017358 -40.77  0.001924863    2.182    0.542
        71 -11.3911    242.4248    105.2970   5.5670130052e+01   1.1103366778e+01    0.5404716    0.2523352 -26.90  0.002170514    2.439    0.590
        72  -9.4920    234.0000    101.5327   5.6054230880e+01   1.3414343218e+01    0.4200744    0.1691844 -30.49  0.001556132    2.640    0.621
        73 -10.8061    238.0121     98.6210   5.4780446095e+01   1.3077938975e+01    0.4198261    0.2564954 -66.92  0.001832637    2.435    0.589
        74 -10.6083    239.5683     94.6374   5.3634573077e+01   1.3410649228e+01    0.3628965     0.230625  43.23  0.001815367    1.855    0.461
        75  -9.4329    228.0198    100.4168   5.6709442786e+01   1.4839091387e+01    0.4961419    0.1756836 -51.57  0.001451484    4.396    0.773
        76  -9.3831    220.8101    114.8451   6.1323809934e+01   1.3857210687e+01    0.2048958    0.1670052 -58.33  0.000999799    1.351    0.260
        77  -9.0615    189.4825     99.9751   6.3338613483e+01   2.3443162803e+01    0.2249668    0.1211916 -57.08 0.0008100864    2.531    0.605
        78 -10.4043    250.2613     78.7975   4.8613521935e+01   1.3739665382e+01    0.3734587    0.1750578 -33.14  0.001682155    1.969    0.492
        79 -10.7837    249.3031     96.6331   5.2740085044e+01   1.1156380720e+01    0.4335129    0.2256341 -36.58  0.001305014    1.656    0.396
        80 -11.4845    247.5326     88.1806   5.1071005982e+01   1.2837206663e+01    0.5558644    0.2297951 -40.43   0.00237284    2.045    0.511
        81  -9.5264    221.2419     93.3982   5.6083071120e+01   1.7466644023e+01     0.421834    0.1832633 -30.95  0.001602818    2.406    0.584
        82  -9.4002    186.5121     91.4670   6.1665680326e+01   2.5691392692e+01    0.4326541     0.154562 -28.93  0.001212604    4.071    0.754
        83  -8.9529    204.0000     91.9474   5.8578740258e+01   2.1554301240e+01     0.250212   0.08054695 -36.39 0.0008020658    2.940    0.660
        84 -10.1607    242.4984     89.4308   5.2028085821e+01   1.3650701119e+01    0.2965812    0.1194562 -36.54  0.001209917    2.165    0.538
        85 -10.6362    233.6033     88.3915   5.3026393625e+01   1.5651648625e+01    0.3810795    0.2608005 -23.47  0.001919638    1.584    0.369
        86  -8.6658    209.7489     89.9855   5.7100599682e+01   2.0589303591e+01    0.2035681    0.1188626 -36.27 0.0008968764    1.612    0.379
        87  -8.9807    216.2412     86.9620   5.5289737257e+01   1.9644369163e+01    0.2001856    0.1136771 -37.25 0.0008882042    1.627    0.385
        88  -9.6196    224.8258     85.0678   5.3510290360e+01   1.8066463966e+01    0.3385982    0.1837744 -29.21  0.001479292    1.912    0.477
        89 -11.1959    240.9763     81.5613   5.0421300385e+01   1.5199639187e+01    0.6370955    0.2712477 -25.56  0.002324756    3.158    0.683
        90  -8.5682    218.2913     81.3734   5.3586723644e+01   2.0107732572e+01    0.1430803    0.1115298   5.69 0.0003975947    1.727    0.421
        91  -8.9546    234.2336    242.9791   8.4755351167e+01  -8.7002863193e+00    0.1433349   0.08806546 -27.81 0.0005629465    1.644    0.392
        92 -12.9092    240.5320     71.7423   4.8213994237e+01   1.6797822252e+01     1.304556    0.9309928 -15.79  0.006854211    1.757    0.431
        93 -11.1368    247.8945    237.8863   8.1525465203e+01  -9.8847150647e+00    0.3862014    0.1407045 -41.38  0.001725479    3.680    0.728
        94 -10.3474    248.9942    227.2710   7.9528794468e+01  -8.7207655124e+00     0.214755    0.1648499 -51.88  0.001302929    2.408    0.585
        95 -10.6799    243.2811     54.2663   4.3903343601e+01   1.8761447365e+01    0.6142756    0.3376524 -19.08  0.002717768    2.640    0.621
        96 -11.3987    247.7870    217.4523   7.8008881145e+01  -7.2882901362e+00    0.5985787    0.4168896 -61.26  0.002781552    4.139    0.758
        97 -11.3445    238.0289    200.2579   7.6567151942e+01  -3.4813678794e+00    0.3508677    0.3128332 -74.05  0.002160146    1.996    0.499
        98 -10.6334    233.5352    194.4820   7.6274563552e+01  -1.9276311745e+00    0.3736258    0.1454177 -40.42  0.001584586    2.625    0.619
        99 -10.5530    238.0840    191.8839   7.4953778741e+01  -2.2445921275e+00    0.2879368    0.1800085 -30.29  0.001580197    1.472    0.321
       100 -11.0770    241.4922    205.2479   7.6886404642e+01  -4.7177816604e+00    0.2720758    0.2227364 -51.07  0.001670952    1.876    0.467
       101  -8.4979     55.9934    216.6491   1.1693593790e+02   2.2398139227e+01    0.1955311    0.1080346 -73.48 0.0008754027    1.776    0.437
       102 -10.0082    226.9086     74.3577   5.0622065354e+01   1.9317975709e+01    0.3668314      0.20717 -60.38  0.001551262    2.148    0.534
       103  -9.2903    233.4821    214.6422   8.0040895712e+01  -4.8671478361e+00    0.2461433    0.1123377 -34.39  0.001206222    2.151    0.535
       104 -10.5998    230.5706     66.9823   4.8365211961e+01   1.9645688300e+01    0.3785228    0.2145725 -34.39  0.001623051    1.657    0.396
       105  -9.1461      2.3158     66.3317   1.1243389919e+02   6.1990733451e+01    0.1312925   0.06399264 -42.51 0.0007046445    1.684    0.406
       106 -10.3204    225.9347     61.1942   4.7576857297e+01   2.1529662713e+01    0.3245541    0.2216176 -19.28  0.001625897    1.788    0.441
       107  -9.0568    215.3036     59.0101   4.8447315999e+01   2.4261410305e+01    0.3674552    0.1734105 -25.15  0.001446671    2.612    0.617
       108  -8.3997    210.3924     57.1976   4.8666805249e+01   2.5667486457e+01    0.2075501    0.1155812 -45.24 0.0009450546    1.695    0.410
       109  -8.5559    188.0000     54.9887   5.1438932600e+01   3.1355735863e+01    0.2305751   0.08074427 -32.54 0.0007001483    2.872    0.652
       110  -9.8536    234.8392     50.5694   4.3992504408e+01   2.1084317541e+01    0.4155489    0.1915147 -25.77  0.001733125    2.632    0.620
       111 -10.2258    230.6025     56.9487   4.5980566251e+01   2.1112897726e+01    0.3150721    0.2395029 -33.47  0.001185842    1.303    0.233
       112  -9.9552    229.0680     49.9549   4.4508249716e+01   2.2438618000e+01     0.423877    0.1998433 -23.21   0.00171067    2.835    0.647
       113  -9.7935    231.7882     43.1767   4.2613072773e+01   2.2757601274e+01    0.4297308    0.2320893 -18.03  0.001860592    2.757    0.637
       114  -9.0083    221.2930     52.3435   4.6019035278e+01   2.3851932435e+01     0.130509    0.1067196  18.57 0.0006339151    1.659    0.397
       115  -9.0077    211.8237     47.2969   4.5969474032e+01   2.6740734529e+01    0.2550029    0.1838706   6.69  0.001239748    2.141    0.533
       116  -9.1060    205.1752     47.4361   4.6881898107e+01   2.8289070156e+01    0.2674469    0.1061633 -29.05  0.001006713    2.741    0.635
       117  -9.4213      4.6728     47.6623   1.0715297132e+02   6.5848741009e+01    0.1314867   0.06260297 -37.36 0.0007051733    1.728    0.421
       118  -9.0045    223.0257     42.5083   4.3431212225e+01   2.4807659312e+01    0.2704064    0.1737362  -8.62  0.001255329    2.452    0.592
       119 -10.1383    228.0659     36.3647   4.1422212219e+01   2.4474784040e+01    0.3954395    0.2223567  -5.79   0.00150617    4.020    0.751
       120  -9.8343    232.1158     31.8528   3.9967458187e+01   2.4145360522e+01    0.2051974    0.1765151 -66.22 0.0008074964    1.012    0.012
       121  -9.6898    220.5873     31.8219   4.1139704970e+01   2.6739015613e+01    0.3236094    0.1082384 -34.85  0.001293536    2.690    0.628
       122  -9.9062    250.5636    211.7657   7.6502348734e+01  -6.9143889388e+00    0.2209304     0.102915 -29.11  0.001123476    1.989    0.497
       123  -9.2816    228.4785    211.9883   8.0473901307e+01  -3.7444302183e+00    0.1857776    0.1135829 -29.63  0.001027773    1.582    0.368
       124 -10.8720    247.5281    208.7637   7.6478063606e+01  -6.0806166327e+00    0.2717391    0.1313252 -21.15    0.0013133    2.192    0.544
       125  -9.3819    217.5050     21.5021   3.8993487666e+01   2.8681187348e+01    0.1294817     0.111962 -75.09 0.0008106732    1.002    0.002
       126 -11.7268    237.3275    184.3307   7.3606839688e+01  -9.6989653258e-01    0.4165491    0.3676635 -61.61  0.002536112    1.721    0.419
       127  -9.3614    122.4946    246.9991   1.0668274235e+02   7.3506731848e+00    0.1520843    0.1011702 -26.44 0.0008095744    2.460    0.593
       128  -8.9126    206.3647    196.7866   8.1860692977e+01   2.1437891366e+00    0.1936041    0.1169435 -26.33 0.0009500356    1.728    0.421
       129 -13.0656      4.9218    165.3090   1.2371743982e+02   3.8859345550e+01     1.209203    0.4141268  58.40  0.005174361    3.266    0.694
       130 -11.8789    243.7879    187.1799   7.3029233247e+01  -2.4197054331e+00    0.6211077    0.2570327 -36.86  0.002800589    2.247    0.555
       131 -10.2672    250.3655    179.8767   7.0455452946e+01  -2.3346818545e+00      0.41703    0.1640081 -34.64  0.001833644    2.274    0.560
       132 -10.2586    249.6146    189.5779   7.2490315424e+01  -3.6609209420e+00    0.4585302     0.180221 -28.03  0.001942614    2.591    0.614
       133 -10.5112    247.5087    184.9616   7.1948991484e+01  -2.6591157336e+00    0.2816546    0.1604278 -29.83  0.001288957    1.566    0.362
       134 -10.6638    227.6967    189.3453   7.6345406200e+01  -2.0020163282e-01    0.4484007    0.1422723 -42.56  0.001630633    3.431    0.709
       135 -10.8153    242.0547    194.4216   7.4739562371e+01  -3.2334605419e+00    0.4195332    0.2463285 -14.28  0.002160523    1.802    0.445
       136  -9.8472    213.2542    188.2417   7.8862255877e+01   2.3880757408e+00    0.2425023    0.1578156 -30.71  0.001215034    1.490    0.329
