#   1 NUMBER                 Running object number                                     
#   2 MAG_AUTO               Kron-like elliptical aperture magnitude                    [mag]
#   3 X_IMAGE                Object position along x                                    [pixel]
#   4 Y_IMAGE                Object position along y                                    [pixel]
#   5 X_WORLD                Barycenter position along world x axis                     [deg]
#   6 Y_WORLD                Barycenter position along world y axis                     [deg]
#   7 A_WORLD                Profile RMS along major axis (world units)                 [deg]
#   8 B_WORLD                Profile RMS along minor axis (world units)                 [deg]
#   9 THETA_WORLD            Position angle (CCW/world-x)                               [deg]
#  10 FWHM_WORLD             FWHM assuming a gaussian core                              [deg]
#  11 ELONGATION             A_IMAGE/B_IMAGE                                           
#  12 ELLIPTICITY            1 - B_IMAGE/A_IMAGE                                       
         1 -16.9016    242.8280    134.6642   7.5386031340e+01   5.3799500580e+00     2.828669     1.273283 -36.56   0.01188903    2.183    0.542
         2 -17.2815    240.2227     75.6518   6.1274533271e+01   1.4876784820e+01     5.511447     1.698534 -37.50   0.01848686    2.872    0.652
         3 -14.9061    214.1926     18.9536   4.9264905624e+01   2.9117764754e+01     2.788493     1.139763 -50.85   0.01000682    2.879    0.653
         4 -13.7773     24.0691     31.8513   1.0300091639e+02   6.5744472689e+01    0.7362329    0.4105333  10.81    0.0043776    2.352    0.575
         5 -16.5635    244.3605    223.1585   9.2339822360e+01  -6.1062501766e+00     2.362376     1.168311 -22.50   0.01032399    2.389    0.581
         6 -14.5013    220.9040    228.7436   9.7007824148e+01  -2.8766680654e+00    0.8578755    0.7973949  65.43  0.004207514    1.489    0.328
         7 -14.9783    119.1668    246.9406   1.1582080132e+02   1.1286771630e+01     2.340633    0.5906312  43.59   0.01020768    3.228    0.690
         8 -15.8201    168.1697    241.3319   1.0736590424e+02   4.3549741680e+00      1.36098    0.9235625  33.55  0.008423999    1.455    0.313
         9 -15.9121    169.5176    218.8671   1.0424446841e+02   7.1439521819e+00     2.758037     1.529983  70.14   0.01221619    3.354    0.702
        10 -14.9260    118.6940    211.7092   1.1224612798e+02   1.6778004191e+01     3.246077     1.550225  69.42   0.01411105    3.260    0.693
        11 -16.7967    137.9739    196.9215   1.0686655709e+02   1.6069661007e+01     2.174477     1.801746  77.31    0.0113722    1.188    0.158
        12 -17.7850    140.1226    169.9850   1.0233008569e+02   2.0520787421e+01     5.858991     2.834577  54.41   0.02592514    2.077    0.519
        13 -18.5108     65.9650    212.7072   1.2142086446e+02   2.4209096665e+01     3.770925     2.711817 -79.34   0.02314066    1.354    0.261
        14 -16.0266     51.9788    132.8438   1.1572007837e+02   4.1794548857e+01     13.10008      1.63151 -59.56   0.04157174    4.888    0.795
        15 -12.5113     95.9235    245.3472   1.1929584525e+02   1.4879176044e+01    0.3110417     0.285781 -17.45  0.002022005    2.069    0.517
        16 -14.0460    222.1886    176.1369   8.7765728843e+01   3.5050995392e+00    0.8537636    0.5566479  31.67  0.003152899    1.437    0.304
        17 -12.6957    179.8543    179.2523   9.6136605312e+01   1.1286581255e+01    0.5510738    0.3800302  64.03  0.002874272    1.683    0.406
        18 -12.1487    200.5101    171.6216   9.0830378924e+01   8.4271040000e+00    0.3235573    0.2665426 -34.61   0.00132071    1.334    0.250
        19 -12.6990    225.4786    168.2525   8.5627074260e+01   3.9853498472e+00    0.2929926    0.2435469 -65.52  0.001438471    1.739    0.425
        20 -14.0454    238.9072    188.8160   8.7284238615e+01  -1.2819166586e+00    0.5753289    0.4828575  34.84  0.002457136    1.163    0.140
        21 -14.2946    240.9004    183.0073   8.5853502291e+01  -9.1172387912e-01    0.7485124    0.5086913  21.55  0.003577477    1.402    0.287
        22 -15.1909    192.9884    130.3048   8.3486085121e+01   1.6950910479e+01     1.716919    0.9642159  60.54  0.006822203    2.148    0.534
        23 -14.3223    187.0601    118.2468   8.1778573496e+01   2.0470994518e+01    0.7840638    0.6572289 -28.47  0.002908326    1.230    0.187
        24 -13.9145    179.4412    117.5801   8.3179751880e+01   2.2346365960e+01     0.652125    0.5920556 -54.50  0.002372428    1.156    0.135
        25 -11.2007     26.3615    127.8970   1.2094743648e+02   4.5432894297e+01    0.1660849    0.1148304 -76.06 0.0009802617    1.122    0.109
        26 -11.4014     96.9773    250.5778   1.1955691144e+02   1.3966377250e+01    0.1556059   0.07622552  49.30 0.0007411098    1.529    0.346
        27 -12.8274    106.0159    131.0260   1.0276506385e+02   3.4568477107e+01    0.3334799    0.2659849 -76.22  0.001131873    1.227    0.185
        28 -12.9992     32.8648    102.8251   1.1605140816e+02   5.0291681628e+01    0.4736871    0.3003275 -58.01   0.00167015    1.335    0.251
        29 -14.9294     37.4719     91.6254   1.1294507605e+02   5.2321816529e+01    0.9612805    0.6572757 -67.20  0.004010211    1.177    0.150
        30 -12.3013    193.0006    104.4108   7.7070731293e+01   2.1575931909e+01    0.3791486    0.3098328  69.24  0.001482488    1.375    0.273
        31 -13.1384      5.4459     95.7081   1.2219566282e+02   5.3869834229e+01    0.5663145    0.2805812 -46.59  0.002728867    2.124    0.529
        32 -13.6731      2.5335     86.9720   1.2185621772e+02   5.5888062513e+01     1.088816    0.2898266 -71.28   0.00490567    2.748    0.636
        33 -13.9910     10.8995     81.2221   1.1871351478e+02   5.6611115150e+01    0.5984476    0.4169889 -43.05  0.002887227    1.504    0.335
        34 -15.1705     22.7761     77.0820   1.1454461933e+02   5.6683768435e+01    0.6371559    0.3951657 -36.40   0.00330854    1.811    0.448
        35 -15.6900     10.2769     72.5614   1.1749498736e+02   5.8479742515e+01     1.026933    0.6232529  11.34  0.006681337    2.345    0.574
        36 -15.2569      6.0714     59.3499   1.1644414673e+02   6.1468600648e+01    0.8485314    0.6875485 -54.72  0.004620527    1.139    0.122
        37 -13.2157     92.5865     81.4809   9.4888316143e+01   4.7535405783e+01    0.5126462    0.4046349  81.43  0.002674029    1.648    0.393
        38 -12.1742     82.1466     77.6834   9.6860982139e+01   4.9976008319e+01    0.2424254    0.1730216 -58.54 0.0008500739    1.346    0.257
        39 -13.4277     98.0916     72.7162   9.0839260155e+01   4.8416769990e+01    0.6769516    0.3293801 -28.42  0.002391997    3.297    0.697
        40 -13.1814    105.0166     71.8753   8.8631271709e+01   4.7347169267e+01    0.4840125    0.2656039  31.15  0.002039205    2.347    0.574
        41 -12.3652    250.1229    184.3699   8.4575709834e+01  -2.7299553517e+00    0.2308869    0.1778699 -27.05  0.001444048    1.405    0.288
