#   1 NUMBER                 Running object number                                     
#   2 MAG_AUTO               Kron-like elliptical aperture magnitude                    [mag]
#   3 X_IMAGE                Object position along x                                    [pixel]
#   4 Y_IMAGE                Object position along y                                    [pixel]
#   5 X_WORLD                Barycenter position along world x axis                     [deg]
#   6 Y_WORLD                Barycenter position along world y axis                     [deg]
#   7 A_WORLD                Profile RMS along major axis (world units)                 [deg]
#   8 B_WORLD                Profile RMS along minor axis (world units)                 [deg]
#   9 THETA_WORLD            Position angle (CCW/world-x)                               [deg]
#  10 FWHM_WORLD             FWHM assuming a gaussian core                              [deg]
#  11 ELONGATION             A_IMAGE/B_IMAGE                                           
#  12 ELLIPTICITY            1 - B_IMAGE/A_IMAGE                                       
         1 -14.7241      4.2869    178.3770   1.3319025246e+02   3.7150911414e+01     5.148441     1.092137 -75.24   0.02388896    3.565    0.719
         2 -14.4957     48.6273    205.3186   1.2697797082e+02   2.7790209947e+01     4.264013     1.085566  54.24   0.01945842    3.305    0.697
         3 -12.9999    196.1864     32.2089   5.8986659571e+01   3.1982541242e+01     1.854414     1.294049  -6.02  0.005171314    1.605    0.377
         4 -12.5876    204.7230     27.3311   5.6312867907e+01   3.0332027412e+01     1.117969    0.8917444 -70.03  0.004409771    1.355    0.262
         5 -11.9894    210.7538     19.2499   5.3100015267e+01   2.9679819509e+01    0.7222461    0.5628339  43.85  0.001328517    1.385    0.278
         6 -12.5806    221.5944      6.3698   4.8174945807e+01   2.8226355328e+01    0.8303953    0.7349567 -66.51  0.002716156    1.094    0.086
         7  -9.2329    164.5067     12.4604   5.6767145224e+01   4.2713530280e+01    0.1451573    0.1434685  17.90 5.879876e-05    1.008    0.008
         8 -11.9841    233.4336    249.4958   1.0150639256e+02  -4.3459200668e+00    0.1992986    0.1405482  32.77 0.0001640202    1.123    0.109
         9  -9.3272     73.7081    250.0382   1.2587829750e+02   1.7763906449e+01    0.1395445    0.1109051  61.48  0.001228743    1.220    0.181
        10 -10.0031     69.3963    250.0271   1.2652070085e+02   1.8285515738e+01    0.2054354    0.1256276  58.85  0.001632483    1.140    0.123
        11 -11.4520     37.5607    242.6696   1.3083943270e+02   2.2969119397e+01    0.4605561    0.1878976  66.68  0.002176373    2.006    0.502
        12 -11.9508     27.6803    247.6015   1.3248058692e+02   2.3270377806e+01    0.5868026    0.3625661  70.93  0.005091959    1.140    0.122
        13 -13.2342      9.4435    207.5919   1.3360775571e+02   3.1425757713e+01    0.7973428    0.6568547  72.17   0.00287316    1.346    0.257
        14 -12.9825      6.5540    247.6455   1.3543725503e+02   2.5323634213e+01     1.079885    0.5804866  64.34  0.007123562    1.180    0.153
        15 -12.5996     13.8130    240.0064   1.3417357959e+02   2.5777928611e+01    0.6181452    0.4615291  38.41  0.002946134    1.822    0.451
        16  -9.4128     44.0984    247.0422   1.3008938536e+02   2.1615829730e+01    0.1557457   0.09573345  69.41 0.0004124087    1.185    0.156
        17 -11.1917     25.4532    221.7530   1.3170011403e+02   2.7504387943e+01    0.2645531    0.1436285 -65.18  0.001903765    2.221    0.550
        18  -7.9176    115.7177    212.7154   1.1595700570e+02   1.7670080407e+01   0.09729582   0.08443309  25.01 0.0002130903    1.520    0.342
        19 -11.9405      3.7221    224.2344   1.3510583553e+02   2.9182396381e+01    0.7904247    0.3512936  65.79  0.005028948    1.554    0.357
        20 -11.0817     64.8308    186.9297   1.2261380829e+02   2.9174128953e+01    0.3065748    0.2643285 -29.12  0.001389485    1.992    0.498
        21 -10.9754     69.8731    180.5804   1.2104616297e+02   2.9730541892e+01    0.2473269    0.2049638 -65.41 0.0006767482    1.422    0.297
        22  -9.2538    250.5288    176.4864   8.7229884532e+01   1.4842647234e-01    0.1930264    0.1021346 -36.73  0.000657528    2.198    0.545
        23 -10.2071    239.4536    172.3251   8.8176866445e+01   2.4911220613e+00    0.2484899    0.1828738  40.24  0.001215836    1.338    0.253
        24 -10.5145     79.2705    169.8193   1.1801400931e+02   3.0565433508e+01    0.2334276    0.1974346 -88.57  0.000378303    1.118    0.105
        25  -9.6482     95.0666    166.6585   1.1437478428e+02   2.8911904834e+01     0.257742    0.1823639 -60.15 0.0006907898    1.475    0.322
        26 -11.6710     58.6275    134.0040   1.1803199888e+02   4.0801043262e+01     1.541016    0.5130388 -79.07  0.004143668    6.913    0.855
        27 -12.1410     85.2459    162.6808   1.1589879123e+02   3.1148821773e+01     1.227757    0.5474748  58.88  0.001433047    2.523    0.604
        28 -12.3173     67.7673    144.4770   1.1732237727e+02   3.7355883294e+01    0.9609207    0.5179971  82.95  0.002440314    2.318    0.569
        29 -10.1664    240.3207    167.7207   8.7143987713e+01   2.8895109081e+00    0.2352268    0.1780639  14.47   0.00028015    1.157    0.136
        30 -10.3463    145.4736    226.4381   1.1240983001e+02   1.1188087557e+01    0.2512941    0.1923765 -60.25 5.072754e-05    1.655    0.396
        31  -8.0438    161.5661    164.3625   1.0052906141e+02   1.7955616932e+01    0.1304092    0.1154792  45.47 6.293338e-05    1.031    0.030
        32 -10.3224    240.7478    162.9631   8.6132378687e+01   3.3900529421e+00    0.2177395    0.1624415  31.60 0.0006104236    1.216    0.178
        33 -10.2099    208.5422    160.4456   9.1036126647e+01   9.6413059916e+00     0.225318    0.2083607  27.95 0.0005512268    1.119    0.107
        34  -9.6250     94.2882    151.0354   1.1232354650e+02   3.2186103745e+01      0.20442    0.1692107  54.50 0.0003644221    1.183    0.155
        35  -9.4271     99.3354    146.9599   1.1057022241e+02   3.2243921559e+01    0.2646098    0.2308148 -69.70 0.0009055627    1.146    0.127
        36  -8.6737    102.0007    143.2854   1.0936811021e+02   3.2583329277e+01    0.2768225     0.158908 -37.52  0.001226301    2.639    0.621
        37  -9.5917     38.5935    147.1677   1.2415698191e+02   4.0213762561e+01    0.2280435    0.1403319  67.55 0.0007414947    1.471    0.320
        38 -11.2983     87.9022    145.7722   1.1294925941e+02   3.4255766475e+01    0.2455484    0.2203893 -68.46 0.0004219898    1.193    0.162
        39 -12.2563     38.9772    216.9485   1.2930652318e+02   2.6880110635e+01    0.3499954    0.3453443 -34.06  0.001167538    1.821    0.451
        40  -8.9179    228.0548    143.0280   8.4036340850e+01   8.3332955206e+00    0.1958746    0.1748289   7.83  0.001199149    1.043    0.041
        41  -9.8416     37.1150    225.6224   1.3007116656e+02   2.5660884881e+01    0.1679272    0.1174875  87.02 0.0006100815    1.273    0.215
        42  -8.8562    110.2773    133.9888   1.0581612140e+02   3.3154873539e+01    0.2273548      0.19433   4.17 0.0009648671    1.639    0.390
        43  -9.7500     97.5574    130.6491   1.0818426553e+02   3.5999038842e+01    0.2362596    0.2137279 -21.61 0.0009532634    1.452    0.311
        44 -10.6672     52.4951    242.0204   1.2858818318e+02   2.1420304483e+01       0.3816    0.1406273  68.63  0.002063885    2.914    0.657
        45  -8.6025    107.0434    121.7594   1.0417104730e+02   3.6334586573e+01    0.1802621    0.1693013  80.27 0.0002203299    1.059    0.056
        46  -9.0409    245.3091    117.3091   7.5395608543e+01   8.4368281909e+00    0.1426948   0.09690045  11.86  0.000214179    1.618    0.382
        47 -11.1343     17.5418    227.1429   1.3314467595e+02   2.7419080037e+01    0.2800974    0.1367962 -68.24  0.001652076    2.304    0.566
        48  -9.0338    167.5009    112.9139   8.8287542477e+01   2.5998518791e+01    0.3143325    0.2425867 -78.95  0.001303721    1.754    0.430
        49 -12.4990     66.6598    166.4399   1.2021237985e+02   3.2920984774e+01     0.399039    0.2504323 -49.74  0.001768159    2.074    0.518
        50  -9.5033     60.2356    223.9901   1.2629681112e+02   2.3304915238e+01    0.1591397   0.09907535  66.89   0.00117347    1.234    0.189
        51 -10.2925    244.1351    100.6996   7.1521978413e+01   1.0942222586e+01    0.2095494    0.1903415 -82.35  0.001209523    1.436    0.303
        52  -8.5291    169.9947     95.4957   8.3165728211e+01   2.8645012454e+01    0.2200064    0.1955386 -33.25 -2.265829e-06    1.095    0.087
        53 -10.6271    244.0597     92.7506   6.9526883782e+01   1.2050701280e+01    0.2710176    0.1886202  31.95  0.001368045    1.555    0.357
        54  -9.6420     12.2282     93.4631   1.2474489841e+02   5.4475894838e+01    0.1711397    0.1219961  15.45 0.0007850273    2.002    0.501
        55  -9.5643    226.0714     87.9826   7.0960038432e+01   1.6717102490e+01    0.2223437    0.2061232  31.84 0.0003508654    1.130    0.115
        56  -8.4014    158.2721     79.6491   8.1071019846e+01   3.4315049837e+01     0.159208    0.1185082 -63.61 0.0003996742    1.632    0.387
        57  -8.0912    112.9921     76.9538   9.1289876930e+01   4.4885126140e+01    0.1690885    0.1525096 -45.42            0    1.028    0.027
        58 -10.3399     21.1263    222.1036   1.3238684503e+02   2.7880386865e+01    0.1655648    0.1055362  59.47 0.0005045034    1.159    0.138
        59  -8.7213     22.6267     70.8108   1.1794232235e+02   5.8886494180e+01    0.1809867   0.09565593 -77.17 0.0009421697    1.743    0.426
        60  -8.0957    169.7230     68.7083   7.5288749827e+01   3.3454463041e+01    0.1542404     0.120249  13.48 0.0002199716    1.523    0.343
        61 -10.4354    126.0646     54.8457   8.0484171711e+01   4.6390310744e+01    0.2437337    0.2128524 -25.64 0.0002413776    1.093    0.085
        62  -9.4563     87.4770    241.8585   1.2322336442e+02   1.7202464843e+01     0.191384    0.1105807  62.93 0.0006679497    1.420    0.296
        63  -9.1044    250.5740    238.0896   9.7438164188e+01  -5.7640121147e+00    0.1289172   0.08946601 -11.31 0.0004579329    1.509    0.337
        64  -8.7433    101.5591    234.9070   1.2044714085e+02   1.6341201618e+01    0.1317737   0.09601601 -79.33 0.0004492521    1.547    0.354
        65  -9.1147    221.8342     39.3862   5.7840855649e+01   2.4467352927e+01    0.3024272     0.204467 -19.64  0.001056749    1.450    0.310
        66  -7.8342    168.2547     22.6925   5.9906589292e+01   4.0573425734e+01    0.1519141      0.10909 -52.78 0.0002202547    1.515    0.340
        67 -10.2300     52.8848    230.1155   1.2785205587e+02   2.3194133187e+01    0.3542324     0.145354  89.68   0.00201544    2.847    0.649
