#   1 NUMBER                 Running object number                                     
#   2 MAG_AUTO               Kron-like elliptical aperture magnitude                    [mag]
#   3 X_IMAGE                Object position along x                                    [pixel]
#   4 Y_IMAGE                Object position along y                                    [pixel]
#   5 X_WORLD                Barycenter position along world x axis                     [deg]
#   6 Y_WORLD                Barycenter position along world y axis                     [deg]
#   7 A_WORLD                Profile RMS along major axis (world units)                 [deg]
#   8 B_WORLD                Profile RMS along minor axis (world units)                 [deg]
#   9 THETA_WORLD            Position angle (CCW/world-x)                               [deg]
#  10 FWHM_WORLD             FWHM assuming a gaussian core                              [deg]
#  11 ELONGATION             A_IMAGE/B_IMAGE                                           
#  12 ELLIPTICITY            1 - B_IMAGE/A_IMAGE                                       
         1 -12.9254    214.4817     31.8736   4.1996972942e+01   2.8155846551e+01     1.450368    0.9226686  29.46  0.006781908    2.556    0.609
         2 -12.7214    221.9700     25.4492   3.9655069788e+01   2.7213460135e+01    0.9362878    0.8297839   0.80  0.003487417    1.495    0.331
         3 -10.6085      2.3239     20.6571   9.9672979885e+01   7.1252781980e+01    0.3870273    0.1273627 -54.62  0.001839812    2.645    0.622
         4 -10.8912      2.0000     11.0206   9.5886716349e+01   7.2913773820e+01    0.5216118   0.09316292 -48.09  0.002105701    3.696    0.729
         5 -11.8592    240.8131     10.1032   3.4570364030e+01   2.4803404998e+01    0.6026766    0.3190203 -34.17  0.002526688    1.823    0.452
         6 -12.1873    236.9839      8.7707   3.4569055369e+01   2.5771976566e+01    0.6352295    0.3497287 -35.23  0.002465863    1.743    0.426
         7  -9.1131    189.4794     15.4699   4.0615984285e+01   3.6039843954e+01    0.1325435    0.1176402 -89.56 0.0003296024    1.007    0.007
         8 -12.8955    122.0459    246.8487   1.0696049527e+02   7.3324177927e+00     1.028774    0.5691797  28.63  0.005396691    1.943    0.485
         9 -11.2520     58.8294    249.3155   1.1913275310e+02   1.5671171975e+01    0.3872235    0.2849806  45.89  0.002738125    1.248    0.199
        10  -9.6788     52.2979    250.2615   1.2037094107e+02   1.6302757550e+01    0.2390475     0.113034  49.12  0.001404498    1.635    0.388
        11 -12.6404     31.0948    247.1499   1.2389547351e+02   1.9314525479e+01    0.8210456    0.6323575  39.11  0.005019815    1.490    0.329
        12 -14.8680      8.4683    241.6848   1.2746242517e+02   2.2654628901e+01     13.46038     1.414992 -78.94    0.0357298   11.046    0.909
        13 -14.7050     35.6755    199.5419   1.1977769544e+02   2.8344374764e+01     4.516787     1.936266  77.06    0.0196067    2.896    0.655
        14 -10.0032     94.6149    222.2446   1.0966831148e+02   1.5935439098e+01     0.269561    0.1950755 -69.95  0.001225377    1.484    0.326
        15  -8.9437    164.3372    225.9877   9.5708590361e+01   4.1705160750e+00    0.2017969   0.09643485 -25.86 0.0007051321    4.373    0.771
        16 -13.7480     10.4546    207.2892   1.2536673029e+02   2.9215007856e+01     1.708117    0.8944204 -86.49  0.004782618    1.590    0.371
        17 -11.5571     84.3678    224.8742   1.1206683791e+02   1.6895749425e+01    0.5015746    0.4197324  63.77  0.003333226    1.016    0.016
        18 -12.4221    126.9317    230.8897   1.0404803667e+02   9.3546447556e+00    0.6905191    0.3109406  38.90  0.003259333    1.897    0.473
        19 -10.1745     44.2224    187.5094   1.1684562336e+02   3.0068182479e+01    0.2470224    0.1611397  71.86 0.0007399931    1.438    0.305
        20 -10.9267     55.2385    182.0069   1.1374970272e+02   3.0024892879e+01    0.3726388    0.2744093 -32.56  0.001222225    1.972    0.493
        21 -10.8572     61.3358    175.9661   1.1158734596e+02   3.0667339768e+01    0.2966701    0.2623905 -41.58  0.000775657    1.387    0.279
        22 -10.1293     97.7104    170.7374   1.0188051286e+02   2.6627313445e+01    0.3718862    0.0949072  44.33  0.001118696    3.874    0.742
        23 -10.5059     72.2074    165.5502   1.0748716629e+02   3.1693537223e+01    0.3549316    0.2459429 -63.44 0.0004164027    1.357    0.263
        24 -12.4149     58.7055    162.1317   1.1043272533e+02   3.4297391925e+01    0.5150006    0.2878824 -46.22  0.001674965    2.058    0.514
        25 -11.6938     58.2123    133.1032   1.0609695659e+02   4.1490825311e+01      0.98418    0.3864426 -76.47  0.002953931    4.405    0.773
        26 -12.4530     67.8981    144.4841   1.0530948470e+02   3.7422170616e+01    0.9622679    0.6097357  86.05  0.002723121    1.997    0.499
        27 -10.4361     32.9678    156.7395   1.1627986103e+02   3.8469918200e+01    0.3457382    0.1414625 -75.94  0.001500181    2.254    0.556
        28 -11.0340     22.4467    148.2390   1.1801239736e+02   4.1478713098e+01    0.2882108    0.2279394 -57.27  0.001838504    1.286    0.222
        29  -9.6666     95.0089    144.5052   9.7855778100e+01   3.3345675785e+01    0.3109944     0.277644  46.40  0.000982951    1.154    0.133
        30  -9.0533     97.9890    141.4989   9.6438167743e+01   3.3578096085e+01    0.3291154    0.2155954 -24.88  0.001366172    2.261    0.558
        31 -10.9997     82.8789    142.9759   1.0089636753e+02   3.5644447053e+01    0.3082507    0.2646627 -52.43 0.0004474895    1.145    0.127
        32  -9.5449     28.6391    142.6617   1.1575384540e+02   4.2280785297e+01    0.2004132    0.1292884 -46.95  0.001096782    1.662    0.398
        33  -9.8877    106.8919    131.8587   9.1906757996e+01   3.4345517917e+01    0.3631047    0.3398999  57.19  0.001211084    1.103    0.094
        34  -9.7497     94.3577    128.6687   9.4736612017e+01   3.7308204467e+01    0.2846035    0.2465289 -20.20 0.0005782884    1.316    0.240
        35  -8.3470    160.3363    126.6758   7.6834343717e+01   2.4643809739e+01     0.160469    0.1268491 -86.23 0.0007051122    1.716    0.417
        36  -9.2313    114.5825    126.2496   8.8470283983e+01   3.4246497517e+01    0.2221498    0.1414262 -40.70  0.000829389    1.609    0.379
        37 -12.0107     79.8344    158.4901   1.0443006830e+02   3.2308811842e+01     0.777214    0.6286933  59.86  0.001985849    1.242    0.195
        38  -8.8918    105.2083    120.2157   8.9656285808e+01   3.7429310421e+01    0.2182327    0.1996718 -27.87 0.0004034634    1.129    0.114
        39  -8.5686    168.0245    113.0544   7.1570972769e+01   2.5772977703e+01    0.2511521      0.19572 -80.13  0.001027414    1.717    0.418
        40 -10.7370     53.1596    109.5013   1.0316647015e+02   4.7912915368e+01     0.450515    0.1455285 -55.88   0.00167008    2.513    0.602
        41  -8.6040    205.5486    110.4922   6.3270341004e+01   1.7818001225e+01    0.1497959    0.1393011 -33.52  9.21412e-05    1.006    0.006
        42  -8.6828     46.3629     91.7045   1.0153448851e+02   5.2937589522e+01     0.133022    0.1025552  71.64 0.0007031458    1.711    0.416
        43 -12.0389     25.4723    210.4471   1.2265958690e+02   2.7096868574e+01     0.391239    0.3348324 -64.23 0.0007794176    1.453    0.312
        44  -9.8074      2.4766     51.4855   1.0907672067e+02   6.5263472170e+01    0.2484995   0.09335054 -62.44 0.0009390364    2.133    0.531
        45 -12.7779     78.5740    247.4464   1.1534905537e+02   1.3450389076e+01     1.174833    0.4975365  34.60  0.005842436    2.304    0.566
        46 -13.3613     99.0591    247.8856   1.1150990869e+02   1.0529678462e+01      1.74932    0.5230275  39.72  0.007516236    2.654    0.623
        47 -11.4899     16.3076    216.4002   1.2478858015e+02   2.6788897431e+01     0.428959    0.3298694  63.25  0.001522782    1.134    0.118
        48 -12.6942    114.0362    230.0797   1.0658395764e+02   1.1508759003e+01      1.07348     0.219901  40.51  0.003596745    3.818    0.738
        49 -11.5593     40.3905    234.9738   1.2148832938e+02   2.0550293388e+01     0.423338    0.2415113  79.45  0.001274899    1.610    0.379
        50 -11.5362    135.1905    230.3554   1.0228903491e+02   8.1415892293e+00    0.3300053    0.2999372 -59.99  0.002192204    1.282    0.220
