#   1 NUMBER                 Running object number                                     
#   2 MAG_AUTO               Kron-like elliptical aperture magnitude                    [mag]
#   3 X_IMAGE                Object position along x                                    [pixel]
#   4 Y_IMAGE                Object position along y                                    [pixel]
#   5 X_WORLD                Barycenter position along world x axis                     [deg]
#   6 Y_WORLD                Barycenter position along world y axis                     [deg]
#   7 A_WORLD                Profile RMS along major axis (world units)                 [deg]
#   8 B_WORLD                Profile RMS along minor axis (world units)                 [deg]
#   9 THETA_WORLD            Position angle (CCW/world-x)                               [deg]
#  10 FWHM_WORLD             FWHM assuming a gaussian core                              [deg]
#  11 ELONGATION             A_IMAGE/B_IMAGE                                           
#  12 ELLIPTICITY            1 - B_IMAGE/A_IMAGE                                       
         1 -13.5703     67.6134    144.4710   1.2782207830e+02   3.7414016603e+01     2.865285     1.234045  89.75  0.002717433    6.192    0.839
         2 -12.8549      2.2663     24.7220   1.2759571227e+02   6.9545783946e+01    0.7667807    0.3815329 -65.07  0.004438202    1.561    0.359
         3 -13.1212      2.6848     15.4678   1.2462247040e+02   7.1454350602e+01      1.94123    0.5250048 -38.35  0.008190583    3.398    0.706
         4 -13.5151      2.2259      5.5868   1.2130754432e+02   7.3460303161e+01     2.707861    0.3943803 -59.31  0.009103809    4.753    0.790
         5 -14.0927    190.4869     23.9105   6.7225065272e+01   3.4470974002e+01      2.14617     1.397871  -7.50  0.007260397    1.656    0.396
         6 -13.8895    198.4448     18.5458   6.4433601865e+01   3.2963020739e+01      1.40093     1.135481 -81.49  0.005129629    1.384    0.277
         7 -13.9218    203.5599     10.5664   6.1320095975e+01   3.2420508492e+01     1.633439    0.9104182  48.15  0.001367103    1.813    0.448
         8 -11.1903     12.9345     23.9122   1.2210344179e+02   6.9141291330e+01     0.208331    0.1528647 -65.88 0.0007975154    1.311    0.237
         9 -12.0017    249.0115    245.5035   1.0802507820e+02  -4.2531056415e+00    0.7786983    0.1291023  35.68  0.002971132    4.715    0.788
        10 -12.9195    139.4105    248.7393   1.2550890555e+02   1.0525611163e+01    0.5299768    0.3186302  47.92  0.003871011    1.282    0.220
        11 -14.7083    102.6305    245.8931   1.3113877177e+02   1.5692344968e+01     3.686715     2.129387  27.70   0.01306603    2.209    0.547
        12 -15.5100     55.2122    213.9858   1.3668508823e+02   2.6012678500e+01     4.712151     2.055223  72.79   0.02636164    2.682    0.627
        13 -10.3241    229.5524    207.1749   1.0534503888e+02   1.9093273171e+00    0.2051505    0.1874537 -36.78  0.001066762    1.719    0.418
        14 -10.6826    192.9322    194.7281   1.0956429593e+02   9.1619972522e+00    0.6494124    0.3474664 -59.70  0.002329623    6.409    0.844
        15 -11.8243     70.5577    193.5526   1.3238560053e+02   2.7671803154e+01    0.3177352    0.2134885 -45.09  0.002059606    2.190    0.543
        16 -11.8628     75.2326    186.6636   1.3086187613e+02   2.8313064912e+01    0.2340206    0.2019294 -60.28 0.0005690674    1.413    0.292
        17  -8.8317    181.5199    192.4782   1.1125599950e+02   1.1344196969e+01    0.1230828    0.1000856  30.29 -1.444513e-05    1.005    0.005
        18  -9.4602     65.8597    186.4371   1.3265702908e+02   2.9490003652e+01    0.2276656    0.1457274 -35.04  0.001272274    3.023    0.669
        19 -11.2781     83.7401    174.8634   1.2794004871e+02   2.9369607219e+01    0.2058982     0.182789 -83.91 0.0004102218    1.165    0.142
        20 -13.3979     71.4771    172.1547   1.3016643057e+02   3.1443776142e+01    0.4003987    0.2491947 -45.52   0.00234599    2.197    0.545
        21 -10.8139    119.5254    174.6997   1.2057606530e+02   2.4246754381e+01     0.336241   0.08449185  44.70    0.0012166    3.498    0.714
        22 -12.6746     89.8865    166.5214   1.2566855810e+02   3.0105631836e+01      1.72854    0.4691201  49.71   0.00311477    4.087    0.755
        23 -10.7057     38.4504    161.9872   1.3606896738e+02   3.7083811619e+01    0.2206653     0.121384  54.03  0.001074988    1.613    0.380
        24 -10.1283    102.0356    149.9775   1.2069414044e+02   3.1554599991e+01    0.2366548    0.2213633  42.96 0.0007496165    1.137    0.120
        25  -9.2628    104.4496    146.0628   1.1952500909e+02   3.1960013765e+01     0.309604    0.1903251 -31.15  0.001447034    2.578    0.612
        26 -12.2712     90.9155    149.3379   1.2312249048e+02   3.3320022251e+01    0.2400302    0.2262219 -42.73 0.0004608885    1.260    0.206
        27 -10.0313     44.6788    149.6913   1.3363057874e+02   3.8921090389e+01     0.105907   0.08341447 -45.45 0.0002573885    1.644    0.392
        28  -9.0803    134.0000    144.9880   1.1265801818e+02   2.7249960180e+01    0.2115083   0.07650148 -48.64  0.000802265    2.941    0.660
        29 -10.6595     54.9607    144.6912   1.3077556386e+02   3.8850974684e+01     0.168669    0.1424298  66.51  0.001175644    1.102    0.092
        30 -14.6896     35.2564    246.2867   1.4155360396e+02   2.3209854302e+01     2.941002    0.7587833  40.73   0.01745388    2.638    0.621
        31 -14.3660     11.2687    206.7697   1.4368670079e+02   3.1484332947e+01     1.170429    0.6938586  65.15  0.002884537    1.220    0.181
        32  -9.9352    112.1328    135.5531   1.1592296735e+02   3.2835712920e+01    0.2892534    0.2196351 -10.50  0.001466674    1.952    0.488
        33 -10.7203     99.6791    132.8383   1.1841577531e+02   3.5386015813e+01    0.2450337    0.2107727 -26.66 0.0007764466    1.420    0.296
        34  -9.2152     81.7992    170.3214   1.2782636496e+02   3.0475042843e+01    0.1869209    0.1205979  56.71 0.0008707801    1.418    0.295
        35 -11.3945     43.1976    126.7010   1.3149530847e+02   4.3917225760e+01    0.2378991    0.1442277  57.11 0.0007386237    1.667    0.400
        36  -9.3144    108.5917    123.0251   1.1438235767e+02   3.5988737412e+01    0.1802433    0.1579462 -57.84  0.001055725    1.131    0.116
        37 -11.2646    168.1364    113.1428   9.8168194393e+01   2.6412651235e+01    0.3496918    0.3100941 -78.18 0.0009094258    1.435    0.303
        38  -9.5518    204.5781    110.9613   9.0327464494e+01   1.8909395384e+01     0.340066    0.1572557  34.09  0.001283146    2.505    0.601
        39 -15.5680      4.6706    239.1050   1.4576519059e+02   2.7038904792e+01     7.435161    0.6512375 -73.92   0.03069747    7.268    0.862
        40 -15.0421     10.6381    152.1755   1.4116140045e+02   4.1456518774e+01      2.38837     1.066382  87.87 0.0007712143    1.949    0.487
        41  -9.7940    155.4860     76.4830   9.0912058903e+01   3.5733696805e+01    0.1533721    0.1457288  -3.43 0.0001060707    1.011    0.011
        42 -11.3203    125.3215     52.7667   9.0526704384e+01   4.6789074075e+01    0.4738775    0.3388318  80.51  0.001583073    2.229    0.551
        43 -13.7856     47.6227    228.7057   1.3881404348e+02   2.4526626060e+01    0.6100972     0.340467  74.65  0.001840135    1.610    0.379
        44 -12.9975     84.1261    238.3914   1.3354674564e+02   1.8989810633e+01    0.5911491    0.2688293  67.11  0.003415037    2.712    0.631
        45 -13.4369     72.6789    226.5963   1.3458970843e+02   2.2064913406e+01    0.9832556    0.3302169  60.91  0.004433919    3.977    0.749
        46 -11.2104    173.7803    220.7539   1.1667435434e+02   8.9592872034e+00    0.2431314    0.1738222  21.36  0.001672598    1.385    0.278
        47 -10.9590     34.2736    229.4696   1.4096727044e+02   2.5765621448e+01    0.2047473    0.1027418  63.60 0.0008091119    1.544    0.352
        48 -10.7741     36.6557    225.3176   1.4039395150e+02   2.6164741380e+01    0.1894891    0.1566354   4.38  0.001543536    2.265    0.558
