#   1 NUMBER                 Running object number                                     
#   2 MAG_AUTO               Kron-like elliptical aperture magnitude                    [mag]
#   3 X_IMAGE                Object position along x                                    [pixel]
#   4 Y_IMAGE                Object position along y                                    [pixel]
#   5 X_WORLD                Barycenter position along world x axis                     [deg]
#   6 Y_WORLD                Barycenter position along world y axis                     [deg]
#   7 A_WORLD                Profile RMS along major axis (world units)                 [deg]
#   8 B_WORLD                Profile RMS along minor axis (world units)                 [deg]
#   9 THETA_WORLD            Position angle (CCW/world-x)                               [deg]
#  10 FWHM_WORLD             FWHM assuming a gaussian core                              [deg]
#  11 ELONGATION             A_IMAGE/B_IMAGE                                           
#  12 ELLIPTICITY            1 - B_IMAGE/A_IMAGE                                       
         1 -13.3659      7.2509     51.8035   8.2635964850e+01   6.6797628392e+01     1.273333     1.023675 -78.83  0.007631947    1.768    0.434
         2 -12.4878      3.3744     14.5596   7.1021096569e+01   7.3701486419e+01    0.4494554    0.2919906 -42.29  0.001826625    1.748    0.428
         3 -12.4927    132.9275     18.9728   2.7496276642e+01   4.7935404436e+01     0.317531    0.2069729  63.23 0.0003960053    1.343    0.255
         4 -10.7282     31.0257     14.0839   5.3806399014e+01   6.9924677394e+01    0.4552652    0.3346287  44.34  0.002918396    1.333    0.250
         5 -11.8777     28.5850     19.6879   5.7707174639e+01   6.9625354482e+01    0.3079763    0.2384833  36.81 0.0001336827    1.238    0.192
         6 -12.6089    238.1240     17.6452   1.7878022568e+01   2.7654340727e+01    0.2296616    0.1504665 -61.61 0.0003675471    1.094    0.086
         7 -11.6547    232.8129     14.9559   1.7737707127e+01   2.8809374170e+01    0.3037665    0.1266556 -46.08  0.001960554    1.865    0.464
         8 -11.2675    234.7435     10.0789   1.6841487013e+01   2.9007655581e+01    0.1895662    0.1097625 -79.13  0.001220473    1.380    0.275
         9 -10.9455     76.7042     15.4158   3.7323522657e+01   6.0802714699e+01    0.5586116     0.182237  50.49  0.002036478    2.389    0.581
        10 -10.7158     72.6449     11.0529   3.6789339239e+01   6.2093504400e+01    0.4367005    0.2501991   3.05  0.002141585    2.991    0.666
        11 -11.1813     77.4205      9.7577   3.5058941413e+01   6.1177025007e+01    0.4936646    0.1708398  52.11  0.002233624    2.202    0.546
        12 -10.8951     10.7555     15.1216   6.6178611874e+01   7.2772629036e+01    0.4287981    0.2139958  -4.54  0.001816884    3.436    0.709
        13 -10.5860     15.0776     13.3477   6.2508587955e+01   7.2452385724e+01    0.1837221    0.1463017  -1.88 0.0004310531    1.162    0.139
        14 -10.6100     60.3296     13.7895   4.1565977786e+01   6.4426122904e+01    0.2529816    0.2039194  47.10  0.001145458    1.013    0.012
        15 -10.3763    130.3866     13.5724   2.6426881868e+01   4.9034103716e+01     0.194034    0.1440329 -34.09  0.000731333    1.628    0.386
        16 -12.3168    119.5210     11.7856   2.7498986559e+01   5.1619182835e+01    0.2324588    0.1901284  70.13 0.0002431594    1.092    0.084
        17 -10.3625    101.7389     10.6493   3.0127448684e+01   5.5705997426e+01    0.2988508     0.209605  -4.02  0.001345839    2.110    0.526
        18 -11.0533    158.8442      8.5665   2.1934438523e+01   4.3373449357e+01    0.3528075    0.2190074  72.95  0.001692174    1.367    0.268
        19 -10.4346    154.4545      8.0322   2.2243101085e+01   4.4347552001e+01    0.2178916    0.1647875 -63.95 0.0006475655    1.234    0.190
        20  -9.8001    145.0053     10.9754   2.3946711516e+01   4.6086245433e+01    0.1750603    0.1477739 -30.56 0.0003914732    1.542    0.351
        21 -11.2572    145.7903      6.2810   2.2724633290e+01   4.6356694440e+01    0.3013648    0.2060633 -52.26  0.002017847    1.474    0.321
        22 -10.9981     19.7343     16.7533   6.1313606213e+01   7.1348178324e+01    0.3515691     0.284781  41.86  0.002346903    1.492    0.330
        23  -9.2589    132.2930      9.3084   2.5056417242e+01   4.9015190647e+01    0.1123704   0.07949913  49.86 0.0002593999    1.584    0.369
        24 -10.9822      9.4079      8.4323   6.3724929993e+01   7.3848315936e+01     0.296697    0.2088575  30.70   0.00119724    1.317    0.241
        25  -9.3394     24.3153      8.2891   5.4499418022e+01   7.1698375599e+01    0.1222835   0.07556575  18.64 0.0001587027    1.590    0.371
        26 -10.2274     99.1707     12.7303   3.1271068701e+01   5.6091198530e+01    0.2031965    0.1574569 -58.87 0.0008729735    1.475    0.322
        27 -10.1726     20.5150      6.0041   5.5461868484e+01   7.2558838889e+01    0.2689114     0.169605 -20.71  0.001668528    1.787    0.440
        28 -11.5210     25.7114      2.1773   5.0587902953e+01   7.2122332767e+01     0.534883    0.1756834  46.53  0.001718496    2.509    0.601
        29 -10.5877    222.9930      5.5413   1.6717977988e+01   3.1436629054e+01    0.1738106    0.1146407 -54.83 0.0003207923    1.255    0.203
        30  -9.9072     34.7094      1.3674   4.5807308479e+01   7.0611792253e+01    0.3985577    0.1017625  53.47  0.001451051    3.837    0.739
        31 -10.6142    229.6932      4.6738   1.6225072180e+01   3.0394932405e+01    0.1841141    0.1128914 -78.89 0.0006221834    1.253    0.202
        32 -10.4117    229.5848      1.4851   1.5712164227e+01   3.0731914421e+01    0.1820794    0.1069772 -65.37  0.000686148    1.212    0.175
        33 -10.9389    164.6867      4.9135   2.0590281147e+01   4.2506909445e+01    0.2035916     0.144821 -75.59 0.0004159354    1.149    0.130
        34 -11.7645    168.1444      1.9987   1.9672200684e+01   4.2069876711e+01    0.1977527    0.1374245  88.60 0.0002772153    1.128    0.113
        35 -11.0301    125.9400      3.2564   2.4265319232e+01   5.0950706569e+01    0.3004732    0.2447391   3.19  0.002072627    1.829    0.453
        36 -10.8777     36.5483      7.7209   4.8096211513e+01   6.9659765637e+01    0.3413407    0.1927124  52.22 0.0009289717    1.657    0.397
        37 -11.8695    242.9957      3.0999   1.5339885590e+01   2.8396362140e+01    0.2914463    0.1399976  79.30  0.001394763    1.953    0.488
        38 -10.9262    179.0138      3.8299   1.9202033261e+01   3.9718086581e+01    0.1705146    0.1276331 -64.60 0.0002562641    1.170    0.146
        39 -11.0061    176.3991     10.8624   2.0851399889e+01   3.9551155673e+01    0.2358958    0.1910957 -87.58  0.001788516    1.121    0.108
        40 -11.0644     90.9654      2.1220   2.9392434043e+01   5.8830250062e+01    0.1723226    0.1489015  67.39 0.0002803913    1.104    0.094
        41 -10.9945     73.8562      1.8683   3.3000721597e+01   6.2614589243e+01    0.3161805    0.1816073  75.00  0.001461652    1.753    0.429
        42 -10.6793     11.4774      2.0716   5.8912607689e+01   7.4350196496e+01     0.233027    0.1425548  10.86 0.0008202548    1.616    0.381
        43 -10.1083    141.0133      1.6879   2.2115847879e+01   4.7793104070e+01    0.1651491    0.1145483  81.13 0.0002073582    1.136    0.119
        44 -10.7940     16.3596      3.2135   5.6443195977e+01   7.3508832414e+01    0.3562353    0.1965499  14.83  0.001943412    2.047    0.511
        45  -9.5423    144.6572      1.2642   2.1636030657e+01   4.7046288826e+01    0.1182602   0.06897193 -76.47  0.000230098    1.599    0.375
        46 -10.0304      1.7642    180.1853   1.0474809094e+02   3.4673224102e+01    0.1948151    0.1513365 -43.74  0.001058537    1.356    0.262
        47 -10.6974    247.2914    249.9385   5.4576505093e+01  -7.4604452435e+00    0.1549217    0.1012987 -24.15  0.001154776    1.064    0.060
        48  -9.6708    155.6794    250.3078   7.1714802682e+01   9.4699922699e-01    0.1162804   0.09630822  43.17 0.0007033452    1.641    0.390
        49  -9.6934    110.0004    250.4631   8.2278462704e+01   6.1457296281e+00    0.2060031    0.1156464  23.56 0.0005113342    1.542    0.352
        50 -10.6043     90.4843    249.4368   8.6940467217e+01   8.6423399756e+00    0.2692671    0.2149132  -6.66 0.0007357849    1.266    0.210
        51 -12.2316     21.6503    248.6361   1.0397390824e+02   1.6167797327e+01    0.7632638    0.1886324  35.09   0.00295823    2.793    0.642
        52 -11.6541     14.4757    244.9783   1.0549194245e+02   1.7629454867e+01    0.2680863    0.1871402  56.73  0.001094875    1.307    0.235
        53 -10.6065     12.6989    250.2419   1.0620559297e+02   1.6621732124e+01    0.2371962    0.1672236   7.41  0.001370649    1.599    0.375
        54  -9.9531    172.4871    175.5113   5.5807126659e+01   1.3320316599e+01    0.1362481    0.1223588 -30.73 0.0001538198    1.045    0.043
        55 -11.4064      5.4424    168.4664   1.0266940044e+02   3.7570252220e+01    0.3352958    0.1741245 -88.37  0.001430962    2.011    0.503
        56  -9.9250    248.3100    168.6835   4.1977064667e+01   4.7527947498e+00    0.1046367   0.07743324 -60.15 0.0003375932    1.636    0.389
        57 -10.9592     18.0372    172.5099   9.9004750918e+01   3.5529664592e+01    0.3818865    0.2067691  39.92  0.001677745    1.832    0.454
        58 -10.2967     67.6072    165.7642   8.1905626388e+01   3.1894636066e+01    0.2145188     0.151802 -76.64 0.0006076924    1.631    0.387
        59 -10.3044     33.1388    166.1674   9.3333920047e+01   3.5889349644e+01    0.2136836    0.2078573 -40.37 0.0002924871    1.027    0.026
        60  -9.7059     36.5144    165.5587   9.2128627884e+01   3.5712942861e+01    0.2564226    0.1930934  32.61 0.0007904135    1.320    0.243
        61 -11.0726     51.3499    161.7950   8.6614729285e+01   3.5069717286e+01     0.469449    0.2720261 -60.68  0.001163593    1.684    0.406
        62 -10.1401      9.0008    163.0041   1.0101501001e+02   3.8807568611e+01    0.3331249    0.1671499 -23.24  0.001310874    2.579    0.612
        63  -9.6037    132.5666    161.2523   6.2162461014e+01   2.2744670474e+01    0.2116206    0.1339413 -39.49 0.0006557613    1.579    0.367
        64 -10.6464     67.0388    157.8042   8.0726008942e+01   3.4093836771e+01    0.2393821    0.2187295 -57.62 0.0002796936    1.111    0.100
        65 -11.0332     20.2685    157.0943   9.6581192237e+01   3.9558697199e+01    0.3934071    0.2760902 -69.09  0.001401094    1.362    0.266
        66 -10.3787    247.0000    157.0319   4.0252388496e+01   6.7575714092e+00    0.1963464   0.04952075 -44.27 0.0008085248    2.985    0.665
        67  -9.9002      1.5132    157.5224   1.0299808493e+02   4.0786642626e+01    0.1400274    0.1296092 -67.34  0.000200378    1.020    0.020
        68 -10.0760    216.4783    154.4798   4.4096247955e+01   1.1019689091e+01    0.1234916     0.100565 -41.17 2.621827e-05    1.019    0.019
        69  -9.6919     40.8619    153.1458   8.8880331673e+01   3.8646017174e+01    0.2112531    0.1605349 -46.01 0.0005846812    1.295    0.228
        70 -10.5857     10.6896    153.0412   9.9435261485e+01   4.1408172311e+01    0.3462758    0.2079369  20.89 0.0008765349    1.714    0.417
        71 -10.1633    235.9907    151.2460   4.0735871367e+01   9.0226539499e+00    0.1255906    0.1009087  40.01 0.0008872248    1.600    0.375
        72  -9.1720    176.6919    150.3025   5.0161440730e+01   1.7722116834e+01    0.1300816    0.1056521 -80.99 0.0003828694    1.603    0.376
        73 -10.7515     13.9680    148.0069   9.7718502244e+01   4.2547780236e+01    0.2094795     0.201529 -63.70 0.0003343849    1.018    0.018
        74 -11.0621      8.5706    145.3257   9.9341669553e+01   4.3660918860e+01     0.411079    0.2268156  -6.24   0.00176566    2.142    0.533
        75  -9.9194    187.6523    144.1528   4.6932577990e+01   1.7155192534e+01     0.194894    0.1787559  62.08 0.0004966208    1.274    0.215
        76 -10.8822     24.9540    142.9322   9.3085549753e+01   4.3037167446e+01    0.2186725     0.207327 -50.25 0.0003597878    1.010    0.009
        77 -10.1619    216.8167    145.2187   4.2392959848e+01   1.2588713771e+01    0.1656515    0.1286609 -25.62 0.0006225944    1.341    0.254
        78 -10.5460     65.3622    138.9343   7.7762903696e+01   3.9327449694e+01    0.2691608     0.224841  13.35 0.0004703345    1.214    0.176
        79 -10.4524    236.1351    138.0713   3.8474314003e+01   1.1162932902e+01    0.1716166    0.1353486 -31.56 0.0007125904    1.250    0.200
        80  -9.2465    144.2838    137.2816   5.4342197811e+01   2.6008388941e+01    0.1404671    0.1124615 -11.68 0.0002414715    1.517    0.341
        81  -9.4338      9.4894    136.4957   9.7976978679e+01   4.6002032124e+01    0.1442659    0.1321482 -50.55 -6.779396e-05    1.019    0.019
        82 -10.7691      2.9493    134.7463   1.0022097823e+02   4.6880359374e+01    0.3065211    0.1720991 -73.29  0.001384401    1.667    0.400
        83 -10.0561     20.7754    134.6998   9.3471796333e+01   4.5641262475e+01    0.2249687    0.1189514 -85.34 0.0007636967    2.320    0.569
        84 -11.8889    241.5985    133.5948   3.7031360765e+01   1.1169581262e+01    0.2631287    0.1733522 -28.65   0.00167436    1.668    0.400
        85 -11.2235     53.6813    131.8959   8.0556206305e+01   4.2809314377e+01    0.4921898    0.3225103  53.68  0.002115045    1.837    0.456
        86 -10.8814     59.0137    131.4920   7.8523750368e+01   4.2183076452e+01    0.3675272    0.2400781 -29.28   0.00126467    1.761    0.432
        87 -11.5507     37.4190    129.7983   8.6292973582e+01   4.5350971773e+01    0.6807721    0.3026351 -41.31   0.00172716    2.393    0.582
        88 -10.8335     73.5525    129.0414   7.2843840147e+01   4.0622116865e+01    0.3133535     0.282927  46.18 0.0009544463    1.154    0.134
        89 -10.9943     56.5998    126.6728   7.8416335485e+01   4.3773490144e+01    0.3363519    0.2287339 -22.85 0.0008980344    1.727    0.421
        90 -12.4368     10.1386    120.9672   9.5670405265e+01   5.0131379591e+01    0.5986308    0.3918952  82.98  0.002805389    1.848    0.459
        91  -9.9555     30.1732    124.6147   8.8203767002e+01   4.7492014814e+01    0.2048231    0.1387712   0.98 0.0005777952    1.599    0.374
        92 -10.8040     20.0553    121.3244   9.1705224423e+01   4.9292095170e+01    0.3423214     0.165621 -51.20  0.001324386    1.855    0.461
        93 -11.0294      4.3246    130.1575   9.9168827369e+01   4.8037235915e+01    0.2371429    0.1850908 -14.47 0.0006204282    1.330    0.248
        94 -11.0547     15.6649    125.2060   9.4070457532e+01   4.8607084176e+01    0.3686359    0.1963739  23.56  0.001612769    1.891    0.471
        95 -10.8011     24.4899    118.8775   8.9487636024e+01   4.9551949146e+01    0.3699518    0.2161913 -70.03  0.001631027    1.772    0.436
        96 -10.7648      1.4015    118.5259   9.8883698387e+01   5.1299138690e+01     0.256671    0.1249311 -70.28 8.492839e-05    1.891    0.471
        97 -11.3222    249.8528    117.8642   3.3455986003e+01   1.2543118491e+01    0.2121442    0.1146521 -48.70 0.0007500077    1.402    0.287
        98  -9.4778     85.9885    116.0041   6.5610319598e+01   4.1691172505e+01    0.1812736     0.174807 -33.39            0    1.054    0.051
        99 -10.0499     52.7041    116.0381   7.7605390142e+01   4.7034291116e+01    0.2115777    0.1893675 -38.87 0.0002291476    1.098    0.089
       100 -12.1658     21.9611     98.6506   8.6725681066e+01   5.4963337035e+01    0.6242573    0.5036845  81.33  0.003301191    1.573    0.364
       101 -12.0244     22.0198     85.6994   8.3830899143e+01   5.8088733148e+01    0.8066822    0.2719626 -61.33  0.002208556    2.986    0.665
       102 -11.6015     24.7528    106.6815   8.7115853045e+01   5.2686357708e+01    0.6171085    0.3051196  -7.27  0.002300639    2.726    0.633
       103 -11.6750     16.0598    115.2047   9.2349517781e+01   5.1226559267e+01    0.3401722    0.2672421  20.19 0.0006022333    1.310    0.237
       104 -13.2025     15.5986    110.0968   9.1686940216e+01   5.2592373003e+01    0.7858955    0.6165469  12.98  0.004222718    1.293    0.227
       105 -11.0687    182.5618    114.3558   4.1873787430e+01   2.3558664162e+01    0.2369299    0.2367473 -17.40 0.0006102803    1.165    0.142
       106 -10.0492    105.5718    114.7721   5.9228325494e+01   3.8309868157e+01    0.2860689    0.1447814 -45.42  0.001127096    2.017    0.504
       107  -9.7143     72.0039    115.2227   7.0221336823e+01   4.4293142874e+01     0.211838    0.1232811  31.97 0.0006278314    1.675    0.403
       108 -11.5125    249.0560    111.9556   3.2562922433e+01   1.3545259347e+01     0.178734    0.1695226  57.50 0.0009578544    1.427    0.299
       109 -10.4680     92.9370    111.4453   6.2241576876e+01   4.1467121871e+01    0.4149904    0.2250829  57.15 0.0009771526    2.581    0.613
       110 -12.0510     37.5528    109.3009   8.2223160304e+01   5.0672366107e+01    0.5282282    0.3168789  35.60    0.0018166    1.695    0.410
       111 -10.8583     55.2253    109.7231   7.5179034809e+01   4.8248335241e+01    0.2778264    0.2404207 -26.26 0.0005958731    1.149    0.130
       112 -10.5480      2.8167    105.8736   9.6536493678e+01   5.4520729291e+01    0.3591759    0.2139987  82.61  0.001613333    2.183    0.542
       113 -11.3786    247.9411    105.7870   3.1654666543e+01   1.4623462840e+01    0.2042126    0.1322282  54.11   0.00141184    2.007    0.502
       114  -9.9381    111.6705    105.8577   5.5285309160e+01   3.9037696122e+01    0.2361531    0.1624899  48.23  0.001106389    1.438    0.305
       115 -11.4961     36.9440    101.8328   8.0830116623e+01   5.2605235650e+01    0.6411732    0.3724197  60.00  0.002344791    2.776    0.640
       116  -9.9540     32.4356     96.4848   8.1565241773e+01   5.4429644386e+01     0.237158    0.1620103  42.52 2.493888e-05    1.634    0.388
       117 -11.6880     61.8342     98.9252   6.9926845570e+01   4.9807849961e+01    0.4796342    0.2890002 -38.31  0.001417118    1.780    0.438
       118  -9.1184     94.7798     97.9891   5.8195104350e+01   4.4058903794e+01    0.1797284    0.1228976 -47.24 -0.0006383859    1.523    0.344
       119  -9.5724     76.6816     97.6474   6.4098953186e+01   4.7556482736e+01    0.1575081    0.1158294 -10.33 0.0007047061    1.744    0.426
       120 -11.0127     15.5857     96.6519   8.9217528411e+01   5.6003382501e+01    0.3043576    0.2402483  -5.24  0.001118964    1.227    0.185
       121  -9.7200     66.8049     97.6586   6.7699462060e+01   4.9278691082e+01    0.2518208    0.1714448  34.01 0.0002142488    1.402    0.287
       122 -10.2143      1.5855     93.2274   9.5083329786e+01   5.7779043964e+01    0.2402694    0.1444165 -56.59 0.0006800002    1.467    0.318
       123  -9.8153      9.6968     99.0476   9.2354907576e+01   5.5837735319e+01    0.1882866    0.1625319 -50.87 0.0003016187    1.097    0.088
       124 -10.8088    249.7104     91.0647   2.9042893062e+01   1.6534498541e+01    0.1592139    0.1064003 -49.68 0.0005400371    1.134    0.118
       125 -10.0968    231.5535     91.5019   3.0923278296e+01   1.9145787162e+01    0.1142511   0.08771825 -56.93 8.583938e-05    1.010    0.010
       126 -11.1424    157.9031     90.4055   4.1002725534e+01   3.2534298486e+01     0.297083    0.2600709  28.50 0.0008855581    1.441    0.306
       127 -10.1902     56.5322     90.7412   6.9837805333e+01   5.2508404749e+01    0.2640646    0.1371221 -46.48 0.0008337881    1.957    0.489
       128 -10.6518     10.6497     90.7764   9.0358606884e+01   5.7820658114e+01    0.2923726    0.1797981   1.29  0.001416271    1.647    0.393
       129 -10.0577     10.1205     86.4321   8.9735701803e+01   5.8909605688e+01    0.3067991    0.2017771  63.40  0.001200164    2.204    0.546
       130  -9.1150     74.0000     89.8496   6.2917099154e+01   4.9730147834e+01      0.24173   0.08507839 -49.39 0.0003055517    2.999    0.667
       131  -9.3636     97.6399     89.3040   5.4975118770e+01   4.5267106489e+01    0.1510221    0.1147683  77.72 0.0003419757    1.726    0.420
       132 -10.3686     83.7751     88.8033   5.9229968880e+01   4.8116229023e+01    0.3028485    0.1993251  27.73  0.001377912    1.641    0.391
       133  -9.9652    250.3100     87.3040   2.8368843261e+01   1.6986214160e+01   0.09358492   0.07755347 -28.96 0.0006525309    1.609    0.379
       134 -10.7802     65.3713     86.5188   6.5179660854e+01   5.1968954050e+01    0.3261526    0.2309188 -29.64  0.001569171    1.578    0.366
       135 -11.8831    107.2147     84.6631   5.0955978820e+01   4.4187884784e+01    0.2786806    0.2397934  67.68 0.0002974057    1.195    0.163
       136  -9.6047     38.8032     86.3698   7.6212473333e+01   5.6041249636e+01    0.1974885    0.1284692   9.65 0.0003260893    1.616    0.381
       137 -11.4677     30.5986     81.9665   7.8822573737e+01   5.8044140390e+01    0.4897644    0.2591473 -51.91  0.001788521    1.843    0.457
       138 -10.9431     76.6863     82.4643   5.9848357603e+01   5.0757271887e+01    0.2703274     0.233404  61.37 0.0002583558    1.292    0.226
       139 -10.6273      7.0158     81.6536   9.0274493689e+01   6.0260712454e+01     0.377623    0.1981965 -33.73  0.001757457    1.790    0.441
       140 -10.3409     42.5225     81.4818   7.3216281893e+01   5.6635961274e+01    0.3003217    0.1409423 -54.21  0.001231793    2.245    0.555
       141 -11.8873     21.2908     75.8135   8.1732647444e+01   6.0428460224e+01    0.5746073    0.3352393  -6.16  0.002653595    1.905    0.475
       142 -10.8310     99.7243     76.7223   5.0834572346e+01   4.7229171674e+01    0.2988253    0.2563571  -8.44  0.001452857    1.407    0.289
       143 -11.1060     88.0334     77.3110   5.4535176953e+01   4.9534044138e+01    0.2412284     0.210473 -45.65  0.000221977    1.238    0.192
       144  -9.3721      3.0000     77.9247   9.1532686882e+01   6.1387834567e+01    0.2050931    0.0718399 -65.97 0.0004009948    2.793    0.642
       145 -10.3121    247.3014     84.6598   2.8206659349e+01   1.7792056472e+01    0.1128389   0.06357832 -63.50 0.0005981337    1.671    0.401
       146 -10.4880     56.2702     74.8674   6.5358942504e+01   5.5928325521e+01    0.3177961    0.1830207  32.82  0.001452588    1.616    0.381
       147 -10.7630     44.5981     74.5374   7.0274383495e+01   5.7825538654e+01    0.2461886    0.2096963  29.49 0.0005111684    1.150    0.130
       148 -12.2263    167.7316     73.4123   3.5494983287e+01   3.3346175854e+01    0.2328616    0.1941803 -67.84 0.0003076514    1.084    0.077
       149 -10.4111      6.7967     68.5827   8.7440060810e+01   6.3274083733e+01    0.2549726    0.2334522  53.04  0.001098839    1.391    0.281
       150 -11.7730      2.7374     63.0685   8.8317774566e+01   6.4760481049e+01    0.4957375    0.3230094 -79.87  0.002563986    2.100    0.524
       151 -14.2873     16.6679     67.3956   8.1858393978e+01   6.2724104393e+01    0.5754802    0.4159439 -27.65  0.001247546    1.272    0.214
       152 -11.1755    224.7321    247.3626   5.7864624801e+01  -5.3070300548e+00    0.4035813   0.09394068 -39.20  0.001719091    3.292    0.696
       153 -12.9360     12.3507     47.2795   7.8184240334e+01   6.7232249978e+01    0.4086998    0.3438708  49.10 0.0008660958    1.623    0.384
       154 -10.4695    245.3251     72.3145   2.6333777860e+01   1.9800706066e+01   0.09108038   0.08036912 -26.42  0.000669422    1.666    0.400
       155 -10.3749     26.0360     72.0015   7.8327922689e+01   6.0768303225e+01    0.2262613    0.1872269  -7.15  0.001299687    1.089    0.082
       156  -9.9466     38.0148     71.1525   7.2272788763e+01   5.9462350549e+01    0.2378772    0.1507453  50.75  0.001094661    2.087    0.521
       157 -11.5628     50.2070     68.3197   6.5881597385e+01   5.8220760147e+01    0.3245917    0.2522563  -1.04  0.001294383    1.361    0.265
       158 -11.6293    122.6987     67.3212   4.2373812786e+01   4.3884690721e+01    0.2416534    0.2175779  89.96 0.0002564202    1.089    0.081
       159 -11.8087    147.0548     65.5921   3.7083265594e+01   3.8868398290e+01    0.2445831     0.204401 -85.14 0.0005471464    1.132    0.117
       160  -9.6464     93.6330     66.3002   4.9539721106e+01   5.0340845254e+01    0.1770679    0.1349407 -29.51 0.0006781837    1.528    0.346
       161 -10.4593     28.5003     66.4970   7.5490424716e+01   6.1649658476e+01    0.2663938    0.1565152 -37.64  0.001020045    1.692    0.409
       162 -10.7281     32.8153     63.8128   7.2511204750e+01   6.1655981704e+01    0.2346485    0.2119794  14.72 0.0002845826    1.117    0.105
       163 -11.3983     28.6129     61.0750   7.3754256353e+01   6.2738905808e+01    0.6831617    0.3232207  17.91  0.001963955    2.215    0.548
       164 -10.3213     79.9162     64.3972   5.3241336443e+01   5.3502195832e+01    0.5095221     0.256274  61.22  0.001877067    3.053    0.672
       165 -10.0200    106.1577     64.0356   4.5421930106e+01   4.8027745413e+01    0.1978568    0.1770877  27.67  0.001154386    1.242    0.195
       166 -11.1448    202.0126     62.5609   2.8757963726e+01   2.8337261103e+01    0.2041066    0.1436766 -50.97 0.0001110136    1.246    0.198
       167 -10.3504    155.6361     62.6251   3.4923739907e+01   3.7490961337e+01    0.2798322    0.1958956 -42.77  0.001599637    1.475    0.322
       168 -10.5453     51.3520     62.3051   6.3431997881e+01   5.9181116133e+01    0.2865143    0.2008042  -2.66  0.001421831    1.743    0.426
       169 -12.1067    231.8473     58.7285   2.5181956932e+01   2.3727091300e+01     0.544135    0.1195151 -51.37  0.002171012    3.928    0.745
       170  -9.9623     90.0439     61.0464   4.8994860259e+01   5.1972089077e+01    0.2069259    0.1622212  81.62 0.0003565426    1.593    0.372
       171 -11.5795     46.7769     60.2850   6.4767686109e+01   6.0302651864e+01    0.3716927    0.2556532  -4.80 0.0009571135    1.766    0.434
       172  -9.2204    138.2914     60.2357   3.7332093135e+01   4.1570677763e+01    0.1203358   0.09696807  40.93            0    1.461    0.315
       173 -10.3776    120.1810     59.6658   4.0840511659e+01   4.5635393816e+01    0.2636752    0.2294332 -47.42  0.001583594    1.247    0.198
       174 -10.0723     98.4845     60.0196   4.6269121064e+01   5.0333998833e+01    0.2330309    0.1603378  52.16 0.0007217052    1.310    0.236
       175 -10.9865     57.4649     58.8997   5.9723769605e+01   5.8744655994e+01    0.3826701    0.2638538  22.03  0.001377979    1.485    0.327
       176  -9.7590    169.0553     59.5111   3.2196002048e+01   3.5155253194e+01    0.1768252    0.1133787  66.69  0.000377409    1.501    0.334
       177 -10.0149    134.8759     58.1771   3.7442505201e+01   4.2621889030e+01    0.1970541    0.1582833 -89.35 0.0003891719    1.229    0.186
       178  -9.4649    127.4062     58.5639   3.9011075208e+01   4.4207125431e+01    0.1313736     0.118719  75.74 6.005134e-05    1.021    0.021
       179 -11.0479     80.1668     56.6597   5.0675582977e+01   5.4740970610e+01    0.3759623    0.2651416   5.07  0.001535829    2.079    0.519
       180  -9.3431    143.6524     58.3287   3.5886973317e+01   4.0686558018e+01    0.1392771   0.09239726 -78.52            0    1.758    0.431
       181  -9.8303    151.0761     54.1487   3.3627343660e+01   3.9684149972e+01    0.1746644    0.1573012  67.69 0.0003173265    1.179    0.152
       182  -9.5057    139.8464     54.4153   3.5568887054e+01   4.2077758022e+01    0.1706189    0.1108616  53.03 0.0003409963    1.522    0.343
       183 -12.4853    105.0276     52.5426   4.2322186818e+01   5.0043538990e+01    0.2571218    0.2293174  57.86 0.0003353444    1.031    0.031
       184 -10.4455     89.3055     52.3640   4.6477920995e+01   5.3490772862e+01    0.4034797    0.1762834 -40.99  0.001717277    2.563    0.610
       185 -12.5558     38.5198     50.1462   6.5083145491e+01   6.3419990888e+01    0.5990226    0.5028731  -9.97  0.002604918    1.163    0.140
       186 -10.3977     27.4766     53.7717   7.1941400080e+01   6.4301252207e+01    0.2482181    0.1673233  20.79  0.001141274    1.329    0.247
       187  -9.9682      7.5462     73.5520   8.8221226486e+01   6.2103635092e+01    0.2112691    0.1704373 -20.66 0.0001289184    1.081    0.075
       188 -10.7239    128.2982     50.3208   3.6621342658e+01   4.5195902319e+01    0.2528835    0.1950064  35.45 0.0008556331    1.616    0.381
       189 -11.2616     51.6558     47.6221   5.8177559294e+01   6.1681283963e+01    0.4961291    0.2444916 -45.92  0.002012686    2.394    0.582
       190 -11.2078     77.9752     47.4487   4.8321971761e+01   5.6612184718e+01    0.4152864    0.2224661 -38.42  0.001983015    2.130    0.531
       191 -11.3574     44.5018     43.5493   5.9820118681e+01   6.3567578607e+01    0.5275246    0.2973621 -53.39   0.00249436    2.530    0.605
       192 -11.8691     45.1781     38.3741   5.7518121365e+01   6.4255069843e+01    0.3126324    0.2501712  55.61  0.001850819    1.524    0.344
       193  -8.9192    171.7154     47.2849   2.9137927826e+01   3.6290340415e+01    0.1223269   0.07896132 -72.87 0.0002048689    1.524    0.344
       194  -9.9441     82.4802     47.0734   4.6784060682e+01   5.5723318774e+01    0.1867925    0.1359896 -35.96  0.001026987    1.575    0.365
       195  -9.0727     62.3110     47.3042   5.3762056937e+01   5.9768173790e+01    0.1362988   0.09751321  16.00  0.000270126    1.612    0.380
       196 -11.0630    112.4148     45.3905   3.8493421671e+01   4.9407928487e+01    0.2276515    0.1988601  66.60  0.000374385    1.013    0.013
       197  -9.5141    104.4620     46.4403   4.0625443124e+01   5.1034424226e+01    0.1337119    0.1164167  63.24 8.905678e-05    1.008    0.008
       198  -9.9349    142.6718     45.4361   3.2822191784e+01   4.2688936476e+01     0.237311    0.1138456  69.61 0.0008860662    2.040    0.510
       199 -10.9739     23.8907     41.7068   6.9555021431e+01   6.6945897927e+01    0.3793561    0.2432516 -44.91  0.001520065    1.710    0.415
       200 -13.0283     27.2245     37.4092   6.6055088049e+01   6.7221484545e+01     0.391245    0.3118232  52.58  0.001538721    1.732    0.423
       201  -9.4835    153.0631     45.0000   3.1126433360e+01   4.0496999298e+01    0.1956231   0.06391855  63.85 0.0003796626    2.813    0.644
       202 -10.7223     72.9553     43.1452   4.8481410517e+01   5.8271640416e+01    0.1948701    0.1904924  18.80            0    1.147    0.128
       203  -9.3719     56.6974     43.7445   5.4662285997e+01   6.1374339831e+01    0.1312941   0.09300807  19.51            0    1.508    0.337
       204 -10.7811      2.5685     73.2639   9.0770742137e+01   6.2491768873e+01    0.4085997    0.2368821  10.09  0.002078528    1.675    0.403
       205 -10.4917     97.8100     41.1377   4.0614410245e+01   5.3220995405e+01    0.2572809    0.1806557  39.54  0.001009526    1.479    0.324
       206 -10.5416    109.5272     38.4183   3.7065663417e+01   5.0962455797e+01    0.3276749    0.1600785 -43.98  0.001561496    2.278    0.561
       207 -11.2474    111.2521     34.8752   3.5651518076e+01   5.1013568199e+01    0.2761638    0.1831277  56.38 0.0008880612    1.315    0.239
       208 -10.5249     89.1474     40.8181   4.2778093419e+01   5.5162706524e+01    0.3128867    0.2305153  74.37  0.001734443    1.498    0.332
       209  -9.8220     67.4894     41.4754   4.9763574973e+01   5.9617908572e+01    0.1337839     0.115784  44.66  0.000148796    1.061    0.057
       210 -10.3562    235.6068     40.1977   2.1739185651e+01   2.5469959902e+01    0.1295523   0.08517461 -41.39 0.0003146447    1.557    0.358
       211 -10.2647    226.4710     40.4879   2.2458164497e+01   2.6939787598e+01    0.1077445   0.07911872 -66.75 0.0003285882    1.003    0.003
       212 -12.0765     57.3648     34.7664   5.1004224379e+01   6.2542539166e+01    0.4511654    0.3425769   7.64  0.002631237    1.510    0.338
       213  -9.3638    115.2581     38.9788   3.6033158796e+01   4.9608305423e+01    0.1507467    0.1124865 -40.09 0.0002315023    1.516    0.340
       214  -9.9682      1.3930     37.3358   8.1637814390e+01   7.0060763537e+01    0.2028679    0.1032782 -48.01  0.001069154    1.861    0.463
       215 -11.4376    248.2320     36.2926   2.0262470730e+01   2.3948840714e+01    0.1792753    0.1318879 -63.26 0.0003030346    1.086    0.079
       216 -10.7308     83.7035     35.9507   4.2667568035e+01   5.6975911634e+01    0.3155313    0.2112493   7.49  0.001560201    2.370    0.578
       217 -11.3632     65.4877     36.7390   4.8739400136e+01   6.0677291910e+01     0.299207    0.1925045  44.12 0.0002095875    1.316    0.240
       218 -10.1431     97.1216     36.1311   3.9198325336e+01   5.4014716458e+01    0.1922272    0.1667051  68.66 0.0005263351    1.067    0.063
       219 -11.5699     74.8939     35.5120   4.5149231669e+01   5.8907657889e+01    0.3479572    0.2720603  33.57 0.0005188875    1.247    0.198
       220 -10.4981     73.4856     31.4814   4.4140628803e+01   5.9713563952e+01    0.3102874    0.2211453 -88.35  0.001611573    2.167    0.539
       221 -10.6009     10.9659     24.4697   7.0332564695e+01   7.1356508390e+01    0.3328928    0.1934785   0.73 0.0007293215    1.817    0.450
       222 -11.2704      2.3091     24.8019   7.6310230124e+01   7.2193303357e+01    0.4268824    0.2628201 -18.99   0.00241345    1.508    0.337
       223 -10.1774     83.4492    248.1738   8.8552690851e+01   9.7255163195e+00    0.2830927    0.1397698  39.49 0.0009131365    1.885    0.469
       224 -10.9863     17.2592     31.4666   6.9354785647e+01   6.9495402442e+01    0.5099899    0.2524925  14.25  0.002409401    2.181    0.541
       225 -10.9114     10.0738     34.7553   7.5102244438e+01   6.9748708014e+01     0.378601    0.1676339  25.55  0.001614011    1.980    0.495
       226 -11.4275      7.3196     30.0389   7.5037349161e+01   7.0836624410e+01    0.3681137    0.2881691 -70.09  0.001855558    2.081    0.519
       227  -9.4045    146.3451     33.7800   2.9365319058e+01   4.3348735266e+01    0.1409022    0.1168184 -29.52 0.0003792607    1.536    0.349
       228  -9.2304    134.5320     34.5114   3.1326214581e+01   4.5854550998e+01     0.127079    0.1053342  86.63 0.0004875731    1.050    0.047
       229 -11.0964    122.4523     33.6265   3.3137311877e+01   4.8651543221e+01    0.2398024    0.2029962  72.46 0.0004495067    1.029    0.028
       230  -9.3521    140.9450     33.7420   3.0138654457e+01   4.4532672913e+01    0.1514255   0.09284112  67.15 0.0003253858    1.420    0.296
       231  -9.3898     34.2112     33.4467   6.0779156665e+01   6.6805217880e+01    0.2603992    0.1581908  50.92  0.001315101    2.109    0.526
       232  -9.3381     30.6681     32.3331   6.2146931885e+01   6.7519172811e+01    0.2176481    0.1588546  60.14  0.001173496    2.222    0.550
       233  -9.6902    221.6033     31.7952   2.1305705849e+01   2.8809375979e+01    0.1471284   0.07211885 -52.97 0.0003018651    1.596    0.374
       234  -9.8181    129.1729     31.8818   3.1499736117e+01   4.7355849938e+01    0.1841438    0.1457059 -86.27 0.0003471952    1.186    0.157
       235 -10.6133      1.5520     31.3167   7.9381441084e+01   7.1140279677e+01     0.200094    0.1284228 -41.43 0.0004843773    1.503    0.335
       236 -11.1494    100.1728     28.9187   3.6200950804e+01   5.4195846348e+01    0.4289196    0.2518642  44.46 0.0009088394    1.705    0.413
       237  -9.9235    202.0475     37.2787   2.3880050818e+01   3.1644112142e+01    0.1526655    0.1162492 -78.74 0.0002416414    1.066    0.062
       238 -10.0868    234.4894     28.9981   1.9949740596e+01   2.6975507404e+01    0.1541622   0.07678766 -47.38   0.00102635    1.593    0.372
       239 -11.5988    156.5553     28.2016   2.6689604934e+01   4.1801915956e+01    0.2563969    0.1699599  80.50 0.0003076457    1.307    0.235
       240 -10.6773    146.2488     27.1553   2.7749379867e+01   4.4135489475e+01    0.2825574    0.1960697  68.01   0.00121196    1.272    0.214
       241  -9.6290     80.3139     27.7396   4.0774353968e+01   5.8705677088e+01    0.2844034    0.2458597 -84.81  0.001815305    1.360    0.265
       242 -10.1542     49.7891     28.0656   5.1377611369e+01   6.4868395851e+01     0.333573    0.1917916   8.36  0.001442601    3.071    0.674
       243 -10.5636    241.0238     34.2837   2.0397229090e+01   2.5309532310e+01    0.1381898   0.09860846 -71.87 0.0003017657    1.089    0.082
       244 -10.8315    197.4431     27.7061   2.2443557551e+01   3.3637958225e+01     0.207321    0.1176577  74.26 0.0007687476    1.632    0.387
       245 -11.1338    112.3949     26.7377   3.3022067246e+01   5.1699171608e+01     0.308735     0.230197 -11.41  0.001828169    1.910    0.476
       246  -9.9550     61.6135     28.3520   4.6934778219e+01   6.2540240017e+01    0.1840309    0.1512621  83.33 0.0007814156    1.634    0.388
       247 -10.4033    238.6387     27.7078   1.9477016155e+01   2.6451728354e+01   0.08277029   0.07604001  67.25 0.0007028777    1.699    0.412
       248  -9.9152    118.9696     27.5412   3.2047644399e+01   5.0133393152e+01    0.1953863    0.1050519  63.66  0.001017169    1.562    0.360
       249  -9.6451     16.0567     26.5367   6.8008464775e+01   7.0426100452e+01    0.1781425     0.144031  -6.77 0.0003872403    1.124    0.111
       250 -11.2149    216.6074     25.3516   2.0529273968e+01   3.0420529973e+01    0.2321244    0.1509705  74.03 0.0002139818    1.543    0.352
       251  -9.9833    123.0492     25.8181   3.0860548325e+01   4.9409580338e+01    0.2113607    0.1375522 -54.35 0.0009901959    1.662    0.398
       252 -10.7541    140.3143     18.1257   2.6283798880e+01   4.6397611875e+01    0.4266134    0.1390928  55.13  0.001851918    2.900    0.655
       253 -10.7098    137.0316     14.9585   2.5905222874e+01   4.7434913643e+01    0.2026611    0.1521385 -58.51 0.0003427609    1.347    0.258
       254 -11.5535    128.4949     24.0194   2.9491767321e+01   4.8389086656e+01     0.220139    0.1860529  73.71  0.000306346    1.078    0.073
       255 -11.5840      6.0017    244.9076   1.0751795917e+02   1.8374489028e+01    0.4172201    0.2301803  55.77   0.00189578    1.649    0.394
       256  -9.3679     67.6536     25.6735   4.3843958020e+01   6.1628417505e+01    0.1355591   0.08545847  29.86 0.0007050095    1.748    0.428
       257  -9.7160    189.8837     24.4483   2.2453258158e+01   3.5450280013e+01    0.1526574   0.09236403  81.29 0.0003577334    1.459    0.315
       258 -10.4609    159.8383     24.3336   2.5411063490e+01   4.1540424985e+01     0.222702    0.1498687 -47.55  0.001421712    1.490    0.329
       259 -10.3630    161.6030     20.2453   2.4288182292e+01   4.1613254942e+01     0.242984    0.1520352 -11.27  0.001276101    3.153    0.683
       260  -9.9748     54.1447     23.2438   4.7657884220e+01   6.4635023873e+01    0.2049729    0.1620583 -71.77  0.001200655    1.978    0.495
       261 -10.9047     22.5114     24.0158   6.3048307414e+01   6.9942811182e+01    0.2301872    0.1776619  17.44 0.0003443699    1.037    0.035
       262 -10.7133     28.1735    245.4307   1.0217395388e+02   1.6266375909e+01    0.2994826    0.1687991 -69.09   0.00153974    1.904    0.475
       263 -10.8096     73.1862    244.6056   9.0758232092e+01   1.1675443420e+01    0.3396726    0.2022099  15.93  0.001353562    1.625    0.385
       264  -9.9245     24.4682     20.4418   6.0309286867e+01   7.0158425584e+01     0.184799      0.14351  -8.50 4.594286e-05    1.283    0.221
       265 -10.1817    224.8795     22.2191   1.9427274041e+01   2.9344001899e+01    0.1975252   0.09617034 -61.43 0.0008561033    1.635    0.388
       266 -10.9067     64.0062     21.8533   4.3570703260e+01   6.2817485628e+01    0.2957038    0.1733328 -24.10  0.001589608    2.143    0.533
       267  -9.6017    186.5226     22.5222   2.2361752478e+01   3.6317649339e+01     0.114385   0.08572162 -76.42 -2.112783e-05    1.041    0.039
       268 -10.2934     82.8680     22.0704   3.8086837690e+01   5.8781068867e+01    0.2372616    0.1605062  50.86  0.001004803    1.236    0.191
       269 -10.8396     59.1132     21.2694   4.5020744672e+01   6.3878801081e+01      0.20677    0.1779551  53.52 0.0003622933    1.155    0.134
       270  -9.2453     34.6547     22.1033   5.5686105717e+01   6.8322508348e+01    0.2612838    0.1792537  33.22  0.001580025    1.188    0.159
       271 -10.9156    249.0229     20.9780   1.7811744382e+01   2.5572728771e+01    0.1512608    0.1024057 -65.26 0.0003364094    1.004    0.004
       272  -9.4265    155.7280     21.6777   2.5267440654e+01   4.2699506561e+01    0.1055973   0.08579197  48.08 0.0003178281    1.572    0.364
       273  -9.1453    120.7061     21.3435   2.9999262693e+01   5.0412254143e+01    0.1260872   0.08334114 -74.30 0.0007030087    1.661    0.398
       274  -9.4917     74.6333     21.1934   4.0026139516e+01   6.0656629042e+01     0.175275    0.1321597  58.87 0.0005715081    1.144    0.126
       275 -12.2497     75.7525    239.2451   8.9526572816e+01   1.2556477393e+01    0.6568841    0.4843312 -52.07  0.003604063    1.480    0.324
       276 -10.0055     45.6800    244.5445   9.7733782697e+01   1.4711533476e+01    0.1936494    0.1052401  35.32 0.0009427194    1.562    0.360
       277 -10.8790     18.0143    236.5684   1.0411940723e+02   1.9226642596e+01    0.4335326    0.1684826  42.90  0.001883701    2.184    0.542
       278 -10.0963     98.6703     19.5687   3.3555165215e+01   5.5539737558e+01    0.2702439    0.1536506 -67.08  0.001255355    2.582    0.613
       279 -10.3325     87.1164     20.1297   3.6345169773e+01   5.8051785021e+01    0.1849747    0.1421983  48.87 0.0002639707    1.168    0.144
       280  -9.9330    165.8753     18.3167   2.3414785185e+01   4.0928125905e+01    0.2231081    0.1008707 -53.37  0.001156378    2.092    0.522
       281 -10.5263    169.3893     16.7572   2.2729252953e+01   4.0368008131e+01    0.2003092    0.1359501 -38.22  0.001297336    1.657    0.396
       282 -10.3684    108.0607     18.1815   3.1279646732e+01   5.3572810446e+01    0.1833046    0.1759137  54.69  0.001035711    1.232    0.188
       283 -10.5401     41.4866     19.0515   5.1108405247e+01   6.7512227401e+01    0.3188268    0.1443515  42.65 0.0005518489    1.792    0.442
       284 -10.1668    195.2479    238.4992   6.1854528240e+01  -1.1909143187e+00    0.2243779    0.1432512 -36.76 0.0009299261    1.384    0.277
       285 -10.9995    183.2494    234.2475   6.3550693645e+01   7.8317007154e-01    0.2346714    0.1881835   7.72  0.001417769    1.182    0.154
       286 -11.3651    184.9888    228.2502   6.2271452794e+01   1.6467293140e+00     0.526722    0.2211153 -30.30  0.002301113    2.539    0.606
       287 -10.4971    160.0255    235.4902   6.8597797458e+01   3.1566390038e+00    0.1919173    0.1159043  19.85 0.0005080628    1.543    0.352
       288 -11.6422     30.1901    234.0959   1.0085661927e+02   1.8664889678e+01    0.4212064    0.2206649  56.14  0.001956319    1.975    0.494
       289  -9.8899    215.3713     16.3938   1.9032190012e+01   3.1627198338e+01    0.1860698   0.06352581  60.90 0.0009617824    3.300    0.697
       290  -9.7672    193.0656     16.2599   2.0587782820e+01   3.5733881416e+01    0.1507312    0.1080719 -86.52 0.0003433355    1.126    0.112
       291 -10.4922    249.2266     15.1958   1.6907889096e+01   2.6168428746e+01    0.1409282   0.07693907 -65.70 0.0006788283    1.331    0.249
       292 -10.6970     39.4303    229.2739   9.8058152341e+01   1.8880340089e+01    0.2936144    0.1940262  40.92  0.001525437    1.368    0.269
       293  -9.5400     64.6582     12.6808   3.9735000874e+01   6.3636676361e+01    0.1314141   0.07769558  35.02 0.0001989057    1.717    0.418
       294  -9.6787    151.5178    228.4776   6.9414572468e+01   5.5022582100e+00    0.1344842    0.1154751  -4.49  0.000372722    1.037    0.036
       295 -10.2217     54.1269     14.0752   4.3835428249e+01   6.5653644399e+01    0.1874423    0.1354916  36.59 0.0004466216    1.196    0.164
       296 -10.3608    164.7118     13.0085   2.2359857004e+01   4.1715689653e+01    0.1572721    0.1285945 -73.87  0.001151161    1.117    0.105
       297 -10.0440    191.1567    226.6965   6.0815963022e+01   1.2455068539e+00    0.2102629     0.159945 -42.93   0.00132302    1.393    0.282
       298 -10.4782      3.8231    225.8970   1.0706607314e+02   2.2936034783e+01    0.1926986    0.1723684 -47.31 0.0009946469    1.284    0.221
       299  -9.1033    230.0000    221.9849   5.3165653584e+01  -1.8899692920e+00     0.182532   0.05194214 -44.15 0.0007915256    2.867    0.651
       300  -9.7597     13.3249    221.3069   1.0434346034e+02   2.3260058684e+01    0.1329544   0.09680763 -34.85 0.0003212772    1.648    0.393
       301  -9.9690    211.9420    218.9563   5.5745165019e+01   3.6865898691e-01    0.1614871    0.1460209 -59.54  0.001012306    1.670    0.401
       302 -10.9192     46.2486    218.9965   9.5272142633e+01   2.0647923250e+01    0.2858425    0.1557229  39.24  0.001188749    1.676    0.403
       303  -9.8011     71.4434     25.3893   4.2534860895e+01   6.0869007836e+01    0.2502146    0.1177314  37.31  0.001119435    2.317    0.568
       304  -9.3199    206.4989     10.5995   1.8574821687e+01   3.3825688647e+01    0.1050482   0.07664713 -75.85 7.266198e-05    1.025    0.025
       305  -9.6732    176.3556    218.7198   6.2500627120e+01   4.3645263436e+00    0.1161053    0.1024717  53.06 0.0004083953    1.659    0.397
       306  -9.6465    135.5714    216.4970   7.1262459173e+01   9.9648817954e+00    0.1405895    0.1240535  -6.38 0.0001678086    1.011    0.011
       307 -10.7089     29.4774    215.4332   9.9561791066e+01   2.3243032477e+01    0.2900671    0.2266118 -19.21  0.001196479    1.499    0.333
       308 -10.1302     24.1133    216.1268   1.0108607150e+02   2.3576626418e+01    0.1924059    0.1451559  57.79 0.0004076187    1.282    0.220
       309 -11.0085      8.0146    215.9727   1.0540319056e+02   2.5006539482e+01    0.3017353    0.1696532  40.75  0.001401827    1.601    0.375
       310 -10.2065     14.7540    215.3934   1.0356567075e+02   2.4590926970e+01    0.2258577    0.1663054  11.87 0.0009263632    1.451    0.311
       311 -12.0263     11.9119    210.2959   1.0398257299e+02   2.6102129396e+01     0.557189     0.287891  80.31  0.002027154    2.149    0.535
       312  -9.6840    110.2450    212.0032   7.6925911406e+01   1.4362694691e+01    0.1832203    0.1226352 -53.42 0.0008762872    1.567    0.362
       313 -12.4771      5.7743    208.6684   1.0554448537e+02   2.7001356933e+01    0.5862174    0.2449557 -78.75  0.002467572    2.356    0.576
       314 -10.3278    217.3443    209.8018   5.3347046113e+01   1.3371774025e+00    0.1799751   0.08517932 -36.39 0.0009491557    1.722    0.419
       315  -9.5966    237.0000    208.9841   5.0034794111e+01  -5.0358213478e-01    0.1822187   0.05081924 -44.11 0.0005291069    2.835    0.647
       316 -11.0110    175.3289    202.3840   5.9998166540e+01   7.5974542446e+00    0.2485421     0.207611 -16.38 0.0004877779    1.038    0.036
       317 -10.0327     67.1579    202.8435   8.7518707538e+01   2.2263129397e+01    0.2032594    0.1687382 -22.57 0.0003620972    1.292    0.226
       318 -10.9113     20.1141    200.6141   1.0094920124e+02   2.7874931733e+01    0.5433342    0.1433573 -61.53  0.001851432    3.244    0.692
       319 -12.0859     15.7506    192.0660   1.0150581782e+02   3.0479816895e+01    0.4739295    0.4029789 -28.32  0.001963651    1.301    0.231
       320  -9.6801    186.5164    193.4586   5.6218037234e+01   7.8625123234e+00    0.1323392    0.1102188 -23.17 0.0002181377    1.018    0.018
       321  -9.3444    145.2701    190.3445   6.4541681267e+01   1.4229441005e+01    0.1492784    0.1014837 -21.46 0.0004849097    1.614    0.380
       322 -10.6491    244.7133    187.9919   4.5571329971e+01   2.0615556255e+00    0.1633189    0.1161455 -35.90 0.0005167572    1.059    0.055
       323  -9.9795     61.7752    184.5312   8.6635554173e+01   2.7674462498e+01    0.2819714    0.2090874 -64.66   0.00134992    1.389    0.280
       324 -12.4214     16.9875    181.9006   1.0023999707e+02   3.3080167760e+01    0.5784718     0.378985  26.11  0.002846473    1.515    0.340
       325 -10.9067     23.2433    180.4868   9.8160924374e+01   3.2924431543e+01    0.4407366    0.1930643  56.20  0.001590329    2.819    0.645
       326 -10.2821    249.6901    180.6815   4.3715851207e+01   2.7072448720e+00    0.1130833   0.06894024 -23.55 0.0007033839    1.641    0.390
       327 -10.3581    244.2157    179.0533   4.4207754298e+01   3.5397530139e+00    0.2781545   0.09475269 -36.10  0.001000977    2.657    0.624
