#   1 NUMBER                 Running object number                                     
#   2 MAG_AUTO               Kron-like elliptical aperture magnitude                    [mag]
#   3 X_IMAGE                Object position along x                                    [pixel]
#   4 Y_IMAGE                Object position along y                                    [pixel]
#   5 X_WORLD                Barycenter position along world x axis                     [deg]
#   6 Y_WORLD                Barycenter position along world y axis                     [deg]
#   7 A_WORLD                Profile RMS along major axis (world units)                 [deg]
#   8 B_WORLD                Profile RMS along minor axis (world units)                 [deg]
#   9 THETA_WORLD            Position angle (CCW/world-x)                               [deg]
#  10 FWHM_WORLD             FWHM assuming a gaussian core                              [deg]
#  11 ELONGATION             A_IMAGE/B_IMAGE                                           
#  12 ELLIPTICITY            1 - B_IMAGE/A_IMAGE                                       
         1 -14.6225    146.7181    106.6623   4.8756749288e+01   3.1941116219e+01      1.90253     1.519215 -12.16  0.009774617    1.639    0.390
         2 -13.4372     31.6760     67.3623   7.5897909487e+01   6.1390586628e+01     2.042551     1.289468  27.87    0.0103987    1.511    0.338
         3 -14.3602    135.2411     93.6580   4.8069334737e+01   3.6813954243e+01     1.660032     1.278418  84.39  0.008430194    1.565    0.361
         4 -12.6174     55.2729     42.8240   5.6232290619e+01   6.2155398301e+01     1.538952    0.6700624  30.53  0.006018344    2.777    0.640
         5 -13.8949     16.4026      8.5389   5.9977153570e+01   7.3244727728e+01     1.708126    0.9096248  23.36  0.009496418    1.716    0.417
         6 -12.6512     31.5681     10.4631   5.2531896961e+01   7.0612420364e+01    0.8263482     0.312295 -25.23  0.003626782    3.479    0.713
         7 -10.7009     55.2913     10.6891   4.2708026816e+01   6.6108535270e+01     0.209038    0.1806739  62.41  0.001206307    1.255    0.203
         8 -12.9442    178.9919      8.7561   2.0990417361e+01   3.9219285000e+01    0.8510192    0.1853798  70.40   0.00351337    3.659    0.727
         9 -11.8942    160.0655      3.7497   2.1467887479e+01   4.3614706211e+01    0.4395975    0.2319586  70.15  0.002631416    1.615    0.381
        10 -11.3677     88.6096      4.2419   3.1211699513e+01   5.9463424343e+01    0.2550065     0.190022  78.98  0.000914076    1.254    0.202
        11 -11.3164     53.5735      3.0249   3.9828567709e+01   6.7134660317e+01    0.3190129    0.1514616  43.96  0.001687799    1.708    0.414
        12 -12.7552    199.5685      4.7972   1.8730146835e+01   3.5564201494e+01    0.6770677    0.2899202  70.93  0.004004572    2.123    0.529
        13 -10.0835     52.8127    233.9319   9.7034356055e+01   1.6705692805e+01    0.3348703    0.1529721 -58.11   0.00130028    2.279    0.561
        14 -10.0627     55.4241    250.4831   9.7874928660e+01   1.2764091683e+01    0.3743233    0.2135995 -38.57  0.001821624    2.249    0.555
        15 -10.5949     51.3773    250.1489   9.8827605651e+01   1.3272993078e+01    0.5841272    0.2865676   0.46 0.0009294457    3.606    0.723
        16 -14.1558     13.0266    190.7678   1.0404637492e+02   3.1283202711e+01     5.725821     3.200414  68.56   0.02608874    1.939    0.484
        17 -12.7210     42.9667    249.9224   1.0084004471e+02   1.4209782012e+01    0.8750582    0.3726099  46.88   0.00055362    2.176    0.541
        18 -14.0877     26.5050    224.2889   1.0298541660e+02   2.1684084644e+01     1.574817      1.00417   2.29  0.004444589    1.934    0.483
        19 -14.3808     36.4570    227.9741   1.0071054261e+02   1.9828305283e+01     3.168404     1.058826 -48.00  0.006497206    3.762    0.734
        20 -13.3974      5.8675    212.6104   1.0753324137e+02   2.6321212280e+01    0.8810594    0.4696952  79.16   0.00190929    1.939    0.484
        21 -13.3205     27.1450    235.7262   1.0365652783e+02   1.8950023663e+01    0.8411179    0.6134384 -21.91  0.003205763    1.763    0.433
        22 -14.1739      6.2823    248.4110   1.0935999212e+02   1.8016951314e+01     1.392705    0.8450081  27.30  0.004772062    1.512    0.339
        23 -14.6236      4.7785    227.2985   1.0864629277e+02   2.2891308392e+01     1.390057    0.8937908  67.05  0.007781427    1.463    0.316
        24 -14.6398     14.2742    241.3120   1.0713235557e+02   1.8879197592e+01    0.6684045    0.3937308  12.21  0.002232183    1.920    0.479
        25 -14.6289     13.9755    237.0461   1.0695874336e+02   1.9865110424e+01    0.8337437    0.4470509  -5.86  0.003185889    2.993    0.666
        26 -11.1935    219.9105    230.4102   5.8513501130e+01  -2.4740426024e+00    0.2130953    0.1776623 -15.93 0.0002641267    1.217    0.178
        27 -10.0781    113.7301    228.1084   8.0767996900e+01   1.0537699643e+01    0.2747822    0.1820446 -32.88  0.001376768    1.599    0.375
        28 -10.4259     60.5175    221.4553   9.3755109608e+01   1.8745207428e+01    0.3814352    0.1390877 -66.75  0.001417025    2.946    0.661
        29 -10.3990    211.5953    223.7574   5.8920708213e+01  -5.6634709630e-01    0.1591346     0.101455 -44.39 0.0004986952    1.592    0.372
        30 -10.1731    125.1200    221.6703   7.7008089865e+01   1.0402937281e+01    0.2131849    0.1989708 -62.60 0.0005455819    1.303    0.233
        31 -10.7056    223.0721    219.6955   5.6264859552e+01  -1.0953489617e+00    0.2287502    0.2148802 -50.70  0.001279589    1.661    0.398
        32 -10.5818     65.8159    219.5749   9.2124297198e+01   1.8566704123e+01    0.2740449    0.1742268   2.96   0.00125006    1.896    0.473
        33 -14.6569     94.5180    192.1178   8.0398032078e+01   2.1481803523e+01     2.302705      1.40994 -72.76  0.004258519    2.119    0.528
        34 -13.9362     87.0627    207.5175   8.4798010446e+01   1.8763491925e+01     1.553507    0.9881207 -66.59  0.007030017    1.781    0.438
        35 -15.5083     66.8545    185.6230   8.7433624312e+01   2.6945985428e+01     3.194456     2.172166 -14.19   0.01414363    1.849    0.459
        36 -11.2901    152.8956    209.6960   6.8489684267e+01   9.1317191978e+00     0.383404    0.2920888 -11.61  0.002109459    1.267    0.211
        37 -11.6760     32.4721    206.3752   9.9891546055e+01   2.5508954226e+01    0.3235865    0.2549754 -83.67 0.0008884062    1.285    0.222
        38 -10.8381    224.7775    206.9691   5.3901375390e+01   7.8301585732e-01    0.2358041    0.1604106  46.68  0.001386708    2.373    0.579
        39 -12.6691     78.2607    211.7252   8.7781008688e+01   1.8904812584e+01    0.7831895     0.371767  30.88  0.001931407    1.905    0.475
        40 -12.2114     25.9950    195.6251   1.0073188853e+02   2.8889301963e+01    0.9496511    0.2338347 -66.47  0.003119558    3.430    0.708
        41  -9.1508    124.3313    205.3181   7.4616688680e+01   1.4070393328e+01    0.1540923    0.1048912 -15.55  0.000285611    1.689    0.408
        42 -12.4635     34.8644    192.7816   9.7872437310e+01   2.8769388116e+01    0.8260696    0.4375906 -26.81  0.003212248    2.742    0.635
        43 -10.7890     40.9318    190.8139   9.5866092394e+01   2.8655154124e+01    0.2467259    0.2378427   4.92 0.0008850539    1.080    0.074
        44  -9.9241    233.9902    197.0000   5.0764620519e+01   1.4165020638e+00    0.1640383   0.06533292  32.36  0.000810412    2.998    0.666
        45 -10.4182    124.5124    195.5153   7.2916552907e+01   1.6253617247e+01    0.2899935    0.2748183  -9.49  0.001186249    1.059    0.056
        46  -9.9964    247.5002    193.0835   4.8089926949e+01   6.2357292493e-01    0.1686532   0.08610724 -39.84 0.0003801991    1.486    0.327
        47 -14.9782     70.5973    199.3536   8.8268715565e+01   2.2940690804e+01     1.832534     1.488388 -50.36  0.009606974    1.265    0.209
        48 -10.0974    248.2474    185.5837   4.6753063265e+01   1.7200402412e+00    0.1380138   0.09927832   4.63 0.0009467147    1.609    0.378
        49 -13.6087     19.5142    211.2260   1.0383736102e+02   2.5513451285e+01      1.33566    0.7236391 -76.06  0.003722824    1.835    0.455
        50  -9.8046     24.1669    180.2732   9.9786362548e+01   3.3108937446e+01    0.2647555    0.1785528 -59.62  0.001303396    1.430    0.301
        51 -11.6631     92.5000    169.0535   7.7006222565e+01   2.7574183677e+01    0.4006696    0.3040734 -66.21  0.001414854    1.443    0.307
        52  -9.6248     27.4971    172.0045   9.7859893968e+01   3.5031767080e+01    0.2217254    0.1357734 -68.00 0.0006281355    1.552    0.356
        53 -11.0586     47.0682    170.9282   9.1467424144e+01   3.3288202462e+01    0.3976321    0.2412715 -13.50  0.001338706    2.237    0.553
        54 -10.8484    105.9666    170.1174   7.3302181939e+01   2.5178197229e+01    0.3639911     0.225555  31.39  0.001342807    1.596    0.373
        55 -10.3385     30.9925    213.4915   1.0093050714e+02   2.3874557518e+01     0.424942       0.1449  15.73  0.001420431    3.624    0.724
        56  -9.2992     19.2830    167.0120   9.9938433392e+01   3.7111932709e+01    0.1960704    0.1817077 -74.56 0.0005139792    1.025    0.024
        57 -10.4055     28.0251    160.3500   9.6297171003e+01   3.8158236296e+01    0.2677411    0.2016059 -59.70 0.0004870627    1.258    0.205
        58 -11.3232     22.2290    149.3103   9.6872794426e+01   4.1700564777e+01    0.7016094    0.3416507   8.41  0.002336722    2.425    0.588
        59 -12.2191     19.5576    155.6778   9.8577912890e+01   4.0181087850e+01     0.539277    0.4188484  61.94   0.00279892    1.373    0.272
        60 -11.9429     24.1210    153.1502   9.6709180448e+01   4.0484376822e+01    0.4982831     0.337253 -26.85  0.002350888    1.656    0.396
        61  -9.2936     58.6402    158.2284   8.5740163293e+01   3.5305708060e+01    0.2093032    0.1351001 -52.19 0.0003085485    1.502    0.334
        62  -9.5856    136.0000    211.9761   7.2831239303e+01   1.0980607185e+01    0.2287726   0.07838389 -52.04 0.0008082521    2.983    0.665
        63 -11.6840    108.9077    147.9842   6.7990908808e+01   3.0117161017e+01    0.3768235    0.3332188 -33.90  0.001419074    1.120    0.107
        64 -10.0731     12.1468    149.0340   1.0035088312e+02   4.2569113431e+01    0.2344239    0.1974713  43.62  0.001287903    1.253    0.202
        65 -12.2345    103.3139    141.3003   6.8165725314e+01   3.2731768839e+01    0.9754503    0.5457503  32.55  0.003953229    1.824    0.452
        66  -9.4288     24.4213    144.2374   9.5418097984e+01   4.2899063209e+01    0.2071116    0.1379354 -86.20 0.0009460051    1.637    0.389
        67 -12.5352    136.2838    130.2228   5.6717559334e+01   2.9149370717e+01    0.7019203    0.3623929  51.43  0.002736162    2.240    0.554
        68 -13.7884    154.0298    117.9148   4.9838821118e+01   2.8267709239e+01     1.068127    0.8455765  24.92  0.005595358    1.531    0.347
        69  -9.0911    245.6703    249.7620   5.7192425870e+01  -7.5815716818e+00    0.1068756   0.05953239 -12.65 0.0002446075    1.532    0.347
        70 -10.3550    187.2689    249.1916   6.7473073177e+01  -2.1767530400e+00    0.2647514    0.1491462  21.20  0.001516856    1.641    0.391
        71 -12.9738     47.2886     81.9806   7.3103065802e+01   5.6149064401e+01     1.224486    0.9844472 -37.61   0.00637143    1.228    0.185
        72  -9.9481     35.8939    120.1509   8.7100479465e+01   4.8270260012e+01    0.2226832    0.1982377  50.82 0.0004588494    1.245    0.197
        73  -9.4143     99.5365    118.7287   6.4021325973e+01   3.8807363072e+01    0.2079707    0.1507614 -64.06 0.0009324314    1.594    0.373
        74 -10.6407     68.4785    244.4481   9.4104493625e+01   1.2597629257e+01    0.2250724    0.2153284  22.42  0.000787996    1.085    0.078
        75 -11.5928     35.2237    112.9264   8.5924521032e+01   5.0226876121e+01     0.682737    0.4195127 -41.43  0.003099316    1.577    0.366
        76 -10.9302    188.0283    114.8130   4.2804193491e+01   2.2452915911e+01    0.2011531    0.1348389 -61.43  0.001052335    1.589    0.371
        77 -10.6591    185.7771    108.5988   4.1859076319e+01   2.3969699740e+01     0.176557    0.1250758  68.70 0.0008047861    1.671    0.401
        78  -9.1080    105.3050    107.3397   5.9396850911e+01   4.0246778701e+01     0.155205    0.1200191  -7.37 0.0004216653    1.678    0.404
        79 -11.4505     26.5086    105.3873   8.8022478823e+01   5.3058483242e+01    0.3453532    0.2450497  89.06  0.001636695    1.836    0.455
        80 -10.6620    117.7067    102.8998   5.4774087042e+01   3.8670998594e+01    0.4005229    0.2155487  45.55  0.001673682    1.841    0.457
        81 -10.9640     21.1127     98.2850   8.8914894391e+01   5.5348687202e+01    0.4937446    0.3240181 -32.07  0.002424545    1.479    0.324
        82 -10.6735     53.8039    110.1173   7.7843444496e+01   4.8602321582e+01    0.5107985     0.334445 -42.50  0.001850084    1.507    0.336
        83 -12.5015    142.8871    133.0179   5.5771451180e+01   2.7288285431e+01    0.7082555    0.3851809 -29.60  0.002275036    2.507    0.601
        84  -9.3328    189.2862    120.7011   4.3825015662e+01   2.1166129083e+01    0.1295277   0.09672529 -70.64 0.0001761002    1.553    0.356
        85 -10.8757    111.9853     76.0191   4.8915652492e+01   4.5041674450e+01    0.3067738    0.1909067  40.22  0.001071488    1.669    0.401
        86 -10.1906    116.6232     74.2197   4.7227955023e+01   4.4343621493e+01    0.3090409    0.2237213  36.16  0.001557706    1.522    0.343
        87  -9.3222    215.1702     75.4153   3.1102979444e+01   2.4017728654e+01     0.146552    0.1027146  89.09 0.0004016468    1.530    0.346
        88 -13.8541    154.1429    130.1197   5.2576503247e+01   2.5772751760e+01     1.311155    0.7569417  47.18  0.005933205    1.857    0.462
        89  -9.8353     43.8335    120.8080   8.4112751135e+01   4.7183742223e+01    0.2497867    0.2087933 -58.17 0.0003605075    1.185    0.156
        90 -11.6313     99.5338     69.3336   5.0310458074e+01   4.8900097583e+01    0.6362785      0.37823 -35.66  0.002945616    1.879    0.468
        91 -11.3999    104.8556     74.9952   5.0521996001e+01   4.6764639158e+01    0.2730378    0.2056837  47.79  0.001304211    1.252    0.202
        92  -9.4991    178.4774     64.4401   3.3282697858e+01   3.2573445114e+01    0.1243294    0.1093894 -75.39 0.0001109748    1.040    0.038
        93 -11.2357    141.0713     61.1862   3.8404537833e+01   4.1025364275e+01    0.3589596    0.1523532  50.33  0.001508061    2.365    0.577
        94 -11.4693     73.1114     58.4204   5.5145305767e+01   5.6242236100e+01    0.2775812    0.1914197 -60.20  0.001347544    2.008    0.502
        95 -11.9517     51.5918     55.7652   6.2653835749e+01   6.0683055133e+01    0.9901938    0.6980706  72.94  0.004455377    2.763    0.638
        96  -9.4368     59.1961    242.6421   9.6240032755e+01   1.4043560084e+01    0.1918176    0.1174544  13.32 0.0009413286    1.715    0.417
        97 -13.4814     73.6515     42.7759   4.9395923020e+01   5.8552650127e+01      1.04978    0.5788535  42.93  0.005117136    1.610    0.379
        98 -13.0387     70.8703     36.4836   4.7980310965e+01   5.9988698541e+01    0.7404592    0.4731632  31.64  0.003868609    1.619    0.382
        99 -12.7616     53.3143     97.2533   7.4814369623e+01   5.1789538109e+01     1.311427     0.940971 -40.84   0.00642002    1.376    0.273
       100 -11.7592     47.1643    112.1544   8.0936312958e+01   4.8992801020e+01     1.259321    0.4812071 -59.42  0.004428995    2.605    0.616
       101 -12.7557     83.7845     48.3125   4.8128288872e+01   5.5628392064e+01    0.6373488    0.5845041  59.76  0.003924259    1.109    0.098
       102 -12.7220     62.1557     51.4515   5.6738980870e+01   5.9514598576e+01    0.7170461    0.2766726  47.34  0.002791939    2.528    0.604
       103 -10.4777      2.2217     50.9582   8.6965632608e+01   6.7643771274e+01    0.3590365    0.1385198 -43.14  0.001620202    2.179    0.541
       104 -11.2671     10.1548     45.6311   8.0458074845e+01   6.8077368756e+01    0.3751792    0.3241012 -12.25  0.002458933    1.094    0.086
       105  -9.6629    122.3506     41.6772   3.6546417545e+01   4.7939654527e+01    0.1378671   0.09410968 -78.82 0.0007048433    1.750    0.428
       106  -9.2800    133.5026     39.5209   3.3914495156e+01   4.5687003423e+01    0.1289589    0.1123727  78.61 0.0001561472    1.018    0.017
       107 -10.2225    105.8781     31.3305   3.6743449266e+01   5.2941171321e+01    0.2462041    0.2057808 -89.39  0.001424561    1.234    0.190
       108 -10.5898     77.8820     31.0179   4.3710040661e+01   5.9198345184e+01    0.1953249    0.1704191  84.80 0.0009683409    1.337    0.252
       109 -10.2384     84.1417     23.9246   3.9350586635e+01   5.8640989191e+01    0.1905521    0.1627225  84.38 0.0008676018    1.284    0.221
       110 -11.3130     21.3310     22.2878   6.4020885505e+01   7.0726239294e+01    0.3436917    0.1832677  14.64  0.001691955    2.138    0.532
       111  -9.5870     50.0380    238.8584   9.8187173505e+01   1.5892702499e+01    0.3014758    0.1403898  26.38  0.001355624    1.903    0.474
       112  -9.0657    171.5177     21.4849   2.4436412111e+01   3.9458203027e+01    0.1175206   0.09415662 -81.94  0.000810231    1.004    0.004
       113  -9.8395    189.8557     20.1462   2.2489704690e+01   3.5875863298e+01    0.1737101     0.119309 -72.83 0.0004156592    1.194    0.162
       114 -10.0622     40.2851    239.1653   1.0065220439e+02   1.6856527079e+01    0.2641537     0.125396  47.66  0.001203241    1.984    0.496
       115 -11.9466     71.7729    229.5842   9.1687966798e+01   1.5514068480e+01    0.7160048    0.2375509  31.85  0.002692868    2.492    0.599
       116 -11.2737     59.9047    235.3028   9.5353386812e+01   1.5599552495e+01    0.3997943    0.2529548  47.28 0.0002566177    1.535    0.348
       117 -12.1279     63.2273    232.3295   9.4199018413e+01   1.5894251022e+01    0.5446049     0.484948  51.60  0.003096629    1.117    0.105
       118  -9.2988    201.3244    236.3246   6.2799676790e+01  -1.5444644967e+00    0.1297027    0.0747377 -14.94 0.0003850132    1.688    0.408
       119 -12.9421     46.0367    233.8810   9.8759950514e+01   1.7453747440e+01    0.3377131    0.2796063 -60.65 0.0006461593    1.317    0.241
