#   1 NUMBER                 Running object number                                     
#   2 MAG_AUTO               Kron-like elliptical aperture magnitude                    [mag]
#   3 X_IMAGE                Object position along x                                    [pixel]
#   4 Y_IMAGE                Object position along y                                    [pixel]
#   5 X_WORLD                Barycenter position along world x axis                     [deg]
#   6 Y_WORLD                Barycenter position along world y axis                     [deg]
#   7 A_WORLD                Profile RMS along major axis (world units)                 [deg]
#   8 B_WORLD                Profile RMS along minor axis (world units)                 [deg]
#   9 THETA_WORLD            Position angle (CCW/world-x)                               [deg]
#  10 FWHM_WORLD             FWHM assuming a gaussian core                              [deg]
#  11 ELONGATION             A_IMAGE/B_IMAGE                                           
#  12 ELLIPTICITY            1 - B_IMAGE/A_IMAGE                                       
         1 -16.2910    105.6357     11.6774   8.2751130482e+01   5.7496652120e+01    0.6604359    0.6026128  52.29  0.003618028    1.140    0.123
         2 -18.1862    100.1603     29.2065   9.2349657936e+01   5.6493050769e+01      2.03396     1.699704  59.18   0.01055146    1.343    0.255
         3 -17.4005     49.0508     40.5595   1.1690050889e+02   6.3808669189e+01      2.05776     1.478032 -18.32  0.008794194    1.536    0.349
         4 -17.2948     78.1696     34.2371   1.0199347644e+02   6.0276781940e+01     2.329706     1.503337 -36.06   0.01139136    1.450    0.310
         5 -16.9473    221.6019      8.0462   6.5153156223e+01   2.8757230346e+01     1.658614     1.106488 -47.17  0.009214316    1.405    0.288
         6 -16.1340    247.5826      7.3555   6.3191707701e+01   2.3168306123e+01     1.440966    0.4830903 -29.26  0.006430989    2.277    0.561
         7 -15.3649     90.8281      4.4664   8.3047119966e+01   6.1790743134e+01    0.4407987    0.3287263 -25.81  0.002362601    1.340    0.254
         8 -14.5595    129.8669      5.8810   7.5053896920e+01   5.1989003305e+01    0.2956204    0.2080325  49.57  0.001483742    1.340    0.254
         9 -17.3874    238.8772     21.0234   6.7255485618e+01   2.3763055824e+01     2.510819     1.109756 -29.73   0.01191897    1.856    0.461
        10 -14.4974      4.9106      2.3770   1.2590416323e+02   7.6159882632e+01     0.426829    0.1206719  15.20  0.001630598    4.687    0.787
        11 -14.1297     17.4312    192.7721   1.4980383794e+02   3.2969362345e+01    0.2511985    0.1566115  82.79  0.001779766    1.424    0.298
        12 -16.9626    247.8695    227.3172   1.1039070540e+02  -7.2137291200e-01     1.084862     0.625852 -11.50  0.004899417    1.577    0.366
        13 -15.9789    247.9031    248.3200   1.1336257084e+02  -2.4873337699e+00    0.6528702    0.4841765  19.04  0.003651598    1.334    0.250
        14 -14.9757    237.9662    250.0140   1.1506715960e+02  -1.4971074789e+00    0.4857861    0.1660974  33.56  0.002567628    2.186    0.542
        15 -19.7307    168.5812    210.7589   1.2125504001e+02   1.1614967653e+01     4.594692     3.777143 -16.38   0.03206478    1.336    0.251
        16 -20.3244    168.0048    105.4662   1.0094734636e+02   2.8276244811e+01     9.292401     6.017781 -51.16   0.04236156    1.892    0.471
        17 -16.1764    105.8634    246.6249   1.3663410975e+02   1.5014029851e+01    0.7323063    0.4418563  44.83  0.004065369    1.296    0.228
        18 -14.8316     61.9812    248.3401   1.4437891447e+02   1.9636514620e+01     0.389179    0.1838911  52.41  0.002656616    1.695    0.410
        19 -16.4007     28.6755    178.0167   1.4667073268e+02   3.4800178081e+01    0.7161458    0.2548585  55.86   0.00351071    2.606    0.616
        20 -15.7504     26.5188    146.7084   1.4499125752e+02   4.1450724365e+01    0.6470806    0.3965255  58.75  0.003923801    1.502    0.334
        21 -15.0417     76.4332    108.8400   1.2574153139e+02   4.4517915666e+01    0.7480942    0.6781372 -73.13  0.003248384    1.072    0.067
        22 -16.6301     89.7528    103.1242   1.2047032599e+02   4.3798732875e+01     1.655867      1.39124 -48.66  0.007592547    1.152    0.132
        23 -15.7765    111.8102    109.9043   1.1574241237e+02   3.8559514998e+01    0.7038789    0.4648401 -55.38  0.003364163    1.601    0.375
        24 -15.5522    105.1838    104.3597   1.1625495927e+02   4.0922192340e+01    0.8098469    0.5442704 -79.90  0.003465858    2.377    0.579
        25 -16.0126     57.3157     96.8211   1.2938902673e+02   4.9847894367e+01     1.009586    0.8598144 -29.67  0.004660138    1.307    0.235
        26 -15.2761     32.9238     67.1063   1.3206290570e+02   5.9542031144e+01    0.7982252    0.4280248 -57.18  0.004009155    1.548    0.354
        27 -16.0146     25.4025     86.1899   1.3858518974e+02   5.5574249608e+01    0.8902532    0.8228711 -61.42  0.005897305    1.114    0.103
        28 -14.7899     31.1404     77.2872   1.3490029269e+02   5.7255051863e+01    0.6906864       0.3876 -58.72  0.003580736    1.494    0.331
        29 -16.1464     41.9863    240.5388   1.4741914962e+02   2.2765537810e+01    0.6350757    0.2692344  48.89  0.003617701    1.702    0.413
        30 -15.4153    103.2759     47.1035   9.8887849065e+01   5.2884064669e+01     1.011422    0.6149403 -12.36  0.003894532    2.288    0.563
        31 -16.7183      9.9059    229.4985   1.5253018279e+02   2.7317797824e+01      1.26856    0.5217208  46.80   0.00810273    1.664    0.399
        32 -14.7095      9.4196    219.0486   1.5230240174e+02   2.9044121335e+01    0.3775596    0.2631341  66.13  0.002678944    1.114    0.103
        33 -14.4317     85.5024    232.5136   1.3915963450e+02   1.9378105948e+01    0.1984079    0.1506712  44.57  0.001410739    1.010    0.010
        34 -15.0953    121.4003     40.1860   9.1077092870e+01   4.9911044927e+01    0.4319112    0.3397135  58.59  0.001732106    1.368    0.269
        35 -15.5841     41.9557    229.6831   1.4690337388e+02   2.4435928659e+01    0.4756672    0.2170619  52.34  0.003130356    1.697    0.411
        36 -18.8891    138.6026    144.0656   1.1640185698e+02   2.6968656799e+01     3.959025     2.928498 -72.56   0.02020013    1.962    0.490
        37 -16.3555    120.1370     51.5912   9.5761794978e+01   4.8363469318e+01     1.171172    0.8643043   3.69  0.005471207    1.626    0.385
        38 -15.8878     94.5827    248.3656   1.3874233214e+02   1.6088066316e+01    0.6452733    0.3835489  22.74  0.004353211    1.849    0.459
        39 -14.6967    211.1212    201.8347   1.1234185552e+02   6.6464585210e+00    0.6592285    0.4214842  15.69  0.004180071    1.351    0.260
        40 -13.9514    215.0432    195.2417   1.1059819287e+02   6.8469775175e+00    0.5164548    0.1755241  36.84  0.002411421    2.530    0.605
        41 -14.3194     35.3085    199.2725   1.4654302780e+02   3.0199444944e+01    0.1934413    0.1167964 -59.25  0.001281267    1.974    0.493
