#   1 NUMBER                 Running object number                                     
#   2 MAG_AUTO               Kron-like elliptical aperture magnitude                    [mag]
#   3 X_IMAGE                Object position along x                                    [pixel]
#   4 Y_IMAGE                Object position along y                                    [pixel]
#   5 X_WORLD                Barycenter position along world x axis                     [deg]
#   6 Y_WORLD                Barycenter position along world y axis                     [deg]
#   7 A_WORLD                Profile RMS along major axis (world units)                 [deg]
#   8 B_WORLD                Profile RMS along minor axis (world units)                 [deg]
#   9 THETA_WORLD            Position angle (CCW/world-x)                               [deg]
#  10 FWHM_WORLD             FWHM assuming a gaussian core                              [deg]
#  11 ELONGATION             A_IMAGE/B_IMAGE                                           
#  12 ELLIPTICITY            1 - B_IMAGE/A_IMAGE                                       
         1 -12.6552     11.3518    107.4421   1.2003157508e+02   5.1862393665e+01     2.218177     0.349918 -58.76  0.008154616    3.528    0.717
         2 -10.8390     70.1668     19.3385   7.3060611533e+01   6.3315632529e+01    0.9694798    0.4751672  20.02   0.00388968    3.121    0.680
         3 -12.7072     55.7375     66.3065   9.6502343182e+01   5.7190367714e+01     1.181959      0.70406 -54.27  0.003722763    1.569    0.363
         4 -10.5918     91.2932     24.2931   6.8139285251e+01   5.8681156548e+01      1.51987    0.5170179 -29.72  0.005097661    2.949    0.661
         5 -13.0976     70.3174     31.0147   7.8144877177e+01   6.1614748994e+01     2.602389    0.9043643  46.55  0.009977222    3.312    0.698
         6 -11.6510     57.9406      5.1167   7.0824262132e+01   6.7134614836e+01     1.504256    0.7014413  35.45  0.007601504    2.025    0.506
         7 -12.5183     87.7524     56.6171   8.1943020841e+01   5.4209006728e+01     1.650038     1.195057  59.17  0.005123192    1.837    0.456
         8 -11.6679    112.8555     22.0645   6.1187365333e+01   5.4301334258e+01     1.395015    0.4598218 -33.21  0.005169526    3.002    0.667
         9 -12.0348    115.3637     12.1472   5.6649668960e+01   5.4807558666e+01      1.23229     0.985305 -63.82  0.006439785    1.622    0.384
        10 -12.5041     28.0484     23.7410   9.3068491526e+01   6.8427753117e+01     1.325704     0.896904 -15.53  0.006395568    1.358    0.263
        11 -11.8364     43.7420     14.9084   8.1711190958e+01   6.8001156849e+01     1.199598    0.6615034  50.43  0.005822959    3.139    0.681
        12 -10.8445     36.5690      6.9228   8.1045749140e+01   7.0043587950e+01    0.4199072    0.3422161   9.48  0.001940568    1.191    0.160
        13 -11.5188    150.4616     67.2277   6.8045764090e+01   3.8588121122e+01     1.722935    0.5533085 -38.99  0.005439409    3.024    0.669
        14 -10.8983    157.5977     42.8301   5.8669723474e+01   4.0677706406e+01    0.8172321    0.4929565 -29.06  0.003639403    1.733    0.423
        15  99.0000    100.4014     42.0959   7.2517940327e+01   5.4254546557e+01     2.047979      1.90837 -40.95   0.01203303    1.209    0.173
        16 -12.2538     31.9232     43.1759   9.8628514913e+01   6.4503773736e+01     1.083478    0.5706786 -27.70  0.005555596    1.996    0.499
        17 -12.2325     25.2276      6.4238   8.6443178789e+01   7.1440548697e+01    0.6952518    0.3176376 -36.87  0.003857193    1.861    0.463
        18 -11.7192     16.1851     33.4038   1.0241651542e+02   6.7684476957e+01    0.8097855    0.3951587 -53.75  0.001680764    1.717    0.418
        19 -12.4050     14.4005      5.7461   9.1927699582e+01   7.2588391842e+01    0.7533881    0.6034788  -1.19  0.004853075    1.233    0.189
        20 -11.4802     11.9498     25.5369   1.0169443703e+02   6.9445352203e+01    0.5130743    0.2033616 -35.80   0.00149664    2.147    0.534
        21 -10.8350      7.5558     19.7030   1.0175456276e+02   7.0785769961e+01    0.4190652    0.2562821   3.07  0.002749735    1.758    0.431
        22 -11.1943      2.4316     18.3668   1.0395272510e+02   7.1328330437e+01    0.3289464    0.1433687 -40.63 0.0007408742    1.673    0.402
        23 -11.5163     18.6172     13.5122   9.3337269224e+01   7.1001584175e+01    0.3630306    0.2551506 -22.76   0.00155396    1.109    0.099
        24 -12.7958      4.5667     10.1703   9.9497883847e+01   7.2621861220e+01    0.5425916    0.3360824 -40.11 0.0008564156    1.223    0.182
        25 -11.4225      2.2329      3.1007   9.7647607650e+01   7.3925845681e+01    0.2988605    0.2341879 -43.96  0.002286657    1.400    0.286
        26 -10.0045    211.4896     17.2121   4.3189437616e+01   3.0142082913e+01     0.467919    0.3011377  52.71  0.002406856    1.662    0.398
        27 -11.1815    215.2104     39.5264   4.8599072310e+01   2.6466533700e+01     1.569902    0.6809385 -62.54  0.005182405    3.724    0.731
        28 -10.5236    211.7351     12.0432   4.1827184192e+01   3.0653628089e+01    0.7581229    0.2715673  66.54  0.003071111    2.495    0.599
        29 -11.6388    192.7016     32.3861   4.9622750028e+01   3.3048495588e+01    0.4820031    0.3959708  10.63  0.000386254    1.525    0.344
        30 -11.7443    235.2734     28.6345   4.3609433493e+01   2.3077386677e+01     0.720104    0.4543925  47.05  0.001628037    1.948    0.487
        31 -10.3956    169.2780     23.7382   5.0505855190e+01   4.0132997312e+01     2.181935    0.3243701  48.20   0.00427305    9.383    0.893
        32 -11.1215    164.1268      5.0036   4.5392299385e+01   4.3400158666e+01    0.8736889    0.6439641  58.75  0.003423204    1.229    0.187
        33 -10.9221    162.9954     16.2867   4.9130309313e+01   4.2578547032e+01    0.9121668    0.3552119  44.82  0.003359375    2.810    0.644
        34 -11.0131    176.3872     20.7848   4.8531220965e+01   3.8636269162e+01    0.7642177    0.5328541  40.34  0.002941737    1.578    0.366
        35 -11.0061    170.4312     12.8964   4.6971582342e+01   4.1019050262e+01     1.387152    0.4762004  67.53  0.005114359    2.640    0.621
        36 -10.6723    154.0363     17.3201   5.0912530703e+01   4.4764593043e+01    0.6333271    0.3613773   6.89 0.0006299966    2.684    0.627
        37 -10.5448    149.6872     15.8441   5.1158850431e+01   4.6027424988e+01    0.6080508    0.3764096  21.51  0.002335773    2.098    0.523
        38  -9.9572    147.5090     11.5249   5.0061883684e+01   4.7016457609e+01    0.3367143    0.2327875 -21.83  0.001198349    1.586    0.370
        39 -12.1580     99.5172      7.9065   5.8777741197e+01   5.8806168181e+01    0.8581983    0.6444059  54.54  0.002142531    1.296    0.229
        40 -10.0106    123.6162     22.8880   5.8911297358e+01   5.1693736316e+01    0.6305234    0.3217727  16.90  0.002219318    3.502    0.714
        41  -9.9700    132.0251     13.6028   5.3641370008e+01   5.0671793032e+01    0.3836196    0.2685687  69.15  0.001355062    1.435    0.303
        42 -10.9661    132.0015     19.8524   5.5939327710e+01   5.0014774510e+01    0.5277921    0.3093959  52.95  0.001495612    1.531    0.347
        43  -9.7442    230.4685     20.0212   4.1994707343e+01   2.5243566628e+01    0.4485526    0.2963012 -50.32  0.002452715    1.369    0.270
        44  -9.6312    232.6793     17.3030   4.1135558975e+01   2.5042523826e+01    0.3734133    0.1718627 -55.36  0.000868638    2.154    0.536
        45  -9.5749    239.5658     17.7882   4.0638227867e+01   2.3396124229e+01    0.4327103    0.1769523 -35.73  0.001954085    2.158    0.537
        46  -9.7508    242.9155     13.0765   3.9270692081e+01   2.3177044746e+01    0.2770838      0.24316  65.34  0.001084405    1.304    0.233
        47  -9.4312    244.2292      9.2056   3.8289646110e+01   2.3314802419e+01    0.2559581    0.1696555 -48.44 0.0009884288    1.313    0.238
        48  -9.8667    244.1552      4.3504   3.7207185579e+01   2.3859434553e+01     0.246446    0.2022895 -26.86   0.00155531    1.415    0.293
        49 -10.0742    221.8607     12.3276   4.0921079582e+01   2.8164692224e+01    0.3283615    0.2572587 -58.91  0.001159409    1.157    0.135
        50  -9.5856    226.1411      8.3779   3.9572245806e+01   2.7574408681e+01    0.3222716    0.2246186  31.66  0.001442579    2.080    0.519
        51  -9.7702     31.4498     12.0243   8.6095619979e+01   6.9938593646e+01    0.2517157    0.1478843 -32.27  0.000976688    1.430    0.301
        52 -10.6516    233.0531     10.4931   3.9486219890e+01   2.5723858963e+01    0.3878238    0.2747959 -33.03  0.001269721    1.443    0.307
        53 -10.0303     86.0322      7.5272   6.2367460806e+01   6.1689240080e+01    0.4636754    0.2482812  38.40  0.001713959    1.693    0.409
        54  -9.5962    200.3637      7.3215   4.1747159873e+01   3.3967062599e+01    0.4596634    0.2391481 -37.03  0.002209224    1.875    0.467
        55 -10.2095    199.3789      3.7778   4.0900621721e+01   3.4565860788e+01    0.4036619     0.303171  60.49  0.002067764    1.313    0.238
        56  -9.4365     77.6763      8.7276   6.5530504388e+01   6.3213980261e+01    0.3322019    0.2128754  18.27  0.001805439    1.569    0.362
        57  -9.5895     77.4844      5.5070   6.4071287520e+01   6.3587236046e+01    0.2637791    0.1716145   0.89 0.0006843646    1.564    0.361
        58  -8.8731    250.0851      7.6200   3.7499445267e+01   2.2190519209e+01    0.2667545    0.1338966 -78.29  0.001295647    2.124    0.529
        59 -10.1863    139.2141      4.4363   4.9008035727e+01   4.9755314211e+01    0.4587317    0.3314229 -21.65  0.002265035    1.523    0.343
        60 -10.2670    138.9899      1.4283   4.7983042831e+01   5.0066824368e+01    0.2530503    0.1484205  66.07 0.0003361213    1.527    0.345
        61  -9.8225    211.2431      4.5632   3.9960851298e+01   3.1557072481e+01    0.4675714    0.2953715  35.46  0.002303912    2.197    0.545
        62  -9.5863    208.3019      3.3176   3.9915947705e+01   3.2402296837e+01    0.2361914      0.19449  68.13 0.0007249223    1.200    0.167
        63  -9.1574    190.1269      6.1287   4.2520549166e+01   3.6661323684e+01    0.3815409    0.1202646 -37.98  0.001457501    2.908    0.656
        64  -9.1137    134.5234      6.0250   5.0401139855e+01   5.0778137953e+01    0.3590388     0.153424 -30.34  0.001533007    2.433    0.589
        65  -9.2449    131.6895      4.6478   5.0415787599e+01   5.1596887739e+01      0.35868     0.155496  31.52  0.001346115    3.067    0.674
        66 -10.1480    217.5476      5.3347   3.9582260506e+01   2.9947751787e+01     0.300935    0.2314057  39.18  0.000907435    1.645    0.392
        67 -10.1524    181.9426      4.8209   4.3082883703e+01   3.8865597241e+01    0.4024078    0.3240923  64.64  0.002338266    1.155    0.134
        68  -8.5588     67.6774      5.3288   6.7298495294e+01   6.5433599004e+01    0.1892739    0.1414693  -9.53 0.0006096123    1.230    0.187
        69  -9.0245     71.8765      4.5594   6.5464700571e+01   6.4746685628e+01    0.3152693     0.270301 -71.08  0.001489906    1.896    0.473
        70  -9.0443    248.0760      1.6307   3.6329817204e+01   2.3278300514e+01    0.1767915    0.1413188 -89.17  0.001151566    1.161    0.139
        71 -11.7865     66.8823    122.8343   1.0636992555e+02   4.2716883126e+01     1.179976    0.4642318 -51.60  0.004716612    2.320    0.569
        72 -10.5766    236.0452    249.7732   9.1206268464e+01  -9.5063826041e+00    0.4680864    0.1426941  38.31  0.002179928    2.680    0.627
        73  -8.9893    211.6667    250.3157   9.5485567007e+01  -6.0565382172e+00    0.1056146   0.08422261  52.60 0.0007046935    1.688    0.408
        74  -9.7428    151.1300    249.7134   1.0628672830e+02   3.3720986598e+00    0.1950276    0.1415156 -79.78  0.001213173    2.063    0.515
        75  -9.2951    124.9910    249.8281   1.1106065210e+02   7.4015490477e+00    0.1891939    0.1261051  21.25  0.001087704    2.096    0.523
        76 -10.2031     63.8037    113.6284   1.0547716284e+02   4.5335608253e+01     0.305601    0.1495605  43.72  0.001344014    2.253    0.556
        77  -9.5497     73.0624    129.5349   1.0588363989e+02   4.0254007681e+01    0.2574607    0.1873055 -62.61 0.0004040791    1.247    0.198
        78 -10.5344     56.1207    125.8052   1.0995077508e+02   4.3368917797e+01    0.3637616    0.2296907 -64.75 0.0008539023    1.382    0.276
        79  -8.9884     81.3119    124.9123   1.0268513812e+02   4.0154995551e+01    0.2043573    0.1732064 -55.44  0.001128865    1.122    0.109
        80  -8.7246     74.3696    124.9459   1.0464839535e+02   4.1171532112e+01    0.1960644    0.1661365 -61.51 0.0005658338    1.083    0.077
        81 -10.3035     91.2362    121.8742   9.9253391413e+01   3.9308362866e+01    0.6188852    0.3974926 -27.52  0.002364751    2.272    0.560
        82  -9.0010     88.4876    119.5357   9.9521954826e+01   4.0313423330e+01    0.2599311    0.2322026  -4.52 0.0006151556    1.345    0.256
        83 -10.3390     92.6722    115.4791   9.7414769624e+01   4.0584403190e+01    0.5546501    0.2590627 -52.53  0.002222283    1.993    0.498
        84  -9.4134     90.4123    112.8065   9.7449192021e+01   4.1592236926e+01    0.3576282    0.2123464 -47.66  0.001188833    1.603    0.376
        85 -11.7696     75.5431    120.0664   1.0334375645e+02   4.2174290201e+01    0.2633835    0.2482145  57.52  0.001565028    1.139    0.122
        86 -10.1918     59.4806    120.5668   1.0807187473e+02   4.4218553426e+01    0.3879838    0.2447417  17.80  0.001891898    2.173    0.540
        87 -10.6656     19.6847    118.4118   1.1907181341e+02   4.8710320358e+01    0.4046391    0.2891972 -67.46  0.001651577    1.137    0.121
        88  -9.9432    105.2692    117.1764   9.4246742205e+01   3.7972811108e+01    0.4700193    0.3135865 -72.21  0.002052204    1.864    0.464
        89  -9.9489    116.1478    116.4860   9.1082997415e+01   3.6072005644e+01     0.272823    0.2489981 -54.15 0.0005071304    1.063    0.059
        90 -11.2647     23.2166     95.3887   1.1462439682e+02   5.3835674760e+01    0.7425405    0.5119662 -87.21  0.004389083    1.487    0.327
        91  -9.5586    108.9106    114.7915   9.2657840650e+01   3.7850342149e+01    0.2771159    0.2296648 -69.21   0.00112759    1.265    0.210
        92  -9.1546     99.3099    113.1832   9.4974179686e+01   3.9977895413e+01    0.3282878    0.2296478 -80.98  0.001458135    1.900    0.474
        93  -8.5257     82.4187    114.3849   1.0013949844e+02   4.2500548882e+01    0.2586548    0.1393722  18.15 0.0009458595    3.237    0.691
        94  -9.6686    149.1294    107.4233   8.0170584135e+01   3.1053861670e+01     0.463065    0.2298508 -41.24  0.001738293    2.006    0.502
        95  -8.3730    104.2836    109.2922   9.2599268305e+01   3.9981965262e+01    0.1463152    0.1172884 -17.29 0.0002898518    1.535    0.349
        96 -10.6651     69.2045    105.3573   1.0209104004e+02   4.6583639001e+01    0.6247074    0.2857382 -36.32  0.002256487    3.168    0.684
        97  -9.6780     23.6254    108.9452   1.1664172867e+02   5.0629542920e+01    0.3275002     0.155665  35.64   0.00167606    2.380    0.580
        98  -9.7790    113.2561    107.0168   8.9482227771e+01   3.8794931959e+01    0.4204352    0.3168241  75.63  0.001924862    1.743    0.426
        99  -9.5035     74.8513    107.0959   1.0075845616e+02   4.5369742017e+01    0.2657662    0.2122913  26.16 0.0008620757    1.438    0.305
       100 -11.1553     38.1493     79.0164   1.0629743521e+02   5.6332931143e+01    0.6620967    0.4450088  88.94  0.002354273    2.076    0.518
       101 -10.2486     45.4458     77.3173   1.0328919817e+02   5.5978674104e+01    0.3402575    0.2538846 -54.18 0.0009829974    1.146    0.127
       102 -11.7462     49.7959     99.7144   1.0694816420e+02   5.0340931930e+01     1.172967    0.7076833 -58.79  0.005258382    1.406    0.289
       103  -9.9650     52.4175     83.3856   1.0236891294e+02   5.3832570831e+01    0.6851892    0.2552833 -51.23  0.002821171    2.208    0.547
       104 -10.5160     57.0075     85.1729   1.0124723705e+02   5.2876570090e+01     0.500423    0.3573064 -66.80  0.002658345    1.426    0.299
       105 -10.9063     44.4722     93.0682   1.0727522706e+02   5.2473843312e+01    0.2539294    0.2231964 -82.50 0.0003670908    1.186    0.157
       106 -10.1199     42.9477     86.9993   1.0646124501e+02   5.4038008343e+01    0.3597591    0.1829547 -54.95 0.0004672928    1.609    0.378
       107  -9.9256     39.2109     96.8712   1.0976325096e+02   5.2111159116e+01    0.3446048    0.2166284 -37.00  0.001151368    1.726    0.421
       108  -9.8412     39.5107     92.4783   1.0878563353e+02   5.3109793967e+01    0.2518799    0.1759029 -52.83 0.0005319831    1.211    0.174
       109 -10.8585     34.5183     91.2048   1.1017725881e+02   5.3873094128e+01    0.4910508    0.3176117   4.09  0.002281473    2.109    0.526
       110  -8.6834    118.3282    105.3178   8.7626047588e+01   3.8167145450e+01    0.1568001     0.122729  -6.50 0.0007046376    1.681    0.405
       111 -11.6019    141.6486    101.7458   8.0479638701e+01   3.3943438594e+01     0.406777    0.3204228  30.95  0.000459912    1.387    0.279
       112  -9.6474    146.6955     99.6621   7.8638902705e+01   3.3231374835e+01    0.2702749     0.239832  -7.19 0.0004898077    1.246    0.198
       113 -10.0756    133.6642    102.2957   8.2683741449e+01   3.5598686948e+01    0.3831354    0.2574767 -44.14 0.0009532227    1.462    0.316
       114  -8.7527    105.4591    102.7113   9.0568427059e+01   4.1268560473e+01    0.2115813    0.1380026 -38.52 0.0009352698    1.579    0.367
       115 -10.3565     77.4864    101.6341   9.8673664423e+01   4.6265344836e+01    0.4111089    0.2840738  28.02  0.001077184    1.670    0.401
       116  -9.8062     62.2499    102.7745   1.0367378783e+02   4.8123290787e+01    0.2539137    0.2252934 -28.54 0.0002118029    1.228    0.186
       117  -9.4168     63.5314     98.2660   1.0225525110e+02   4.9019171996e+01    0.3894374    0.2352773  43.53  0.001904893    1.871    0.466
       118  -9.8460    182.9928    249.6207   1.0048716117e+02  -1.6047861648e+00    0.2854511   0.09072887  39.97  0.001256839    2.472    0.596
       119 -10.8347      4.7026     99.2383   1.2093747051e+02   5.4156030058e+01    0.5587524    0.2576806 -64.10  0.003050136    1.600    0.375
       120  -8.9548      3.3420     92.6832   1.2048661722e+02   5.5727694842e+01    0.1970017   0.09255727 -78.87   0.00101621    1.852    0.460
       121 -10.6894      4.1136     86.6447   1.1938717754e+02   5.7059325992e+01    0.6573682    0.2918791 -61.56  0.003455861    1.633    0.388
       122 -10.3955    110.9103    100.6480   8.8452763400e+01   4.0687343240e+01     0.261637    0.2210269 -43.80 0.0002807604    1.141    0.124
       123  -8.8575     34.1958     99.3280   1.1182730414e+02   5.2002574142e+01    0.2423252    0.1646298 -70.98  0.001381878    1.292    0.226
       124  -9.3022     87.7332     97.4919   9.4477914918e+01   4.5603674245e+01    0.2805794    0.2159684  46.70 0.0008631127    1.415    0.293
       125 -10.5816    156.6098     95.4968   7.5077902332e+01   3.1764916367e+01    0.4734649    0.3636673 -30.39  0.001463769    1.353    0.261
       126 -10.6594    118.5601     86.4958   8.2248466836e+01   4.2204209337e+01    0.4145398    0.2719733  44.16  0.001122273    1.566    0.361
       127 -10.9294    115.8219     94.9873   8.5490878416e+01   4.0956468454e+01    0.7117226    0.4035618  48.79  0.002204703    1.878    0.468
       128 -11.0149    123.9863     91.6864   8.2271702359e+01   3.9959727277e+01    0.5492955    0.5194078 -39.67  0.001929999    1.032    0.031
       129  -9.6163     81.7894     97.1895   9.6236632655e+01   4.6635263802e+01    0.2542853     0.199035  44.83 0.0002391069    1.396    0.284
       130 -10.2428     71.3399     95.3014   9.9056159462e+01   4.8641989125e+01    0.3740077    0.2028242 -51.26 0.0008701912    1.637    0.389
       131  -8.8096    150.9827     95.9773   7.6553809373e+01   3.2993139784e+01    0.2510886    0.1968004 -85.97 0.0008441927    1.681    0.405
       132  -9.2830    138.9532     94.7477   7.9193471836e+01   3.6016843051e+01     0.372151    0.2490528  33.12  0.001068275    1.699    0.411
       133  -9.4111    173.2493     92.7188   7.0562172514e+01   2.8307457727e+01    0.4205825     0.218449  58.95  0.001572343    2.163    0.538
       134  -9.2042    108.9982     83.9942   8.4247720857e+01   4.4691407189e+01    0.2366571    0.2244923 -23.94   0.00061924    1.023    0.023
       135 -10.0643    104.3008     92.2232   8.8039506976e+01   4.3833544719e+01    0.5169867     0.319398  16.33  0.001950528    2.645    0.622
       136  -9.6343    106.5463     86.9996   8.5865964870e+01   4.4536218042e+01    0.3580785     0.217346 -44.63 0.0008450438    1.577    0.366
       137  -9.3655     83.0951     84.9945   9.2539396550e+01   4.9184960635e+01     0.264302    0.2047607 -32.54 0.0009739097    1.291    0.225
       138 -10.8036     82.8450     90.0611   9.4026561986e+01   4.8093430288e+01    0.4254181    0.2794021  23.12  0.001310055    1.868    0.465
       139 -10.3276     87.9946     90.0294   9.2393574461e+01   4.7251632225e+01    0.5622262     0.223316 -50.77  0.001391554    2.366    0.577
       140 -10.1956     91.1579     87.3141   9.0641176523e+01   4.7313282167e+01    0.4093245    0.3083924 -82.59  0.001320209    1.853    0.460
       141  -9.9010     75.5294     89.5142   9.6225152245e+01   4.9356227340e+01    0.4342214    0.3127851  59.73  0.002163705    1.778    0.438
       142  -9.7100     71.4910     89.5030   9.7534400680e+01   4.9953479110e+01    0.2140311    0.1416323  32.66 0.0009850074    1.681    0.405
       143  -9.2644    194.0426     89.3511   6.5449912552e+01   2.3868138743e+01    0.2391099    0.2092977 -20.11 0.0003078894    1.192    0.161
       144  -8.5640    187.5400     89.5541   6.6755072674e+01   2.5413290950e+01    0.1540687    0.1488053 -58.46 0.0001939263    1.035    0.034
       145  -8.8813    112.4108     87.6021   8.4329726312e+01   4.3240268734e+01    0.3895816    0.1395875 -39.85  0.001252546    2.915    0.657
       146  -9.9006    145.2185     87.6376   7.5547881706e+01   3.6018198338e+01    0.4147896    0.3016146  19.97 0.0008699177    1.776    0.437
       147 -10.1292    146.6695     82.8305   7.3759449173e+01   3.6619816621e+01    0.6310254    0.2513438 -28.38  0.001779182    3.927    0.745
       148 -11.0574    144.2516     78.0002   7.2881488359e+01   3.8120782330e+01    0.8487014    0.5227622  63.62  0.003448664    1.964    0.491
       149  -9.5698    146.7784     75.0005   7.1342917374e+01   3.8079886379e+01    0.2285276    0.2228713  33.93            0    1.023    0.022
       150  -9.2054    155.7124     85.8739   7.2511472479e+01   3.3868524286e+01    0.2848436    0.2124421  26.29  0.001054065    1.594    0.373
       151 -10.2010    133.7228     83.6544   7.7276211973e+01   3.9466148134e+01    0.5331507    0.2720385 -25.50  0.001797734    2.876    0.652
       152  -9.5502    133.7910     80.1926   7.6200949499e+01   4.0137343854e+01    0.4813793    0.2411114  56.16  0.001560489    2.294    0.564
       153  -9.2468     75.8608     84.0218   9.4622573967e+01   5.0541215645e+01    0.2278392    0.2044165  38.50 0.0008864834    1.230    0.187
       154  -9.9875    131.8610     74.1507   7.4817060774e+01   4.1749428646e+01     0.349965     0.266804 -41.95 0.0009704774    1.307    0.235
       155  -9.9243    124.6039     74.7127   7.6934188091e+01   4.3278932594e+01    0.6006278    0.2411876  47.81  0.001776471    2.522    0.604
       156 -10.2866    101.3074     68.2991   8.1608061247e+01   4.9414381337e+01    0.4992718    0.3159531 -41.60  0.002119971    1.521    0.342
       157 -10.8237    107.4023     68.3290   7.9769302441e+01   4.8188877315e+01     2.095152    0.7673159 -55.07  0.004550184    7.825    0.872
       158 -11.0789    125.2256     68.5434   7.4774248505e+01   4.4315305805e+01     1.071493    0.6567134 -71.14  0.003672817    3.406    0.706
       159 -12.0393    116.7508     70.2492   7.7679601382e+01   4.5857943319e+01    0.9668899    0.8051283 -24.68  0.004967867    1.210    0.173
       160 -11.8427    111.7733     63.5565   7.6880218173e+01   4.8184661366e+01    0.3428159    0.2861002 -33.87 0.0003013832    1.169    0.145
       161 -10.4750    162.3928     81.1650   6.9604579967e+01   3.3133702520e+01    0.7344996    0.3069856  50.75  0.002574054    2.367    0.578
       162  -9.9824    106.3173     76.7250   8.2805248113e+01   4.6735925487e+01    0.4946401      0.28879  47.55  0.002142071    1.823    0.452
       163 -10.1689    103.3779     80.9229   8.4990802393e+01   4.6443416591e+01    0.4173256    0.2866863  26.55 0.0005739333    1.699    0.411
       164 -10.3451     98.8563     77.2483   8.5239704498e+01   4.8076094072e+01    0.4446765     0.392282  64.17  0.001407275    1.327    0.246
       165  -8.5588     58.9987     80.5510   9.9369518665e+01   5.3671824492e+01    0.1768088    0.1351028  31.24 -1.372381e-05    1.475    0.322
       166 -11.5634     81.4320     75.9662   9.0432450621e+01   5.1418846611e+01    0.9901404    0.5542269  55.94  0.001383928    2.674    0.626
       167 -10.0720    107.5201    248.6672   1.1410190582e+02   1.0205416899e+01    0.2654206    0.1517201  67.45    0.0015108    1.951    0.487
       168 -11.6952     40.9135     65.9860   1.0196149642e+02   5.8941185940e+01     0.966648    0.6434532 -38.92  0.005104773    1.330    0.248
       169 -11.4277     57.3735     47.6724   8.9702390118e+01   6.0715162989e+01    0.8712896    0.8383554   8.81  0.005763297    1.238    0.192
       170 -11.6122     33.5504     58.9518   1.0284623355e+02   6.1151322408e+01    0.6426723    0.3572825 -28.45  0.001504123    1.965    0.491
       171  -9.0558     30.7204    247.8162   1.2724108978e+02   2.0346795039e+01     0.147528    0.1155865 -82.17  0.001190504    1.443    0.307
       172  -9.0639      3.4458    246.3172   1.3145317369e+02   2.3421202667e+01    0.1723983   0.07271674 -75.70  0.001118506    2.200    0.546
       173 -11.0979     20.6277     62.1062   1.0877337182e+02   6.1525686357e+01     0.780316    0.6048391  48.68  0.005068188    1.697    0.411
       174 -11.5035     23.5978     51.8588   1.0487453115e+02   6.3471684010e+01    0.4697765    0.3550317 -68.77  0.002026243    1.455    0.313
       175 -11.9699     67.8153     75.1011   9.4793940927e+01   5.3687432860e+01    0.8587603    0.4255887 -52.46  0.003800816    1.864    0.464
       176  -9.0732    177.4614    245.5596   1.0093893916e+02  -1.9640742722e-01    0.1209833   0.09456226  33.30 0.0001272948    1.015    0.015
       177 -10.5632    141.7210    243.9995   1.0733050654e+02   5.7029061099e+00    0.3358129    0.2002593  29.73  0.001884448    1.759    0.431
       178 -11.4387     78.2996     62.0117   8.7025053830e+01   5.4804672808e+01     1.052913    0.4582399 -33.93   0.00401049    2.604    0.616
       179  -9.5864     91.3784    245.1486   1.1667673581e+02   1.3122353877e+01    0.1541025     0.097046 -89.64 0.0009502774    1.797    0.444
       180 -11.6468    106.4321     32.5512   6.7043491730e+01   5.4388719605e+01    0.6874242    0.5119513  14.77  0.002100122    1.435    0.303
       181 -10.4118     14.4522    237.4645   1.2936105117e+02   2.3883290345e+01    0.2779709    0.1293229 -87.93  0.001599572    1.849    0.459
       182  -9.0913     55.4521    237.7773   1.2246808055e+02   1.9207600794e+01    0.1398616   0.09404286 -66.42 0.0009492245    1.715    0.417
       183  -9.5288    190.3191    235.6600   9.7165810674e+01  -8.9410441754e-01    0.1151067   0.09105234  62.28 0.0007049596    1.713    0.416
       184 -11.4885     36.6376     27.1959   9.0487709620e+01   6.6940974483e+01    0.2228115    0.1768759 -21.42 0.0002928785    1.002    0.002
       185  -8.7023     20.9793    232.3275   1.2804103352e+02   2.4139325253e+01    0.1458813    0.1022896  62.67 0.0004851937    1.112    0.100
       186  -9.4106     12.5849    231.7766   1.2940331121e+02   2.5093193516e+01    0.2360677   0.09697295  59.16  0.001437669    1.834    0.455
       187 -11.7708     41.5193     53.9715   9.8163805846e+01   6.1396595284e+01    0.2397122    0.2044011  10.38 0.0003312414    1.286    0.223
       188 -11.5162     42.1875     49.9957   9.6600963917e+01   6.2123203305e+01    0.7127634    0.3258017  22.11  0.003306591    2.660    0.624
       189 -12.5160     48.9835     39.0911   8.9878163082e+01   6.3394927542e+01    0.4809067    0.3712785  40.17 0.0005617103    1.611    0.379
       190  -9.5653    187.0528     78.4141   6.3744464250e+01   2.7512908712e+01    0.4589053    0.1666429  51.30  0.001533585    2.714    0.632
       191  -8.3296    226.7069    231.6617   8.9963293107e+01  -6.0711190792e+00    0.1231736    0.0775961   8.54 0.0007027193    1.648    0.393
       192 -12.0765    147.5642     53.4152   6.4247621501e+01   4.1614263386e+01    0.6820775    0.4146643  49.55  0.002996286    1.592    0.372
       193 -10.1505    144.9960     49.0121   6.3358299538e+01   4.2938212945e+01    0.3500727    0.2609968  40.03 0.0003239731    1.354    0.261
       194  -9.8422      5.2373     77.3253   1.1754748069e+02   5.9099856357e+01     0.255623    0.1925362  61.14  0.001703751    1.643    0.391
       195  -9.8906      3.1194     73.5953   1.1765733366e+02   6.0035446611e+01    0.5710543    0.1723588 -37.92  0.002325233    3.764    0.734
       196  -9.5442    214.7855     76.2518   5.8351481525e+01   2.1096527445e+01    0.2796731    0.2417432  15.26  0.001473687    1.368    0.269
       197  -9.1273    170.5627     70.3277   6.4639900743e+01   3.3040774043e+01    0.3003686    0.1870771  51.52 0.0009500178    1.591    0.371
       198  -8.7553    159.3678     54.2361   6.1979656752e+01   3.8522056032e+01    0.2128465    0.1873269 -37.63  0.000258469    1.155    0.134
       199 -11.3486    165.7384     69.0369   6.5249426791e+01   3.4474961343e+01     1.143981    0.3930728 -32.46  0.003576832    3.120    0.679
       200 -11.5421    165.3725     59.0499   6.2264571613e+01   3.6233695692e+01     1.038675    0.4765652 -31.27  0.003879543    2.271    0.560
       201 -10.1112    160.7113     50.3148   6.0459226668e+01   3.8785240276e+01    0.4515025     0.278701  65.42  0.001633304    1.695    0.410
       202  -9.1800    219.1959    230.8630   9.1165981370e+01  -4.8248079812e+00    0.1804094    0.1457423  34.39 0.0005227144    1.253    0.202
       203  -9.2733    202.2318    228.9819   9.3943687586e+01  -1.9002673600e+00    0.2042987     0.145652  31.93 0.0003663594    1.152    0.132
       204 -10.1361    131.4869     67.3295   7.2719771521e+01   4.3109027188e+01    0.4438202    0.3062701  64.52 0.0006835399    1.723    0.420
       205 -10.2775    143.3345     69.2997   7.0384650861e+01   3.9952151108e+01    0.3716342     0.274761 -42.12   0.00113063    1.363    0.266
       206 -10.8282    140.3777     70.8399   7.1597740209e+01   4.0378910997e+01    0.6145762    0.3081937 -29.94  0.001891069    2.242    0.554
       207 -10.2058    137.4512     69.4502   7.1883567496e+01   4.1326642673e+01     0.397651    0.3175582   9.81  0.001050664    1.491    0.330
       208  -8.5737     94.6275     71.7404   8.4821133886e+01   4.9999362939e+01    0.3193395    0.2282614 -87.30  0.001112371    2.538    0.606
       209  -9.5940    177.8952     68.7545   6.2716759398e+01   3.1460562567e+01    0.6220213    0.3038929  63.45  0.002308165    2.294    0.564
       210  -9.4582     84.9210     67.4114   8.6571467042e+01   5.2611090598e+01    0.2071476    0.1387659  40.53  0.001011968    1.596    0.374
       211  -8.4095    112.3349    225.6722   1.1076283041e+02   1.3384118074e+01    0.1315862   0.08146291  65.71 0.0007051823    1.722    0.419
       212  -8.7915    238.4282     65.7259   5.2298847714e+01   1.7242181549e+01    0.1936475    0.1305015 -21.91 0.0009421336    1.647    0.393
       213  -9.8918    152.8036     43.5205   5.9858545502e+01   4.1796858975e+01    0.5137207    0.2761547 -23.28  0.001315821    2.127    0.530
       214  -8.5985      7.2908     46.9967   1.1045923078e+02   6.5537979329e+01    0.1416989   0.08243677 -57.74 0.0008539257    1.338    0.252
       215 -10.0640     10.8240     63.4135   1.1287050476e+02   6.1869428830e+01    0.3376466    0.1779667 -54.46  0.001143057    1.413    0.292
       216 -10.8060      4.4223     57.1615   1.1402741275e+02   6.3552242582e+01      0.50969    0.2623781  42.68  0.002757753    2.733    0.634
       217 -10.1687      4.3701     51.6621   1.1282404597e+02   6.4717549954e+01     0.275558    0.1386337 -43.69 0.0009717177    1.580    0.367
       218 -10.0927    143.9514     58.0729   6.6606294728e+01   4.1748797404e+01     0.369692     0.285019  60.40 0.0005909063    1.335    0.251
       219  -9.9279    137.9769     59.0477   6.8353981763e+01   4.3034221549e+01    0.2897589    0.2226701  41.65  0.000345456    1.296    0.228
       220  -9.1490    186.3860     61.3871   5.8994879264e+01   3.0513983757e+01    0.3452046    0.2304525 -61.58 0.0006731832    1.770    0.435
       221  -9.9631    174.0062     57.3599   6.0062264542e+01   3.4303761969e+01    0.4641702    0.3120301  -5.89 0.0005522607    2.082    0.520
       222 -10.8081    172.7345     47.0960   5.7168594336e+01   3.6183281431e+01    0.9700867    0.6009846 -80.01  0.003860401    2.407    0.585
       223 -10.2211    173.1418     38.9766   5.4600855759e+01   3.7218222953e+01    0.4285952    0.3324091  82.25  0.001714507    1.356    0.262
       224 -10.8735    194.5044     53.8888   5.5477017306e+01   2.9609887035e+01    0.8695219     0.621573  65.45  0.004113791    1.401    0.286
       225 -10.9551    194.0407     50.0354   5.4455812676e+01   3.0296444002e+01    0.7810043    0.4608901 -48.11  0.002617182    1.724    0.420
       226 -10.7243    185.6148     55.6987   5.7475247469e+01   3.1596431847e+01     0.402742    0.3272739  40.44 0.0006750251    1.326    0.246
       227 -11.3413    183.5713     51.8708   5.6703370171e+01   3.2697063608e+01    0.5089822    0.3360787  52.84  0.000464409    1.499    0.333
       228  -9.9767    129.5792     60.9152   7.1090311393e+01   4.4697970259e+01    0.5764542    0.2857218  55.89  0.002225243    2.174    0.540
       229 -10.0180    133.3515     55.1656   6.8187846313e+01   4.4789211999e+01    0.4848221    0.3014107 -12.37  0.001340454    2.198    0.545
       230  -9.1660    135.4892     50.5409   6.6084204164e+01   4.5025483011e+01    0.2868591    0.1910844 -26.57 0.0007091376    1.577    0.366
       231  -9.2657    211.8661     60.4410   5.4608428257e+01   2.4293276670e+01    0.2365646    0.2027553  -4.45 0.0009027711    1.381    0.276
       232  -9.2181    207.0438     61.0695   5.5503948452e+01   2.5382095943e+01    0.2297215    0.2123338 -55.45 0.0007411264    1.029    0.028
       233  -9.0797    201.5124     59.9891   5.6069513909e+01   2.6921446881e+01    0.2223139    0.1946014  71.13  0.000495958    1.151    0.131
       234  -9.2178    106.9560     59.7556   7.6992945526e+01   4.9893033223e+01    0.2206341    0.1878106  10.58 0.0005210966    1.222    0.182
       235 -10.0685    222.2708     56.7585   5.2170419985e+01   2.2328027071e+01    0.4477862    0.3460124  -4.80  0.002278228    1.667    0.400
       236 -10.3679    203.8069     74.1708   5.9581716441e+01   2.4091976624e+01    0.5289686    0.3663778  20.62  0.001699735    2.072    0.517
       237  -9.0911    112.9552     57.0412   7.4291453771e+01   4.9109061465e+01    0.4119927    0.2378596  -3.47  0.001359567    3.664    0.727
       238  -9.3080    244.3547     55.8948   4.9190039891e+01   1.7350647129e+01     0.374647    0.1479686 -34.83  0.001526101    2.232    0.552
       239  -9.4539    118.1095     42.4564   6.7614306570e+01   5.0351647863e+01    0.5237288    0.1874757 -36.93  0.001869423    2.768    0.639
       240 -10.4958    120.8995     53.7842   7.0938215363e+01   4.7910954130e+01    0.5576496    0.4443941   3.77   0.00280445    1.413    0.292
       241 -10.2332    116.2962     50.0504   7.0869355524e+01   4.9563513983e+01     0.528218    0.4244083   3.55  0.002716701    1.362    0.266
       242 -10.0109    233.5517     55.1495   5.0304013241e+01   1.9909370127e+01    0.2833124    0.2437981  -5.74  0.001600231    1.405    0.288
       243  -8.0342    203.4495     56.4633   5.4796044403e+01   2.6974493350e+01    0.1447536    0.1397776 -67.20 0.0002944191    1.031    0.030
       244  -8.6357     12.5200     56.6424   1.1067089806e+02   6.3225385857e+01    0.2390235    0.1013535  24.81  0.001229065    2.785    0.641
       245 -10.5285     71.0687     52.6293   8.6325167259e+01   5.7777719939e+01     0.415839    0.3154787 -46.51  0.001681453    1.335    0.251
       246  -9.7694     76.0266     51.9742   8.4305523580e+01   5.7102750702e+01    0.2405574    0.1930477   4.03  0.001346347    1.290    0.225
       247  -9.2400    211.2061     52.0828   5.2466889062e+01   2.5698448509e+01    0.3795981    0.2392034  27.82  0.001597135    2.428    0.588
       248  -9.3316     10.2221     52.1075   1.1050809856e+02   6.4315827876e+01    0.1830072    0.1582527  12.82 0.0005584331    1.424    0.298
       249  -8.6655     16.2516     50.6156   1.0760453499e+02   6.4255907329e+01    0.1488332    0.1013511 -14.10 0.0005615054    1.606    0.377
       250 -10.9171    205.5860     46.2520   5.1682274815e+01   2.7927505325e+01    0.8920968    0.4293347  41.30  0.002416761    2.806    0.644
       251  -9.5103    178.9944     45.1940   5.5496328657e+01   3.4845909616e+01    0.2664974    0.2214856 -17.59 0.0003985755    1.331    0.249
       252  -9.7288     75.3287     46.1140   8.2375953774e+01   5.8278527037e+01    0.3746932    0.2274776  19.40 0.0009280452    2.038    0.509
       253 -10.3427     76.6134     41.4310   8.0105742383e+01   5.8868797855e+01    0.2815708    0.2160739 -19.25 0.0006125712    1.223    0.182
       254 -10.8347     66.8626     44.0671   8.4707601954e+01   5.9999779594e+01    0.3710184    0.3069889 -32.96  0.001472213    1.139    0.122
       255 -10.6100    142.2785     44.4323   6.2416496574e+01   4.4299455219e+01    0.6133582    0.3358981  33.89 0.0007859031    2.262    0.558
       256  -9.1559    142.8483     39.1163   6.0470446741e+01   4.4919920361e+01    0.2747609    0.2158141 -15.52  0.000589664    1.382    0.276
       257 -10.4820    148.0154     34.8696   5.7938798335e+01   4.4201520199e+01     0.833525    0.2785579  59.24   0.00258195    2.788    0.641
       258  -9.8502    155.8479     31.4977   5.5292167029e+01   4.2647847741e+01    0.3977445    0.2692671  -0.49  0.001822463    1.932    0.482
       259 -10.3100    129.6300     40.9732   6.4148638277e+01   4.7882975113e+01    0.6425347    0.5308577 -44.94  0.002586331    1.312    0.238
       260 -10.1096    135.9725     41.7128   6.2909378787e+01   4.6245095910e+01    0.3751855    0.2789456 -80.22  0.001750847    1.857    0.462
       261  -8.8054    123.9313     36.0254   6.3747535981e+01   4.9936701879e+01    0.2074442    0.1940834  38.76 0.0008895518    1.043    0.041
       262  -9.5998     16.8967     44.6905   1.0566114815e+02   6.5423628023e+01    0.2632237    0.1469158 -43.74 0.0005112592    1.389    0.280
       263  -8.7607    137.4464    224.5062   1.0569803718e+02   9.5445683357e+00    0.1267506     0.106584  46.44 0.0004139738    1.021    0.020
       264 -10.4622      9.2546     42.1246   1.0829554311e+02   6.6421090109e+01    0.3712782    0.2765245  -8.18  0.001481487    1.460    0.315
       265  -9.1959     41.1628    221.2718   1.2386355473e+02   2.3988807952e+01    0.1990676      0.10846 -61.73  0.001197295    2.083    0.520
       266  -8.3914    224.6770    215.3392   8.7579436321e+01  -3.6654953536e+00    0.1101563    0.1004997  68.94 0.0007050859    1.721    0.419
       267 -11.2938      4.7689     26.7310   1.0569542397e+02   6.9666046635e+01    0.4363057    0.2326224 -25.64  0.002642706    1.765    0.433
       268  -9.3464     26.9639    212.3056   1.2585684309e+02   2.7302535070e+01    0.1591503     0.119343  66.62  0.001164918    1.095    0.086
       269  -8.9441    233.9668    199.7466   8.3104330179e+01  -3.0392832379e+00    0.1812505    0.1490382  13.56  0.000929759    1.038    0.036
       270  -9.2988     27.3774    193.7499   1.2452255376e+02   3.1019970606e+01    0.2060649    0.1258627 -73.27  0.001301759    1.484    0.326
       271  -9.5828     11.4913    192.7301   1.2753497356e+02   3.2773652234e+01    0.2555196    0.1360449  53.40  0.001614623    1.611    0.379
       272 -10.3351     24.3037     13.7571   9.0506360111e+01   7.0431497576e+01    0.1795413    0.1259072  20.26 0.0006831475    1.509    0.337
       273  -8.5553      7.7874    186.0009   1.2784216166e+02   3.4498886302e+01    0.1420749   0.07113658 -82.03 0.0008406479    1.600    0.375
       274  -9.5536     11.6624    184.7153   1.2700347397e+02   3.4426991451e+01    0.2016783    0.1820584 -84.58 0.0005035184    1.352    0.261
       275  -8.3572    226.7377     44.3158   4.8419846722e+01   2.3032299599e+01    0.2165717    0.1578596 -48.58 0.0001834778    1.262    0.208
       276  -9.3758    224.6683     41.7311   4.8012223259e+01   2.3877741594e+01    0.2076641    0.1896859  39.01 0.0006080006    1.292    0.226
       277  -8.5395    233.5054     43.4513   4.7412742078e+01   2.1558283158e+01    0.1906797    0.1321115 -19.45 0.0005671665    1.699    0.412
       278  -9.1066    235.8513     39.6065   4.6209042698e+01   2.1530419646e+01    0.2237711    0.1795637 -26.38 0.0006135199    1.345    0.256
       279 -11.4717    219.7817     34.0547   4.6624824306e+01   2.6070211179e+01    0.9633622    0.5494515 -86.20  0.001138209    2.129    0.530
       280  -8.3412     18.3144    182.6384   1.2553378594e+02   3.4258172789e+01     0.127138   0.06500013  69.28 0.0007041824    1.757    0.431
       281 -10.5948     26.3836    177.0289   1.2343681562e+02   3.4691903282e+01    0.4251702    0.2552158 -64.22  0.002119688    1.613    0.380
       282  -9.3935    204.8085     16.6613   4.3766904607e+01   3.1861108926e+01    0.2618453    0.2120622 -26.48  0.000771301    1.363    0.266
       283 -10.6568     30.5064    172.4807   1.2216505875e+02   3.5279791358e+01    0.3280345    0.2183434 -63.16  0.001499092    1.498    0.333
       284 -10.9397    215.0375     25.2636   4.4894470722e+01   2.8327236650e+01     0.654677    0.4577726  17.54  0.001913753    2.173    0.540
       285  -9.9733    215.0520     21.3462   4.3880167271e+01   2.8790474123e+01     0.472203    0.1952106  66.07  0.001163825    2.256    0.557
       286  -9.0474     22.8756     41.2643   1.0196538128e+02   6.5662540535e+01    0.1953007    0.1437515 -58.40 0.0008119019    1.381    0.276
       287  -8.6932    112.4932     41.5172   6.8790814321e+01   5.1754813188e+01    0.1428337    0.1354295  12.81 0.0008101229    1.037    0.036
       288  -9.3641    191.2683     39.9145   5.1985674404e+01   3.2426650622e+01    0.3229963    0.2045352  40.75  0.000787938    1.840    0.457
       289  -8.5656     80.3171    176.3361   1.1140883109e+02   2.8261905122e+01     0.126157    0.1033979 -32.69 0.0004582843    1.698    0.411
       290  -9.2124    202.7895     37.8605   4.9768666184e+01   2.9777195900e+01     0.305762    0.1738556  54.36 0.0007523535    1.768    0.435
       291  -8.5643    110.4105     38.2719   6.8143393593e+01   5.2699604581e+01    0.1826899    0.1322436 -38.74 0.0005212941    1.453    0.312
       292 -10.4003    198.6228     34.2857   4.9343217743e+01   3.1298101597e+01    0.5112406    0.2216298 -25.79  0.001979131    2.568    0.611
       293  -9.7064    182.4901     34.0940   5.1613300985e+01   3.5451161285e+01    0.6804143    0.1806484  56.44  0.002198769    3.209    0.688
       294  -9.7745    134.9722     34.1786   6.0475938436e+01   4.7536800087e+01    0.3501641    0.2377833  27.59   0.00104593    1.673    0.402
       295  -8.9088    138.4810     31.0313   5.8591661782e+01   4.7084029327e+01    0.2384691     0.192398  32.53 0.0006583238    1.251    0.200
       296  -8.8959      3.6204     34.1104   1.0856967044e+02   6.8313587891e+01    0.3309895     0.103713 -33.71  0.001446871    3.212    0.689
       297 -10.3380    245.2746     33.2400   4.3721850537e+01   2.0212532303e+01    0.4878449    0.2409122  71.98  0.002302116    2.111    0.526
       298  -9.7023    234.5346     33.5076   4.4864452179e+01   2.2632616278e+01    0.2634855    0.1961585  66.33 0.0009025446    1.385    0.278
       299  -8.5018     65.4561    173.4673   1.1444693195e+02   3.0975779017e+01    0.1299599    0.1110161  83.78 0.0001400094    1.020    0.020
       300  -9.7036    227.9885     31.2477   4.5000319357e+01   2.4458986077e+01    0.2990833    0.2061446  88.28 0.0006193665    1.477    0.323
       301 -10.1264    227.0532     27.4529   4.4156628160e+01   2.5155807612e+01    0.3888783    0.2706197  42.69   0.00178888    1.798    0.444
       302  -8.5199    246.6285    171.3174   7.5319237574e+01  -1.0773563141e+00    0.1209639    0.1069033 -72.83 0.0007034079    1.792    0.442
       303 -10.2683    170.6211     30.1197   5.2280016069e+01   3.9019338227e+01    0.8469425    0.3394499  70.54  0.002992132    2.794    0.642
       304  -9.4974     18.9028    165.6369   1.2411098591e+02   3.7907904199e+01    0.2019904    0.1377434 -72.92  0.001300822    1.281    0.219
       305 -10.9661    178.8929     26.7184   4.9952866762e+01   3.7298518011e+01    0.5628877    0.3542209  58.76  0.002709579    1.486    0.327
       306  -9.5397      1.7562    178.5991   1.2858288497e+02   3.6556435125e+01    0.2115295   0.09819658  79.13  0.001190786    1.849    0.459
       307 -10.3500      2.3002    159.5930   1.2726010245e+02   4.0606169168e+01     0.395013    0.1581792  89.17  0.001543719    2.235    0.553
       308 -10.4667    176.8351     15.0185   4.6732014763e+01   3.9151185454e+01    0.6312381    0.2012966  71.66  0.002108946    3.262    0.693
       309  -8.9642     22.3282    159.3036   1.2280185165e+02   3.9017033279e+01    0.1141628   0.08160951 -51.39   0.00027239    1.648    0.393
       310  -8.9538     28.8378    158.2032   1.2120545508e+02   3.8656462248e+01    0.1800403      0.13453  78.37 0.0003714276    1.153    0.133
       311 -10.8864     14.1616    151.3958   1.2397056841e+02   4.1510654069e+01    0.3463961    0.2379847  86.10  0.001375114    1.189    0.159
       312 -10.0802     30.6218    151.4077   1.2009035121e+02   4.0044201863e+01    0.2489946     0.168412 -68.28 0.0007448094    1.290    0.225
       313 -11.8297     56.5629     37.7684   8.6258924095e+01   6.2621303030e+01    0.4455606    0.3194124   8.22  0.001119568    1.472    0.320
       314  -9.2542    203.3066     29.0305   4.7282604361e+01   3.0780702086e+01    0.2424861    0.1728372 -14.12  0.001111774    1.721    0.419
       315  -9.9282    204.6611     24.1186   4.5784984236e+01   3.1037644831e+01    0.4597179    0.1822237 -31.58  0.001849107    2.446    0.591
       316  -9.4541    146.2576     29.4391   5.6437666335e+01   4.5341606789e+01    0.4469962    0.2400903  69.50  0.001864029    2.040    0.510
       317  -9.5369    185.5335     24.4337   4.8325302208e+01   3.5860384937e+01    0.4591607    0.1704285 -42.10  0.001395844    2.665    0.625
       318  -8.3969    187.8278     20.2238   4.6797063137e+01   3.5758581790e+01    0.3992752    0.3095906  79.83  0.002173686    1.220    0.180
       319  -8.6793      7.8595    151.7136   1.2544238391e+02   4.1935941236e+01    0.1516226    0.1328887 -56.95 0.0004392943    1.401    0.286
       320  -9.2532    159.5983     24.8009   5.2428654567e+01   4.2502677773e+01    0.3225654    0.2918201  57.03  0.001840832    1.044    0.042
       321  -9.8436     18.3078    147.9364   1.2268277555e+02   4.1955117284e+01    0.2682844      0.14734  73.95 0.0006845549    1.807    0.447
       322 -10.5519     30.4471    143.1107   1.1921893642e+02   4.1989491087e+01    0.4388963    0.2729786 -42.79  0.002415912    2.014    0.504
       323  -9.9886    129.0675     23.5078   5.7915021252e+01   5.0312008220e+01    0.2625535    0.2026776  37.40 0.0004395109    1.241    0.194
       324  -9.5611     47.5869    139.2623   1.1434453142e+02   4.1133936078e+01    0.2900576    0.1903494 -83.94  0.001576352    1.436    0.304
       325  -9.2344    153.6287     24.4085   5.3344871427e+01   4.4077233941e+01    0.3536361    0.2358382 -60.43  0.001658861    1.829    0.453
       326  -9.9650    147.3718     24.0103   5.4360772140e+01   4.5713570357e+01    0.2770086    0.2439187  56.52  0.001026739    1.055    0.052
       327  -8.2241    250.3111     25.6631   4.1512838524e+01   2.0041055293e+01    0.1413097   0.07996604 -60.05  0.000704483    1.685    0.407
       328  -9.5480     96.8207     22.1607   6.5580899990e+01   5.7811710784e+01    0.4086484    0.1855193  45.97  0.001789168    2.024    0.506
       329  -9.3725     81.6250     20.3176   6.9513917802e+01   6.1094708616e+01    0.3741699    0.3444523 -76.29  0.002322797    1.561    0.359
       330 -10.5650     46.5951    144.2608   1.1528212725e+02   4.0058516295e+01    0.3592325    0.2638392 -15.58  0.001962594    2.159    0.537
       331 -10.5081     40.9745    146.9348   1.1704250220e+02   4.0038899314e+01    0.4500878    0.2642023  41.00   0.00246913    1.791    0.442
       332 -10.0135    245.6411     18.8784   4.0369388262e+01   2.1894308260e+01    0.3454202    0.1773424  73.44   0.00165127    1.940    0.484
       333 -10.3395     38.3084    143.0960   1.1723914762e+02   4.1219358594e+01    0.2847611    0.2345341  23.40 0.0005321919    1.554    0.356
       334 -10.1164      5.1868    147.1899   1.2569132001e+02   4.3150604942e+01    0.2242649    0.1707525  46.35  0.001284165    1.464    0.317
       335 -10.5015      6.0565    142.8614   1.2513124975e+02   4.4064653675e+01    0.2927116    0.1936641 -73.14 0.0005297189    1.222    0.181
       336  -9.6028     23.0558    146.7366   1.2142673436e+02   4.1821880867e+01    0.1695078    0.1416384  87.60 0.0009326456    1.076    0.070
       337  -8.8927    198.6698     15.9662   4.4271866761e+01   3.3478109116e+01    0.2381255    0.1732812  45.44  0.001262957    1.536    0.349
       338  -9.4701    125.9510     15.1342   5.5461907298e+01   5.1991948423e+01    0.2083273     0.179071  40.44 0.0002873072    1.059    0.056
       339  -9.8483     15.2954    143.2013   1.2295358260e+02   4.3287481818e+01    0.2349998    0.1580111 -86.18 0.0004443397    1.195    0.163
       340  -8.7255     10.6539    144.7061   1.2420292524e+02   4.3306065661e+01    0.1145338   0.07680617 -51.20 0.0003400711    1.667    0.400
       341  -8.9377     67.8522     13.2930   7.1093149463e+01   6.4490359193e+01    0.2006933    0.1410508  41.27 0.0006165951    1.432    0.302
       342  -8.9138     70.5288    142.5216   1.0882407871e+02   3.7493711689e+01    0.2362079    0.1128014  47.35  0.001023934    2.187    0.543
       343  -8.2637     80.3601    141.2521   1.0602320781e+02   3.6386895691e+01    0.1320098    0.1096716 -19.34 0.0004042964    1.613    0.380
       344  -8.9782     84.9769     11.2471   6.4377372522e+01   6.1511703699e+01    0.2343887    0.1141072  48.95  0.001109979    1.900    0.474
       345 -11.8553     34.3326    111.3930   1.1385047968e+02   4.9136191980e+01     2.178515     1.147936 -49.23   0.01109761    1.784    0.439
       346 -11.3528     16.6244     84.8037   1.1495157724e+02   5.6743293803e+01    0.6829702    0.2214286 -51.27  0.001857569    2.366    0.577
       347 -11.1256     19.2919     71.6361   1.1145154483e+02   5.9531634292e+01    0.4458476    0.3402006 -75.71  0.001614011    1.312    0.238
       348 -11.1972     24.9300     82.1372   1.1161207677e+02   5.6759283283e+01    0.7454003    0.5198877  61.16  0.003153725    1.861    0.463
       349 -10.2481     29.4460     76.2741   1.0877608141e+02   5.7726448205e+01    0.2966534     0.241883 -72.92 0.0004448491    1.231    0.188
       350 -11.5107     31.3040     71.0584   1.0688345176e+02   5.8732548901e+01     0.477777    0.2909929 -18.54  0.001026358    2.069    0.517
       351 -12.6601     41.2701    123.6690   1.1377544686e+02   4.5534168474e+01     1.302714    0.7946686 -55.45  0.007061418    1.473    0.321
       352 -11.7063     13.9188    132.1124   1.2219001005e+02   4.5951061062e+01    0.8240111    0.5589976  -3.36  0.003995921    2.307    0.567
       353 -12.6005     11.9432    126.1424   1.2206945692e+02   4.7478930217e+01     0.365567    0.2815025 -87.65 0.0003869258    1.085    0.078
       354  -9.1880     27.6591    138.3289   1.1937219183e+02   4.3366072776e+01    0.2740611    0.1448305 -81.50  0.001027932    1.687    0.407
       355 -10.1327     24.1550    137.1771   1.2013205939e+02   4.3945585681e+01      0.40853     0.277006   4.86  0.002363333    2.267    0.559
       356  -9.4685     55.4926    136.5111   1.1185138917e+02   4.0873437111e+01    0.2374395    0.1901985 -57.95 0.0006769961    1.214    0.176
       357 -10.7371     52.3142    132.7738   1.1213071886e+02   4.2145178102e+01    0.4288517    0.2410258  31.67  0.002148559    2.035    0.509
       358  -8.8905    236.7438    135.7583   6.9325411300e+01   6.3009431212e+00    0.2081742    0.1205536  60.65 0.0008934049    2.424    0.587
       359  -8.5871     31.7123    134.5552   1.1787232715e+02   4.3880456744e+01    0.1559204    0.1109125  51.37 0.0004065347    1.489    0.329
       360 -11.3724     30.3697    119.9416   1.1628800631e+02   4.7464112399e+01    0.6489238    0.4013993  46.43  0.001156506    1.795    0.443
       361 -10.1997     62.5376    108.3172   1.0477147850e+02   4.6769431813e+01     0.418945    0.2718256 -30.17  0.001258248    1.979    0.495
