#   1 NUMBER                 Running object number                                     
#   2 MAG_AUTO               Kron-like elliptical aperture magnitude                    [mag]
#   3 X_IMAGE                Object position along x                                    [pixel]
#   4 Y_IMAGE                Object position along y                                    [pixel]
#   5 X_WORLD                Barycenter position along world x axis                     [deg]
#   6 Y_WORLD                Barycenter position along world y axis                     [deg]
#   7 A_WORLD                Profile RMS along major axis (world units)                 [deg]
#   8 B_WORLD                Profile RMS along minor axis (world units)                 [deg]
#   9 THETA_WORLD            Position angle (CCW/world-x)                               [deg]
#  10 FWHM_WORLD             FWHM assuming a gaussian core                              [deg]
#  11 ELONGATION             A_IMAGE/B_IMAGE                                           
#  12 ELLIPTICITY            1 - B_IMAGE/A_IMAGE                                       
         1 -14.2193    166.7940     46.1673   7.1191038706e+01   3.7770477837e+01      1.48979     1.156895  -3.12  0.004011538    1.408    0.290
         2 -14.2379    182.3132     13.9538   5.8100479482e+01   3.7528017744e+01     1.534361     1.293138 -73.38  0.006038277    1.256    0.204
         3 -10.4733     83.0043      2.0000   7.3984227477e+01   6.3689748465e+01    0.2222721   0.07251178  54.57 0.0008064867    2.971    0.663
         4 -10.4891     13.9643    240.4448   1.4113323751e+02   2.4782434379e+01    0.2271354   0.07587198  88.89  0.001302413    3.082    0.676
         5 -19.8514     65.1682    166.9269   1.2640451120e+02   3.2917288384e+01     16.38462     4.993987 -68.34   0.06497904    3.417    0.707
         6 -12.2579    106.1053    203.2930   1.2149686411e+02   2.0428780519e+01    0.5729833    0.3167674  54.60  0.001975547    1.781    0.439
         7 -10.9059    105.4945    198.4613   1.2106458502e+02   2.1367147108e+01    0.2680985    0.2085989 -76.16  0.001065845    1.483    0.326
         8 -11.4075    102.4616    194.9616   1.2129282239e+02   2.2433247970e+01    0.2857502    0.2131517  63.71  0.001020235    1.336    0.251
         9 -11.5428     11.6682    205.8609   1.4027570898e+02   3.0759306767e+01    0.2550488    0.1765817  38.16  0.001134895    1.459    0.315
        10  -9.4552     22.3379    205.3057   1.3829477947e+02   2.9921903003e+01   0.08844366   0.07778661 -47.49 0.0007040831    1.675    0.403
        11 -10.5654    150.3410    195.7168   1.1130593004e+02   1.4861822256e+01    0.3141831    0.2465815  53.19  0.001925705    1.341    0.254
        12  -9.4061    120.7587    196.8552   1.1765299672e+02   1.9378704321e+01    0.1606286    0.1194741  52.58 0.0004928753    1.247    0.198
        13  -9.4052    112.9375    196.0397   1.1920103898e+02   2.0704139837e+01    0.3806367     0.257405 -14.53  0.001914917    2.730    0.634
        14  -9.8958    111.5173    191.7783   1.1896453171e+02   2.1680302193e+01    0.4499764    0.2006901  51.54  0.001570332    2.323    0.570
        15 -11.7896    159.8882    194.8681   1.0921151559e+02   1.3416883046e+01    0.3396623    0.2106598  52.18  0.001271905    1.779    0.438
        16 -10.8043    169.4663    193.9791   1.0712166972e+02   1.1950192628e+01    0.1758145    0.1281798 -37.70  0.001033902    1.600    0.375
        17 -11.7194    173.6979    184.9831   1.0475903335e+02   1.2613681516e+01     0.269782    0.2122066  41.98  0.001276087    1.230    0.187
        18 -10.4114     36.3210    186.3759   1.3446956707e+02   3.2141163371e+01    0.2079244     0.176901  10.37 0.0007516374    1.651    0.394
        19 -11.7838    153.7294    184.8472   1.0889623010e+02   1.6079692121e+01    0.3140665    0.2552218 -69.87  0.001458803    1.688    0.407
        20  -9.3978    238.3425    185.3210   9.2594851717e+01   1.6761632547e+00    0.1347665   0.07863237  11.06 0.0004786254    1.724    0.420
        21  -9.9567    107.6091    183.7146   1.1876675463e+02   2.3756515925e+01    0.3003781    0.1509549  36.34 0.0009657126    1.796    0.443
        22 -12.5238    148.9072    179.6674   1.0907821116e+02   1.7786873316e+01     0.491349    0.3594031  69.19  0.001528583    1.924    0.480
        23 -13.0814    142.1007    170.5124   1.0903347324e+02   2.0593668319e+01    0.7679675      0.47893  62.32  0.002280661    2.260    0.557
        24 -11.7991    189.2030    178.5363   1.0047213035e+02   1.0880735878e+01    0.4512942    0.3201225  43.67  0.001293173    1.401    0.286
        25 -10.7288    188.3902    174.1855   9.9824634971e+01   1.1685117296e+01    0.2839825    0.2631349 -65.83  0.001199407    1.537    0.349
        26 -10.2824    185.5024    169.0052   9.9423560006e+01   1.3012693268e+01    0.3158046    0.2487706 -48.14 0.0009661963    1.618    0.382
        27 -11.4453      5.8685    177.3897   1.4017887904e+02   3.6542058899e+01    0.2938527    0.1511474  54.47  0.001445238    1.593    0.372
        28 -11.4132    164.7427    187.3389   1.0699989866e+02   1.3787768909e+01    0.2372869    0.2130613  45.80 0.0005303212    1.220    0.180
        29 -10.3957    225.3317    176.4556   9.3206511381e+01   4.9034651884e+00    0.1919708    0.1561847 -42.10  0.001049716    1.724    0.420
        30 -10.2688    160.1889    236.4223   1.1489402853e+02   7.4219431266e+00    0.1699068    0.1567396   7.83 0.0005534993    1.281    0.219
        31  -9.9760    203.1824    173.6316   9.6798840965e+01   9.1250650657e+00    0.2675191    0.1505992 -49.33  0.001210084    2.730    0.634
        32 -10.4602    195.3077    172.8168   9.8183237624e+01   1.0649953104e+01    0.2884309    0.2317757 -23.24  0.001025386    1.308    0.236
        33  -9.6193     11.6117    174.1172   1.3885052679e+02   3.6743521064e+01     0.132922   0.08132254 -69.05 0.0003804092    1.614    0.380
        34 -10.0228    207.7641    171.5649   9.5517916402e+01   8.6087831001e+00     0.337252    0.1925609 -48.99  0.001369554    2.705    0.630
        35 -11.4856    125.1886    172.1008   1.1312149603e+02   2.3177637857e+01    0.2481839    0.1843109  50.36 0.0005754664    1.281    0.219
        36 -10.7847    140.4155    163.2647   1.0814436790e+02   2.2230819472e+01    0.2675978    0.2130477  59.84 0.0002271568    1.403    0.287
        37 -11.7124    130.9789    160.9580   1.0992159908e+02   2.4331470068e+01    0.5993342    0.1952755  35.14  0.002042233    3.210    0.688
        38 -11.1076    188.8998    154.5264   9.5819497862e+01   1.4688463549e+01    0.4801406    0.3819644  42.99  0.002657481    1.284    0.221
        39  -9.3924    134.8377    236.5429   1.1958083206e+02   1.1081295320e+01    0.1505439   0.08201961  46.70 0.0008936308    1.524    0.344
        40  -8.9912      6.3391    155.2807   1.3898607023e+02   4.0965864050e+01    0.1004447   0.07553406 -52.01 0.0007008561    1.624    0.384
        41 -10.7981    164.5616    152.6078   1.0063128269e+02   1.9706278154e+01    0.3023245    0.2493129  48.02  0.001012394    1.259    0.206
        42  -9.6551    174.8615    149.1262   9.7646949982e+01   1.8318251695e+01    0.2070637    0.1945237  54.28  0.000480525    1.259    0.206
        43 -11.1672     28.1960    234.6907   1.3858505645e+02   2.4372436674e+01    0.1439521    0.1024267  81.81 0.0005468728    1.283    0.221
        44 -10.4279    108.3595    249.5702   1.2562641247e+02   1.2882430714e+01    0.1033047   0.09092754  48.18 0.0001882524    1.206    0.171
        45 -12.2282      5.7936    138.8357   1.3814749604e+02   4.4491521471e+01    0.4736952    0.2956826  76.62  0.002206677    1.371    0.271
        46  -9.8271      1.4902    140.0015   1.3924860501e+02   4.4511045887e+01    0.1633316   0.08823731 -81.14 0.0003908593    1.500    0.333
        47 -12.4752     11.6612    137.6371   1.3663294161e+02   4.4360869979e+01    0.4616244    0.2466164  44.20  0.002485375    1.817    0.450
        48 -12.3439      2.7542    126.7401   1.3811799293e+02   4.7317565044e+01    0.7584073    0.2229444 -80.78  0.003340159    2.832    0.647
        49 -12.5997      7.2847    120.4174   1.3647279306e+02   4.8457054624e+01    0.3843685    0.2690521 -85.76  0.001446981    1.156    0.135
        50 -11.1273    160.5629    127.6473   9.6066404199e+01   2.5099462819e+01    0.4166309     0.307331 -61.28  0.001579978    1.814    0.449
        51  -9.4752    151.3483    238.6606   1.1677951688e+02   8.4190411382e+00    0.1970979    0.1106588  25.88  0.001080111    1.759    0.432
        52 -11.7399      2.9947    112.2322   1.3700313360e+02   5.0538331986e+01    0.3738127     0.131265 -71.33  0.001771525    2.166    0.538
        53 -10.1015    231.2284    113.7670   7.8538567294e+01   1.2519055762e+01    0.2476326     0.211044  19.12 0.0007620127    1.117    0.105
        54  -9.8746    167.9847    113.0054   9.0757203829e+01   2.6242116371e+01    0.3526013    0.2594248 -83.44  0.001470618    2.408    0.585
        55 -13.0616    117.8432    109.7117   1.0262940681e+02   3.7354800714e+01    0.7266635    0.4581451  66.59  0.002887869    2.515    0.602
        56 -10.5389    125.2689    237.3184   1.2142998155e+02   1.2323196964e+01    0.1487952    0.1329165 -78.14  0.000588986    1.438    0.305
        57 -11.7960     23.2279    218.8844   1.3875719575e+02   2.7459513792e+01    0.2313324    0.1322457 -69.01    0.0016433    1.929    0.482
        58 -10.3118    218.3514    220.3828   1.0211774090e+02   6.8059013391e-01    0.2398474    0.1038582 -38.18  0.001229976    2.932    0.659
        59  -9.8716    205.5291    110.1734   8.2215696904e+01   1.8455453522e+01    0.2621278    0.2018519  40.62  0.000602195    1.287    0.223
        60 -10.5469      8.4618    102.1494   1.3453607159e+02   5.2538405234e+01    0.2654372    0.2051659  87.59  0.001059845    1.140    0.123
        61 -10.5501     18.2658    221.2457   1.3972331279e+02   2.7512650749e+01    0.1118207    0.0702356  84.26 0.0004787183    1.391    0.281
        62  -9.8497    119.4829    212.4295   1.1983064018e+02   1.6948187358e+01    0.1210898   0.09662294  44.24 7.750878e-05    1.018    0.018
        63  -9.3702    142.9608    208.4911   1.1462600404e+02   1.4015569340e+01    0.1892022    0.1000617  41.00  0.001002238    1.538    0.350
        64 -13.4770    154.8246     60.2794   7.8395040426e+01   3.8683998117e+01     1.161575    0.9923682  16.36  0.002398201    1.196    0.164
        65 -10.5365    163.7480    248.4376   1.1567699159e+02   5.4101084893e+00    0.1658809     0.154907 -13.19  0.001102157    1.403    0.287
        66 -12.3373    171.4987     37.9680   6.7599818178e+01   3.7650118724e+01    0.4296605    0.4163495   2.82 0.0008497136    1.034    0.033
        67  -9.9040     13.6031     60.0161   1.2698014885e+02   6.2007329632e+01    0.1736675    0.1612638 -89.41 0.0004740125    1.220    0.180
        68 -10.1840    113.3261    207.7585   1.2053072867e+02   1.8620933369e+01    0.1806716     0.143871  58.71 0.0006168799    1.200    0.167
        69 -10.2148    135.2270    240.7070   1.1995447050e+02   1.0451238161e+01     0.172591    0.1086725  30.37   0.00077264    1.395    0.283
