#   1 NUMBER                 Running object number                                     
#   2 MAG_AUTO               Kron-like elliptical aperture magnitude                    [mag]
#   3 X_IMAGE                Object position along x                                    [pixel]
#   4 Y_IMAGE                Object position along y                                    [pixel]
#   5 X_WORLD                Barycenter position along world x axis                     [deg]
#   6 Y_WORLD                Barycenter position along world y axis                     [deg]
#   7 A_WORLD                Profile RMS along major axis (world units)                 [deg]
#   8 B_WORLD                Profile RMS along minor axis (world units)                 [deg]
#   9 THETA_WORLD            Position angle (CCW/world-x)                               [deg]
#  10 FWHM_WORLD             FWHM assuming a gaussian core                              [deg]
#  11 ELONGATION             A_IMAGE/B_IMAGE                                           
#  12 ELLIPTICITY            1 - B_IMAGE/A_IMAGE                                       
         1 -15.7616    134.8158     36.7764   6.2948974924e+01   4.7160077270e+01     12.66181     9.005196  77.57   0.05964394    1.734    0.423
         2 -13.6848    210.7787     12.9289   4.3471263930e+01   3.0552201438e+01     2.088829     1.281326 -77.49   0.01020517    1.719    0.418
         3 -17.0590    238.1376     90.2936   6.0042182086e+01   1.3048511262e+01     4.972836     3.424982  81.41   0.02358289    1.956    0.489
         4 -16.5122    222.8461     48.7452   5.1543859406e+01   2.3007860695e+01     2.929686     1.648717 -24.87   0.01289963    1.946    0.486
         5 -17.4943    244.6379     49.7603   4.9183262041e+01   1.7718422987e+01      4.54798     2.521761 -20.45   0.02010641    2.213    0.548
         6 -16.6518    236.9411     26.8253   4.4385087984e+01   2.2544210164e+01     2.220676     1.367761 -35.14   0.01147999    1.525    0.344
         7 -16.0101    218.6806     68.5646   5.7361785357e+01   2.1047311285e+01     5.592173    0.8425266 -43.03   0.01258405    6.348    0.842
         8  -8.2576    163.8052     19.0247   5.1281149672e+01   4.1993361726e+01    0.4656296    0.1761983 -41.87  0.001716178    2.782    0.641
         9 -10.0013    174.2949     17.7584   4.9299203684e+01   3.9401050018e+01    0.3014102    0.2178829  -1.47  0.001500491    1.733    0.423
        10 -10.3000    199.2818     13.6260   4.4899437028e+01   3.3385032891e+01    0.3718675    0.1722065 -33.14  0.001620081    2.098    0.523
        11  -9.6198    166.8268     14.4346   4.9338950485e+01   4.1703590868e+01    0.3902238    0.2265242 -26.74  0.001823062    1.827    0.453
        12  -9.1196    171.2349      9.2519   4.7078012644e+01   4.1086993909e+01    0.2069916    0.1768623  17.58 0.0005898511    1.353    0.261
        13  -9.1737    179.0029      6.7195   4.5298764872e+01   3.9321593612e+01    0.2841949    0.1791233 -27.65  0.001419709    1.693    0.409
        14  -9.0602    166.0812      5.8615   4.6710742934e+01   4.2749236192e+01    0.2491012    0.1976921 -12.61  0.000844248    1.440    0.305
        15  -9.2273    184.5952      4.5794   4.3998367638e+01   3.8084279217e+01    0.1591738     0.140419 -49.93 0.0009371461    1.167    0.143
        16  -9.0684    160.0549      3.5233   4.6791628967e+01   4.4518840097e+01    0.3525602    0.1914096 -25.91 0.0009025845    1.970    0.492
        17 -10.2171    243.2790      3.8630   3.8396504851e+01   2.3732593722e+01    0.2058175    0.1339129 -84.98 0.0006519628    1.437    0.304
        18  -9.4402    194.5326      3.1642   4.2503647537e+01   3.5673159608e+01    0.1612647    0.1490045 -45.30 0.0002954289    1.160    0.138
        19  -9.1730    220.6188      2.1130   3.9768877964e+01   2.9267178947e+01    0.1733705    0.1198742 -34.24 0.0009596267    1.463    0.316
        20  -9.2431    215.4372      1.8988   4.0161879760e+01   3.0555728254e+01    0.1302675   0.06407304  63.21 8.476774e-07    1.914    0.477
        21  -8.0698    180.8869      1.4190   4.3497173714e+01   3.9335600430e+01    0.1635771    0.1102313  54.56 0.0007575775    1.434    0.303
        22  -9.3553    175.0921      1.4008   4.4171691499e+01   4.0830566186e+01    0.1960395    0.1209896  72.71 0.0005175655    1.464    0.317
        23  -9.2230    191.1688    141.2311   8.0946752302e+01   1.4511196234e+01    0.2897629    0.2555462  76.51 0.0004557616    1.347    0.258
        24  -9.1392    195.9665    140.6382   7.9835652142e+01   1.3582252732e+01    0.4233805    0.3675329  86.63  0.002190653    1.449    0.310
        25  -9.8214    196.7993    136.0205   7.8586309169e+01   1.4262125615e+01    0.6898707    0.3892805  65.08  0.002194133    2.745    0.636
        26  -9.5535    242.1086    162.2822   7.6073402646e+01   6.9638273889e-01    0.5434399    0.2547674  33.85  0.002353091    2.338    0.572
        27  -9.9182     59.6232    150.4929   1.1393252343e+02   3.6971948730e+01    0.3895828    0.2078328  70.70  0.001739616    2.364    0.577
        28  -7.9268    205.0824    148.8749   7.9912728010e+01   1.0142612586e+01    0.2021091    0.1916825  67.26 0.0003660645    1.218    0.179
        29  -8.3106    142.9180    145.7172   9.2619581381e+01   2.3935014921e+01    0.3850375    0.1926094 -32.73  0.001333055    2.998    0.666
        30  -8.4506    104.1816    146.1689   1.0213492723e+02   3.1244457207e+01    0.2455234    0.2273917 -78.17 0.0006944892    1.044    0.042
        31  -9.2214     69.0436    146.5121   1.1101551203e+02   3.6657685410e+01     0.259623     0.181206  59.84 0.0006816363    1.451    0.311
        32  -9.7756     65.4083    144.7619   1.1166109984e+02   3.7562889792e+01    0.3501216    0.1902823 -61.75  0.001709259    1.647    0.393
        33  -8.6565    216.3341    143.8970   7.6641356784e+01   8.6787611283e+00    0.3863949    0.2312912 -23.77  0.001653614    1.846    0.458
        34  -7.8378    212.6017    145.2401   7.7647617799e+01   9.2188294921e+00    0.3015996    0.2097747 -41.19  0.001071621    1.452    0.311
        35  -8.9408    206.8047    142.7963   7.8197604915e+01   1.0866739318e+01    0.4190635    0.2527911 -51.86  0.001802771    2.006    0.501
        36 -12.2954    212.5518    178.7575   8.4809381785e+01   3.5992823126e+00     0.962352    0.6976131  28.17  0.005243304    1.310    0.237
        37  -8.2034    151.2120    142.4355   8.9962772237e+01   2.2910519705e+01     0.285312    0.1774253 -38.10 0.0005910435    1.747    0.428
        38  -8.7744    159.0418    140.1136   8.7639015415e+01   2.1728450915e+01    0.3332534    0.2616519 -79.87  0.001222774    1.624    0.384
        39  -9.7769     56.4789    140.9260   1.1335010453e+02   3.9617177093e+01    0.3006765    0.2188409  64.53  0.001716546    1.387    0.279
        40  -7.6166    208.5882    136.5001   7.6392787014e+01   1.1614876048e+01    0.1955179    0.1386164 -46.76 0.0001217587    1.490    0.329
        41  -9.3851    206.1775    132.1056   7.5815048426e+01   1.2930218543e+01    0.3525411    0.2888018  -2.25  0.001789647    1.342    0.255
        42  -8.1255    182.7477    135.3383   8.1314910218e+01   1.7493434166e+01    0.3173304    0.2187584 -48.73 0.0006742257    1.525    0.344
        43  -9.0669    184.2382    131.3009   8.0033813979e+01   1.7949509672e+01    0.2726597    0.2532488 -76.22 0.0004665375    1.200    0.167
        44  -8.2115    213.7194    134.4474   7.4940900179e+01   1.0880644738e+01     0.264433    0.1349875  40.49 0.0009461991    2.066    0.516
        45  -8.8986    141.0334    133.6814   9.0385074826e+01   2.6949343248e+01    0.3284422    0.2410212  22.17   0.00125891    1.746    0.427
        46  -8.1346    172.4807    132.2460   8.2785595083e+01   2.0394056193e+01    0.2624513    0.2104839  49.38 0.0003465137    1.251    0.201
        47  -8.8718    176.6633    129.9473   8.1319376309e+01   1.9918302384e+01    0.3033027    0.2358757  69.12  0.001013008    1.536    0.349
        48  -8.7236    165.7993    127.4025   8.3094147760e+01   2.2880149205e+01     0.388531    0.2194934 -45.97 0.0009237637    1.788    0.441
        49  -8.0038     26.7121    127.0113   1.1914849950e+02   4.6060360869e+01    0.1740483    0.1304288 -78.55  0.000329089    1.067    0.063
        50  -8.9480    145.5821    125.8391   8.7427390348e+01   2.7689827904e+01    0.2973372    0.2472215  14.20 0.0009887033    1.460    0.315
        51 -10.2651    134.3531    121.6464   8.9167474989e+01   3.1017396095e+01    0.4745544    0.3478218  40.01  0.002215704    1.418    0.295
        52 -10.1271    215.9934    173.2555   8.3051469400e+01   3.8326376417e+00    0.5232926    0.2833978 -24.79  0.001816266    2.124    0.529
        53  -7.5718    170.2243    120.8766   8.0479212738e+01   2.3210702663e+01    0.2050837    0.1270376 -43.98 0.0003254168    1.608    0.378
        54  -8.8243    164.2044    117.5905   8.0991785785e+01   2.5266614837e+01    0.5758731    0.2480928 -48.77  0.001780497    2.503    0.600
        55  -8.9937    149.6747    111.3501   8.2763919919e+01   2.9896381407e+01    0.3272558    0.3011701 -82.30 0.0008315931    1.160    0.138
        56 -10.0462    150.5731    117.6625   8.4187846366e+01   2.8350129988e+01    0.4387608    0.3498789 -76.11 0.0007280723    1.518    0.341
        57 -15.8334    246.6026     75.3625   5.5196665173e+01   1.3521151867e+01      1.37755    0.7635962 -46.64   0.00636237    1.685    0.407
        58  -8.3504    144.2882    114.3529   8.4858516753e+01   3.0462889465e+01    0.1591436    0.1257354  -5.79 0.0007024718    1.670    0.401
        59  -8.4882    157.3042    108.0161   8.0066228962e+01   2.8842074406e+01    0.4814233    0.2314303  45.50  0.001774586    2.115    0.527
        60  -8.7693    155.4682    104.5093   7.9546992286e+01   2.9994804988e+01    0.3584441    0.2239626 -44.26   0.00133026    1.582    0.368
        61 -11.8849    199.8320    166.4680   8.4756535497e+01   8.1102328626e+00     2.052839     1.531951  28.34  0.005435331    1.331    0.249
        62  -7.7160     72.7433    103.4357   1.0184903334e+02   4.6391889704e+01     0.167351    0.1396628  12.09 0.0003368836    1.480    0.324
        63  -7.8215     44.0633     95.2595   1.0894556663e+02   5.1883780860e+01    0.1712082    0.1579981 -65.96 0.0004486857    1.102    0.092
        64 -10.3323    106.2552     86.5298   8.7339097821e+01   4.4540346072e+01    0.4802175    0.3094657 -59.47  0.001727415    1.773    0.436
        65  -9.7728    163.2975     86.7172   7.2717682070e+01   3.1665945651e+01     0.367905    0.2762197  51.69 0.0005874985    1.346    0.257
        66  -8.6081    213.8224    156.9116   8.0012507363e+01   6.9580572429e+00    0.2290193     0.198557  23.31 0.0008130091    1.104    0.094
        67  -8.1240    168.4904     79.0747   6.9340744618e+01   3.1809976921e+01    0.2573185    0.2448069 -30.06 0.0005860522    1.055    0.052
        68  -9.6433    167.9854     74.7162   6.8147077797e+01   3.2725533035e+01    0.2883304    0.2517571 -46.59 0.0002335236    1.142    0.124
        69  -7.5876     14.2703     76.3895   1.1506625974e+02   5.8719418129e+01     0.133874     0.112881  40.41 0.0005202367    1.490    0.329
        70 -10.4996    104.0759     72.7135   8.3727018741e+01   4.7860297838e+01     0.524434    0.3941339 -47.50  0.002318521    1.310    0.237
        71 -10.2823    239.5596    172.6476   7.8671325049e+01  -3.9494586726e-01    0.7425864    0.3233662  39.29  0.002213519    2.263    0.558
        72  -9.7590    178.9635    152.2254   8.5975923267e+01   1.5024520601e+01    0.6615511    0.4650822 -56.15  0.003102341    1.663    0.399
        73  -9.7359    207.3710    195.1682   8.8939722874e+01   1.9860324502e+00    0.3109525    0.1629398 -40.49  0.001043113    2.099    0.524
        74  -8.4692    208.7994    154.9198   8.0535136478e+01   8.3132295007e+00    0.2745686    0.2032758 -14.16 0.0006975007    1.481    0.325
        75 -15.4768    231.9748     70.4936   5.5950922626e+01   1.7583856677e+01     1.481112    0.8839129 -54.47  0.006677716    1.780    0.438
        76  -8.1815    210.5089    151.0678   7.9356163450e+01   8.6340810060e+00    0.4506623    0.1562977 -43.72  0.001534546    3.090    0.676
        77 -10.0924    170.1026     29.6043   5.3666200624e+01   3.9101843644e+01    0.2575834    0.2276233 -23.82 0.0004657586    1.207    0.172
        78  -9.5335    162.1822     25.9642   5.3812884571e+01   4.1612433506e+01    0.3328831    0.2346587 -54.85 0.0004835523    1.572    0.364
        79  -9.7244    167.2345     24.1513   5.2390588339e+01   4.0513553131e+01    0.2934014    0.2473967 -21.35 0.0007930239    1.283    0.220
        80 -12.7945    241.6561    189.5258   8.1666806266e+01  -3.1603295412e+00      2.04928     1.619182   6.95   0.01285332    1.102    0.092
        81  -9.4545    123.9937    205.9833   1.0729221953e+02   1.5133760447e+01    0.1851517    0.1571792  57.31  0.001155322    1.005    0.005
        82 -10.7844    248.9659    171.4268   7.6813448100e+01  -1.8573325305e+00    0.9339799    0.3334805 -40.51  0.003703328    2.998    0.666
        83 -11.2932    229.8818    170.1261   7.9860384236e+01   1.7321459474e+00     1.018612    0.5797072  26.14  0.004749116    1.977    0.494
        84  -8.1553    176.8394     13.4619   4.7621352445e+01   3.9200797597e+01    0.1585509    0.1213522  51.39 0.0003346474    1.295    0.228
        85  -8.1004    186.7998     12.5168   4.6055231319e+01   3.6715043387e+01    0.1706946     0.118905  54.69 0.0005969314    1.412    0.292
        86  -8.3210    221.1005    169.4675   8.1321572080e+01   3.4735000812e+00    0.2048414    0.1287456  41.23 0.0007660488    1.550    0.355
        87 -11.9300    229.0413    179.5447   8.1928352117e+01   4.5337374692e-01     1.427519    0.4705031  42.77  0.005478098    2.910    0.656
        88  -9.5968    215.2793    162.6031   8.0963107829e+01   5.7127782837e+00    0.2754058    0.2487926 -38.51  0.001188123    1.220    0.181
        89  -7.4029     50.0214    244.2582   1.2476982380e+02   1.8932084651e+01    0.1304137   0.07360455  47.34 0.0003586235    1.464    0.317
        90 -14.5773    244.0422    139.1366   7.0693318220e+01   3.9206152681e+00     3.186376     2.586931 -68.91   0.01725087    1.760    0.432
        91  -9.0771    196.0376    149.5753   8.1859991154e+01   1.1913252793e+01    0.9712808    0.3203625 -47.10  0.003019085    3.661    0.727
        92  -7.9322    187.4649    139.8763   8.1395204335e+01   1.5576084455e+01    0.2272889    0.2008014  42.00 0.0004945818    1.125    0.111
        93  -8.2597    200.2597    147.4352   8.0535785789e+01   1.1413522279e+01    0.2838396    0.2496054  -1.60 0.0007809667    1.154    0.133
        94  -8.5455    188.2632    127.2950   7.8220301985e+01   1.7820141951e+01    0.6996943    0.3371579 -53.22  0.002200082    2.733    0.634
        95  -9.1597    200.7387    142.9771   7.9424663400e+01   1.2124239671e+01    0.3132697     0.244704 -65.07  0.001178669    1.663    0.399
