#   1 NUMBER                 Running object number                                     
#   2 MAG_AUTO               Kron-like elliptical aperture magnitude                    [mag]
#   3 X_IMAGE                Object position along x                                    [pixel]
#   4 Y_IMAGE                Object position along y                                    [pixel]
#   5 X_WORLD                Barycenter position along world x axis                     [deg]
#   6 Y_WORLD                Barycenter position along world y axis                     [deg]
#   7 A_WORLD                Profile RMS along major axis (world units)                 [deg]
#   8 B_WORLD                Profile RMS along minor axis (world units)                 [deg]
#   9 THETA_WORLD            Position angle (CCW/world-x)                               [deg]
#  10 FWHM_WORLD             FWHM assuming a gaussian core                              [deg]
#  11 ELONGATION             A_IMAGE/B_IMAGE                                           
#  12 ELLIPTICITY            1 - B_IMAGE/A_IMAGE                                       
         1 -12.5218    198.0734     55.2384   2.9329042710e+01   2.8092679799e+01     2.188116     1.218634  60.70  0.006666991    1.823    0.451
         2 -13.4975    179.2476     85.4818   4.1760266609e+01   2.8035546324e+01     3.202778     1.395856 -27.24  0.009499973    2.709    0.631
         3 -14.5242    232.9929     99.7903   3.5760449811e+01   1.2802807272e+01     5.959629     1.455265 -42.18   0.01583679    4.929    0.797
         4 -11.5492    203.0258     26.7576   2.0043329601e+01   3.0540200109e+01     1.602298    0.9501791 -24.91  0.007207865    1.719    0.418
         5 -13.0003    248.6935     54.4272   2.1729733466e+01   1.5575939315e+01     1.682012    0.4713749 -24.92  0.003969195    3.902    0.744
         6 -15.3323    240.6449     78.8418   2.9171053399e+01   1.4110470030e+01     6.474817     3.856551  50.75   0.02980333    1.727    0.421
         7 -14.2449    237.7965     31.2239   1.6946456171e+01   2.1118427645e+01     3.318285     1.863212 -15.22   0.01436523    2.064    0.516
         8 -12.0671    204.8212     44.0866   2.4930790072e+01   2.7891869381e+01     2.131357     1.552213 -81.91  0.009179575    1.699    0.411
         9 -13.3569    219.1580     29.2756   1.8644412127e+01   2.6045056675e+01     3.075098     1.546513 -13.06   0.01199901    2.528    0.604
        10 -11.2763    132.9057     38.7545   3.7025474240e+01   4.6928761358e+01    0.9945405    0.2886864 -33.19   0.00319719    3.230    0.690
        11 -11.6197    139.9165     36.1888   3.4466694431e+01   4.5633216781e+01    0.8890017    0.3592683 -28.87  0.002081578    2.457    0.593
        12 -13.9500    234.9221     58.3603   2.4573701538e+01   1.8343874116e+01     6.351376     1.915769 -23.35   0.01840466    4.105    0.756
        13 -10.5073    134.8001     13.8231   2.7254476299e+01   4.9649771607e+01    0.6339091    0.2775573 -12.53  0.002358612    2.812    0.644
        14  -8.7182    210.5320     16.2616   1.5994014762e+01   2.9753155471e+01    0.2489384    0.1821564  72.49 0.0005538629    1.339    0.253
        15  -8.5957    188.9833     12.2542   1.7542749919e+01   3.5844710887e+01    0.2332648    0.1997372 -25.22 0.0004104499    1.219    0.179
        16  -8.9656    155.5056     14.0304   2.3338354105e+01   4.4445723943e+01    0.3026812    0.2130179  16.01 0.0009853891    1.576    0.365
        17  -9.9364    120.2221      9.2169   2.8618752590e+01   5.3584666681e+01    0.3559131     0.293956 -17.19 0.0009982847    1.216    0.178
        18  -9.1090    182.3927      3.1399   1.5552897497e+01   3.8466580950e+01     0.325539    0.2319492 -20.48  0.001663422    1.493    0.330
        19  -8.3586     42.3733      7.2214   5.2397348516e+01   6.7895866007e+01    0.1662745    0.0942577 -39.82 0.0009488914    1.672    0.402
        20  -8.0454    171.9612      2.3076   1.6697990304e+01   4.1290040637e+01    0.2008437     0.173232  70.29 0.0007546484    1.114    0.102
        21  -9.6441    191.2030    191.6035   6.3384402865e+01   7.5663397188e+00    0.5866409    0.3861422  85.45  0.002397431    3.944    0.746
        22  -8.4943      1.3962    191.0247   9.7947470313e+01   3.5058500339e+01    0.1318209    0.0703103 -85.98 7.932982e-05    1.428    0.300
        23 -10.0877    210.6381    188.2469   5.9286442316e+01   4.4125828244e+00    0.2989796    0.2258711 -57.79  0.001690721    1.978    0.494
        24  -9.2807    173.4111    188.2021   6.6099282430e+01   1.1394763136e+01    0.2391537    0.1881326  64.31 0.0003305255    1.405    0.288
        25  -8.2881    250.6907    186.1778   5.2035852963e+01  -2.5608893278e+00    0.1620784    0.1020986 -12.50  0.000245993    1.621    0.383
        26 -10.8063    212.8795    178.2672   5.7029942813e+01   5.3603821994e+00     0.668003    0.3854671 -18.90  0.003225028    2.183    0.542
        27 -13.7579    226.1613    173.5566   5.3753228368e+01   3.4719135411e+00     4.596948     3.233072 -18.54   0.02204531    1.491    0.329
        28  -9.1617    134.5002    248.7900   8.0862672314e+01   9.2017571425e+00    0.2226316    0.1259633  65.21 0.0008254053    1.928    0.481
        29 -12.2375    160.1801     95.1266   4.8570926707e+01   3.0852232621e+01     1.267041    0.7769182 -38.82   0.00135049    1.623    0.384
        30  -8.9614    146.3230    248.0447   7.8908669425e+01   7.4947153229e+00    0.1420139    0.1154354  56.55 0.0003353002    1.123    0.109
        31  -8.1006    174.4882    247.4309   7.4331858894e+01   3.1563570775e+00    0.1126368   0.08258936  43.81 0.0001503975    1.011    0.011
        32  -9.7100    206.8497    179.9977   5.8447307153e+01   6.2701923988e+00    0.3116032    0.2191824 -48.67 0.0004392844    1.834    0.455
        33  -9.0584    199.0042    178.0235   5.9514744682e+01   8.0652094684e+00    0.4381831    0.2684543 -39.21  0.002274957    1.844    0.458
        34  -9.8174    148.5343    174.9043   6.8669985623e+01   1.8241258640e+01      0.30697    0.1877797  56.18 0.0003426694    1.625    0.385
        35 -10.1003    113.1466    238.9137   8.3304882420e+01   1.3748204720e+01    0.1914517    0.1601405  87.34 0.0005010297    1.286    0.222
        36  -7.9234    154.3394    172.3026   6.7069289258e+01   1.7611784310e+01    0.1325222    0.1029242  15.13 0.0004590293    1.672    0.402
        37  -9.4191    249.5825    168.8962   4.8820514233e+01  -2.9516290438e-01    0.2715426    0.1680149  40.84  0.001232684    1.500    0.333
        38  -8.0914     92.1301    165.8264   7.8761249358e+01   2.9517558276e+01    0.1428596    0.1354991 -83.57 0.0002384461    1.214    0.177
        39  -7.7958    163.0661    163.9491   6.3807646240e+01   1.7393412298e+01    0.1617901    0.1482288  47.70   0.00050572    1.012    0.011
        40  -9.5277    222.2900    162.0285   5.2108551613e+01   5.8183713051e+00      0.28134    0.2434857  80.43  0.000576934    1.668    0.400
        41  -8.7538     33.0013    240.7722   9.5691010486e+01   2.3681489537e+01    0.1195625   0.06024259  48.05  0.000638981    1.628    0.386
        42  -9.6656    196.1876    159.1693   5.6348503745e+01   1.1517498463e+01    0.3229329    0.2601973  31.70  0.001015083    1.147    0.128
        43 -10.6189    192.1764    154.7923   5.6215362724e+01   1.3048851636e+01    0.5369272    0.4852309 -45.60  0.002573606    1.252    0.201
        44 -11.2830      2.4286    152.2140   9.5460116355e+01   4.2290868490e+01    0.6847589    0.2092599 -79.40  0.003120168    2.620    0.618
        45 -12.1962     13.8261    141.7227   9.2362291044e+01   4.3510342753e+01    0.8017128     0.428396 -84.12  0.005087002    1.498    0.332
        46 -10.0627    204.7375    152.8784   5.3408364044e+01   1.0748816077e+01    0.4331766    0.3562098  55.66  0.001658018    1.326    0.246
        47 -10.0847    133.8729    146.1132   6.6531466348e+01   2.6386420890e+01    0.9863311    0.2826729 -55.61  0.002793353    5.147    0.806
        48  -8.9152    173.0187    150.4751   5.9124555550e+01   1.7757555270e+01    0.2233673    0.1319279  45.89 0.0006583102    1.577    0.366
        49 -12.0949     63.2916    136.5124   8.0881471595e+01   3.9581687882e+01     2.086422      1.21266  60.06   0.01129075    1.872    0.466
        50 -12.1020     31.9832    141.6557   8.8516580936e+01   4.1923977498e+01      0.51166    0.3958135  42.88  0.001382274    1.503    0.335
        51 -12.5700     39.7359    139.0732   8.6536263047e+01   4.1699528263e+01    0.9864806    0.7115825  65.63  0.003482868    1.340    0.254
        52 -11.5422     46.7816    138.4782   8.4897193528e+01   4.1083607236e+01     0.542541    0.3366657 -78.62  0.002113465    1.402    0.287
        53 -10.2899    202.9303    142.3325   5.1448258816e+01   1.2810076929e+01    0.7234984    0.4019671 -61.16  0.002467723    3.985    0.749
        54  -9.5785    199.5758    144.2565   5.2519065606e+01   1.3214274501e+01    0.3491344    0.2105274 -43.65   0.00160796    1.834    0.455
        55  -9.9317    192.3017    143.8865   5.3851486147e+01   1.4828774547e+01    0.3517117    0.2535687  50.48 0.0005355691    1.367    0.268
        56  -9.3958    186.1644    144.6470   5.5232499759e+01   1.6009075963e+01    0.3458064    0.1724204  58.00  0.001332079    2.492    0.599
        57 -10.2035    141.4937    138.0184   6.3222384133e+01   2.6511233087e+01    0.4861568    0.2202061 -38.94  0.001242744    2.609    0.617
        58 -10.1493    211.0410    134.6278   4.8162931982e+01   1.2296853466e+01    0.7227906     0.258551 -27.87   0.00232196    3.605    0.723
        59  -8.6449    215.0555    134.3413   4.7352745091e+01   1.1471352415e+01    0.3360779    0.2199371 -58.03  0.001464312    2.308    0.567
        60  -9.9976    156.7221    137.2400   5.9725925598e+01   2.3570764466e+01    0.2851027    0.2470352 -74.19 0.0004324176    1.311    0.237
        61  -9.7960    172.4192    133.1411   5.5472291105e+01   2.1000618367e+01    0.2769336    0.2573777  88.35 0.0004277611    1.210    0.173
        62 -10.4372    159.9590    128.7728   5.7129728161e+01   2.4499727021e+01     0.498364    0.3733159 -24.36   0.00212303    1.556    0.357
        63  -9.9622    152.9648    128.5376   5.8609492742e+01   2.6027420693e+01    0.5761237    0.2701254 -51.70  0.001788862    2.441    0.590
        64  -9.7909    197.5464    129.6558   4.9574177745e+01   1.6079974863e+01    0.3987546    0.2209568  64.44  0.001513417    2.656    0.624
        65  -9.6776    135.9716    127.5888   6.2226132945e+01   2.9689043362e+01    0.5060457    0.1912224 -50.57  0.001809136    2.803    0.643
        66  -9.7022    202.2349    126.2516   4.7856449362e+01   1.5603958366e+01    0.3525166    0.2568115  72.98  0.001117886    1.902    0.474
        67 -10.2799    172.6473    124.2806   5.3353109729e+01   2.2575188031e+01    0.5289188    0.2481278 -49.89  0.001598776    2.548    0.608
        68  -9.1399     89.9385    123.6489   7.2371672953e+01   3.8666907812e+01     0.309729    0.2498172  84.56  0.001797958    1.297    0.229
        69  -8.8364    205.7903    122.4909   4.6269696106e+01   1.5427271761e+01    0.3804221    0.2101062 -47.23 0.0009932729    2.130    0.531
        70  -8.9037    178.0127    121.6003   5.1580063915e+01   2.1866116902e+01     0.313311    0.2001459 -52.74  0.001200201    1.851    0.460
        71 -11.7736    117.8256    108.1796   6.2092742638e+01   3.7212921533e+01     1.071518    0.8095526 -63.45  0.005133643    1.406    0.289
        72 -12.1098    134.8694    105.9305   5.7351602470e+01   3.4307079939e+01     1.579216     0.636595 -45.86  0.005771567    2.458    0.593
        73 -12.2190    125.0921    104.6312   5.9412340218e+01   3.6548767439e+01     1.868994     1.301093 -72.62  0.008499973    1.930    0.482
        74 -11.3527    144.3673     98.0453   5.3014082868e+01   3.3858379497e+01     1.168636    0.4526729 -38.41  0.001616467    2.660    0.624
        75  -8.3861     64.1962    229.0695   9.0283414602e+01   2.1919817787e+01    0.1402053    0.1116644  67.32 0.0003284236    1.174    0.149
        76 -10.3576    221.9241    113.4556   4.1087669992e+01   1.3226586808e+01    0.7286385     0.320617  49.98  0.002609969    2.245    0.555
        77  -8.9807    137.3313    226.8776   7.8036644159e+01   1.1794076829e+01    0.1992511     0.134284  44.88 0.0002844109    1.227    0.185
        78 -10.2358     65.5691    112.0338   7.6314732572e+01   4.4617442133e+01    0.1981935    0.1870201  64.44 0.0002138575    1.182    0.154
        79  -8.8965    215.2832    106.1447   4.0426700784e+01   1.5905964517e+01    0.4216012    0.2553027  57.70  0.001837075    1.807    0.446
        80 -10.2526    150.0255    105.6191   5.3695974843e+01   3.1136265022e+01    0.4291048    0.3234774 -35.46   0.00085923    1.351    0.260
        81  -8.6104    107.3521     99.5576   6.2653568045e+01   4.0953786017e+01    0.3213145    0.2199869 -67.09  0.001534145    1.713    0.416
        82  -8.5518     61.7811     96.2962   7.4250259573e+01   4.8539067324e+01    0.2262983    0.1477185 -67.96  0.000703971    1.446    0.308
        83  -9.7154    157.5163     84.0930   4.6041348626e+01   3.3517302598e+01    0.3820062    0.1498869 -37.29  0.001306847    2.517    0.603
        84 -10.1089    137.7416     81.4917   4.9938548770e+01   3.8518842327e+01    0.4995584    0.3572435  10.51  0.001454297    1.929    0.482
        85  -8.6280    141.9770     81.0045   4.8763443492e+01   3.7669077619e+01    0.2269757    0.2008092   2.88 0.0003350879    1.209    0.173
        86  -9.0512    136.7106     76.9811   4.8843546347e+01   3.9599286558e+01    0.2305559    0.2227273 -23.78 0.0003723606    1.020    0.019
        87  -8.4488     84.7451     78.9504   6.3505360638e+01   4.9083837273e+01    0.2017147    0.1605837 -46.86 0.0004250041    1.125    0.111
        88  -9.3441    164.8552     76.5636   4.2190145038e+01   3.3105494375e+01    0.2873999    0.2207161 -23.15   0.00042953    1.349    0.259
        89  -9.4373    131.8506     74.5909   4.9327710705e+01   4.1113993996e+01    0.2650555    0.2071932 -35.93  0.000540475    1.240    0.193
        90  -9.9165    141.2568     71.8592   4.6160718307e+01   3.9523264771e+01    0.4289168    0.1947735 -36.71  0.001315605    2.158    0.537
        91  -8.3635    151.2836     71.0596   4.3546107960e+01   3.7334148769e+01     0.221717    0.1900263 -33.48  0.000529232    1.151    0.131
        92  -8.3114    135.4339     71.4787   4.7468617101e+01   4.0904263821e+01    0.1518337    0.1416062  -5.69 0.0001775763    1.060    0.056
        93  -9.2552    126.7485     68.5733   4.8753143071e+01   4.3336758582e+01    0.2787242    0.2060042 -34.26 0.0007015019    1.307    0.235
        94  -8.9360    158.1047     66.5976   4.0614765875e+01   3.6465123161e+01    0.2670578    0.1999627 -41.05 0.0004817165    1.354    0.261
        95 -12.8978    247.6713     62.5964   2.3973488837e+01   1.4728594690e+01    0.7579823    0.6395365   7.97  0.002098716    1.287    0.223
        96  -9.8568    135.9422     63.6352   4.4845993538e+01   4.2201088675e+01    0.2900892    0.2114745 -41.38 0.0005315018    1.371    0.270
        97  -8.6414     50.4950    227.4957   9.2312855124e+01   2.3822985786e+01    0.1023576   0.07313554  69.91 -2.415833e-05    1.016    0.016
        98 -10.0057    104.3587     60.8362   5.2330943857e+01   4.9301217719e+01    0.3614903    0.2671777 -14.05 0.0009824189    1.536    0.349
        99  -9.0682    241.9966    226.4889   6.0482564766e+01  -5.4293895659e+00    0.1728894   0.08971494  40.11 0.0003662964    1.532    0.347
       100  -9.7000    144.4397     59.5309   4.1459433037e+01   4.0940642904e+01    0.2908889    0.2711094 -55.92 0.0006199304    1.178    0.151
       101  -9.6697    216.7097     57.3969   2.6955831478e+01   2.3005621377e+01    0.5183797     0.232704 -30.57  0.001254911    2.125    0.529
       102  -8.5641    216.3176     52.6925   2.5682788582e+01   2.3760953311e+01    0.2533457    0.2010572 -61.13 0.0007310768    1.397    0.284
       103  -8.2069     72.5972     58.2626   6.1146821369e+01   5.5101436258e+01    0.1859186    0.1099223 -38.37 0.0005176864    1.524    0.344
       104  -8.5613    211.4453     54.7537   2.7015411249e+01   2.4717878321e+01    0.2838008    0.1370283 -33.17  0.001113347    1.969    0.492
       105  -9.6699    179.0097     51.8721   3.1694892491e+01   3.3525425833e+01    0.5023472    0.3040731   8.35  0.001874274    2.560    0.609
       106 -13.7844    199.3849     90.0853   3.9094598176e+01   2.2318129537e+01     2.829104     2.120361  10.82   0.01308659    1.593    0.372
       107  -9.3846    182.1363     42.3817   2.8131501301e+01   3.4059153341e+01    0.5002702    0.2026882 -16.30  0.001510461    3.690    0.729
       108  -8.1575    102.2695     44.6663   4.7315120058e+01   5.2571282612e+01    0.1352247    0.1090803 -59.81 0.0002136031    1.590    0.371
       109  -8.1201     23.4896    222.5458   9.6137894518e+01   2.7575373414e+01    0.0972497   0.06810246  73.57 -0.0001391479    1.045    0.043
       110  -8.6633    224.2934    218.3599   6.2066966950e+01  -1.6986448154e+00    0.2790892    0.1635295  62.68  0.001078078    3.334    0.700
       111  -8.7847    154.5572     38.4899   3.2107615346e+01   4.1703230350e+01    0.2532405    0.1461614 -27.67 0.0005783823    1.739    0.425
       112  -8.9893    152.9842     35.0305   3.1233805915e+01   4.2572001523e+01    0.2237319    0.2087619  14.93 0.0003192104    1.030    0.029
       113 -10.3116    126.3850     33.7850   3.6776206408e+01   4.9149432191e+01    0.3102674    0.2807394  24.14 0.0005132438    1.052    0.050
       114 -12.2004    198.7476     73.6534   3.4599474596e+01   2.5131101171e+01     1.925833    0.9778245 -13.23  0.006424959    3.068    0.674
       115 -10.1485    133.1062     25.4651   3.2057945250e+01   4.8695109328e+01    0.5589043    0.2098597 -25.53  0.002020237    2.706    0.630
       116 -10.2050    178.6807     24.0071   2.2812767794e+01   3.7293096832e+01    0.6032309    0.3996448  63.52  0.002379613    1.462    0.316
       117  -8.9586    125.6992     24.4935   3.3407353479e+01   5.0555829035e+01    0.2473121    0.1257561 -25.84 0.0007372839    1.947    0.486
       118  -8.4098     78.4208     38.2345   5.2289787724e+01   5.7898295557e+01    0.2605496    0.1153097 -34.85  0.001124455    2.082    0.520
       119  -8.9825     32.8012    218.4217   9.4487264866e+01   2.7292784899e+01    0.1215537   0.08712056  41.08 0.0009510138    1.699    0.412
       120  -9.2366     33.1181    213.0266   9.4110900018e+01   2.8171370407e+01    0.1933652    0.1437415  23.20  0.001409487    2.407    0.585
       121  -8.4332    190.7697    211.6048   6.6713864149e+01   4.8898050962e+00    0.1707293   0.09842002  50.71 0.0003838734    1.601    0.376
       122  -9.2879    207.5601    206.5064   6.2980338341e+01   2.5851628858e+00    0.4674337    0.2601557  63.62  0.001839037    3.472    0.712
       123  -8.3106     72.1082    208.9006   8.7360174858e+01   2.4275182715e+01    0.1736231     0.112005  73.68 0.0007580958    1.346    0.257
       124  -8.1177    145.6534     13.2686   2.4877042680e+01   4.7028174705e+01    0.1861954    0.1324078  -5.01 0.0003690359    1.498    0.333
       125  -8.0505    190.4515     15.4779   1.8345420054e+01   3.5121328467e+01    0.2165012    0.1262461 -35.91 0.0006500058    1.731    0.422
       126  -8.6504    229.6000    207.6812   5.9420766221e+01  -1.3944368693e+00    0.2262153    0.1304494  45.89 0.0009375338    1.594    0.373
       127  -7.7929     64.5070    205.4444   8.8364167823e+01   2.5852783836e+01    0.1068866   0.08595592  72.89 2.989283e-05    1.100    0.091
       128  -9.9575    194.4618    197.6308   6.3816759137e+01   6.1147832900e+00    0.5126687    0.3501843 -69.98  0.002561571    2.803    0.643
