#   1 NUMBER                 Running object number                                     
#   2 MAG_AUTO               Kron-like elliptical aperture magnitude                    [mag]
#   3 X_IMAGE                Object position along x                                    [pixel]
#   4 Y_IMAGE                Object position along y                                    [pixel]
#   5 X_WORLD                Barycenter position along world x axis                     [deg]
#   6 Y_WORLD                Barycenter position along world y axis                     [deg]
#   7 A_WORLD                Profile RMS along major axis (world units)                 [deg]
#   8 B_WORLD                Profile RMS along minor axis (world units)                 [deg]
#   9 THETA_WORLD            Position angle (CCW/world-x)                               [deg]
#  10 FWHM_WORLD             FWHM assuming a gaussian core                              [deg]
#  11 ELONGATION             A_IMAGE/B_IMAGE                                           
#  12 ELLIPTICITY            1 - B_IMAGE/A_IMAGE                                       
         1 -14.6080     68.3687    144.2970   1.0297787434e+02   3.7796446626e+01     5.140697     2.615436  68.60  0.006456978    3.762    0.734
         2 -14.3714    218.0997     24.8921   3.7815157464e+01   2.8645069602e+01     1.486291     1.078479  28.01   0.00818317    2.101    0.524
         3 -14.5041    204.6996     37.9220   4.2453750987e+01   3.0130212168e+01     2.110527     1.466804  33.46   0.00838102    1.997    0.499
         4 -12.6364    243.2981      2.8657   3.0983598218e+01   2.5622706692e+01    0.7046446    0.2924456  77.35  0.003618363    2.273    0.560
         5  -9.7678     52.8518      4.6045   6.4193427603e+01   6.8060788585e+01    0.1590192    0.1081096  50.96 0.0009429432    1.746    0.427
         6 -10.5008     47.6732      2.3402   6.5161211757e+01   6.9142632891e+01     0.216222    0.1805968  15.65 0.0005482799    1.148    0.129
         7  -9.8830     56.7850      1.9356   6.1285042885e+01   6.7648473912e+01    0.1769987    0.1349966 -46.36  0.001084585    1.998    0.500
         8 -11.4811    192.5466    193.5802   8.1636594926e+01   5.3464756669e+00     1.729907     1.017031  65.39  0.005726682    4.896    0.796
         9 -10.0433    139.3230    249.8445   1.0158851145e+02   4.2834590069e+00    0.2105096    0.1177886 -63.17  0.001087796    2.533    0.605
        10 -14.3726      5.7502    187.0588   1.2354848192e+02   3.4076349342e+01     2.119629    0.7828243 -72.54  0.002148588    2.204    0.546
        11 -13.9821     21.7803    222.9848   1.2253327000e+02   2.4926758625e+01     1.275212    0.4906579  71.61  0.004460593    2.856    0.650
        12 -15.3759      9.7521    207.6592   1.2397118411e+02   2.9256397529e+01     2.865281      1.31497 -51.84  0.009324308    2.974    0.664
        13 -16.6932      8.5467    240.3977   1.2586205039e+02   2.2798803269e+01     9.087505     4.657473 -79.73   0.05873135    1.765    0.433
        14 -15.0499     47.3321    192.8632   1.1482101865e+02   2.8688955912e+01     2.359194     1.428499  81.85   0.01032672    1.668    0.401
        15 -10.7552    109.8730    200.9394   1.0131780800e+02   1.8152808120e+01    0.4409208    0.2167526 -43.52 0.0004615001    2.519    0.603
        16 -15.9419     42.6749    249.4258   1.2027355297e+02   1.7517907484e+01     10.37619     3.241999  25.39   0.02295556   15.219    0.934
        17 -10.6289     60.6435    198.1254   1.1232976143e+02   2.5885371532e+01    0.2563937    0.2092511  40.31 0.0009086331    1.272    0.214
        18  -9.0731     72.4356    188.4858   1.0845070571e+02   2.6535310454e+01     0.135955     0.118136  76.08 8.412675e-05    1.042    0.040
        19  -8.7603     77.2645    185.6387   1.0691628973e+02   2.6526301698e+01     0.142201   0.09600522  74.65 0.0006985923    1.639    0.390
        20  -9.3949     79.9335    183.4796   1.0597167711e+02   2.6650659120e+01    0.2024832    0.1290836  38.98 0.0006661679    1.536    0.349
        21  -9.8639     99.3670    180.8354   1.0078249301e+02   2.4324353355e+01    0.2573495    0.2015423  33.69 0.0006371408    1.309    0.236
        22  -8.7864     90.4506    181.4461   1.0308605508e+02   2.5571629367e+01    0.1396478    0.1284892  73.96 8.691791e-05    1.013    0.013
        23  -9.2719    151.4950    180.5210   8.8122917135e+01   1.5296731142e+01    0.2102507    0.1439263 -61.13 0.0006584633    1.762    0.433
        24  -9.6371    149.5582    177.4691   8.7987305656e+01   1.6299237802e+01     0.206147    0.1428287 -58.41 0.0005253484    1.648    0.393
        25 -10.8407    144.2109    178.6666   8.9475858916e+01   1.7033015860e+01    0.2729351    0.2493988 -28.26  0.001059732    1.137    0.121
        26 -12.1345     64.1287    176.3950   1.0893255639e+02   3.0483173601e+01    0.5009035    0.3630792 -11.87  0.001776431    2.186    0.543
        27 -12.1487     68.9502    171.2236   1.0701647468e+02   3.1088644815e+01    0.4098958    0.3013463  36.70  0.001891019    1.415    0.293
        28  -9.4107    204.2896    175.9508   7.5752005127e+01   6.4463209828e+00    0.2041824     0.173401 -22.78  0.001099417    1.103    0.094
        29  -9.6886    196.9154    175.8664   7.7226167574e+01   7.7940292418e+00    0.2344365    0.1890628   1.31   0.00125916    1.260    0.207
        30  -9.7635    188.1249    174.2499   7.8722099805e+01   9.7167834122e+00    0.3070098    0.1713727 -61.97  0.001092633    3.417    0.707
        31 -12.7479     85.5254    155.2242   1.0010386589e+02   3.2618615383e+01     1.508694    0.7137095 -59.90  0.002952075    2.036    0.509
        32 -12.4455     78.3810    161.7435   1.0312786747e+02   3.2080537025e+01    0.5591969    0.4660442  73.59 0.0004805021    1.215    0.177
        33 -13.5611     65.7520    157.7549   1.0588899274e+02   3.4802164865e+01    0.5560517    0.4264846 -46.72  0.001266451    1.387    0.279
        34 -13.8586     58.2389    241.9461   1.1683429686e+02   1.7069132357e+01     0.780318    0.5344979  71.67  0.003730571    1.302    0.232
        35 -10.9164    133.5201    143.5807   8.4844514953e+01   2.6928891238e+01     1.147514    0.2885903 -54.76   0.00247312    6.645    0.850
        36 -11.7937     54.7109    146.2005   1.0716367589e+02   3.9051911771e+01     0.624285    0.3088624 -49.67  0.002757851    2.000    0.500
        37  -9.5658    187.4650    151.4916   7.3954272422e+01   1.4286374343e+01      0.14916    0.1406215 -14.47 0.0001834313    1.017    0.016
        38 -10.8563    100.3316    140.2882   9.3101566241e+01   3.3881763697e+01    0.5623795     0.348671 -24.68  0.002191509    2.497    0.600
        39 -12.3771     87.3795    140.2083   9.6767334368e+01   3.6034449396e+01    0.3124495    0.2604934 -47.34 0.0004873586    1.184    0.156
        40 -10.1092     48.0145    145.5297   1.0894655961e+02   3.9987854973e+01    0.2569997    0.1795861  -6.05  0.001287869    2.094    0.523
        41 -10.4858    106.0044    131.0019   8.9449588649e+01   3.5131731199e+01    0.3986352    0.3205843 -67.92  0.001956706    1.328    0.247
        42 -10.3125    110.1635    130.6015   8.8176676198e+01   3.4467078663e+01    0.3186328    0.2740863   5.16 0.0007995191    1.338    0.252
        43 -10.9435    135.6919    127.8843   8.0566613524e+01   3.0077385505e+01    0.5151172    0.1816212 -50.90  0.001582467    3.063    0.674
        44 -11.5922     46.5171    124.7150   1.0607075344e+02   4.5342511931e+01    0.3219259    0.2302812 -39.05  0.001718093    1.475    0.322
        45  -9.8931    160.6023    127.8099   7.4355107707e+01   2.4800121520e+01    0.2317696     0.144716 -53.30 0.0009522117    1.751    0.429
        46 -11.2082     97.0905    126.8391   9.1076841045e+01   3.7711019695e+01    0.3058242    0.2610478 -15.08 0.0004246843    1.339    0.253
        47 -10.6653    137.4662    168.4656   8.9120083602e+01   2.0515912105e+01    0.3928134    0.3089939 -81.01  0.001901387    1.615    0.381
        48  -9.8444    106.9351    119.1466   8.6349413819e+01   3.7786895263e+01    0.2171153    0.2110984 -30.13 0.0003180224    1.020    0.019
        49  -9.3586     83.9880    118.0242   9.2996857245e+01   4.2021425740e+01    0.2358446    0.1794224  76.55 0.0008366968    1.718    0.418
        50  -9.2383    168.2084    113.0407   6.8839313188e+01   2.6194621815e+01    0.2636655    0.1812107 -68.70   0.00107854    2.053    0.513
        51  -9.9800     39.4895    112.9732   1.0621147197e+02   4.8967811257e+01    0.1867057    0.1800385 -60.01 0.0003608785    1.115    0.103
        52 -12.1868    245.9144    109.0282   5.3814817905e+01   1.0438795989e+01    0.3731073    0.3187542  42.27  0.002261739    1.359    0.264
        53 -10.1049    205.4332    110.1827   6.0596060263e+01   1.8470110887e+01     0.306015    0.2127504  41.50  0.001062541    1.575    0.365
        54 -10.1171     35.6565    172.5578   1.1552126440e+02   3.4700188980e+01    0.2198981    0.1320842  82.22 0.0008036049    1.667    0.400
        55 -10.1989     35.7946    162.0850   1.1435745164e+02   3.7202114502e+01    0.2353417    0.1903503  16.72  0.001426217    1.564    0.360
        56 -11.2485     32.4896    155.5222   1.1446546509e+02   3.9122307813e+01    0.3638811    0.2850379  86.53  0.001701711    1.152    0.132
        57  -9.5006    134.6225    105.7885   7.5078156561e+01   3.5197066278e+01    0.2270914    0.1457819 -52.19 0.0006551267    1.652    0.395
        58 -10.6574     39.4339    102.0978   1.0413462235e+02   5.1623250306e+01    0.2630818    0.1594783  46.27  0.001208973    2.003    0.501
        59 -12.4335    241.9355     99.4395   5.2232399609e+01   1.2771575145e+01    0.4270689    0.2753192 -21.92  0.001739214    1.778    0.437
        60 -10.4499    174.4277    148.9433   7.6211913399e+01   1.7440610211e+01    0.2866503    0.2642549  68.31 0.0007443894    1.248    0.198
        61  -9.9578     41.6941     91.8628   1.0112258140e+02   5.3839025410e+01    0.2111224    0.1731474 -17.45 0.0004836528    1.294    0.227
        62 -10.2353     53.0494     90.6509   9.6716080708e+01   5.2871106276e+01    0.2860231    0.1813274 -47.57 0.0008334598    1.379    0.275
        63 -10.3656     72.7575     83.3760   8.7653821975e+01   5.1837030718e+01    0.4270794    0.2475599  54.07  0.001774982    2.539    0.606
        64  -9.2481    150.9700     82.7452   6.4394095637e+01   3.6115321557e+01    0.2086783    0.1932074  60.22  0.000348416    1.102    0.093
        65  -9.8260    159.7040     82.0307   6.2211169696e+01   3.4177539989e+01    0.2178821     0.197785 -36.29 0.0004634865    1.100    0.091
        66 -11.2217    243.3847     77.7338   4.7152641259e+01   1.5917894214e+01    0.2425262    0.1612738 -30.74  0.001289753    1.483    0.326
        67 -10.4619     13.4904     60.0298   1.0463116697e+02   6.3286344465e+01    0.2286932    0.1818618 -52.10  0.000451633    1.111    0.100
        68 -10.0317    172.4756    241.0301   9.3764694421e+01   6.4700041935e-01    0.3807671    0.2311123 -66.84  0.001637999    3.416    0.707
        69 -12.1955    196.0677     43.8563   4.5094310380e+01   3.1393136320e+01    0.6394908    0.4459667  57.06  0.000974195    1.444    0.307
        70  -9.1035    113.3014    206.3230   1.0130944656e+02   1.6462708758e+01    0.1314288    0.1069301 -12.16 0.0003253714    1.632    0.387
        71  -9.9458    138.1231     44.0192   5.5205601920e+01   4.5526111574e+01    0.3254494    0.1989388 -73.64  0.001257941    2.912    0.657
        72  -9.1247     48.7431     42.6306   8.3277075022e+01   6.3343316143e+01    0.1630241    0.1155367  36.62 0.0004261271    1.606    0.377
        73 -10.1775    140.6555     38.2821   5.2778062504e+01   4.5683048798e+01    0.2603197    0.2070738 -74.87  0.001108828    1.504    0.335
        74  -9.2763    137.4659     35.5635   5.2539240796e+01   4.6803825940e+01    0.1958605    0.1559223 -68.37 0.0003968573    1.500    0.333
        75 -13.5595     37.3004    203.2220   1.1798006694e+02   2.7492368723e+01    0.5989102    0.5244474 -68.37  0.001411381    1.302    0.232
        76 -10.1200      2.4029     25.1829   9.9510399477e+01   7.0822806995e+01    0.1544504   0.09752646 -59.79 0.0009587283    1.727    0.421
        77  -9.8096    189.6589     15.0573   3.8359528590e+01   3.6365614841e+01    0.1740802    0.1611731 -59.27 0.0005485996    1.138    0.121
        78 -11.3890    195.4677    198.9696   8.2057634413e+01   3.8977541183e+00    0.5692331     0.324902 -59.46  0.002307827    3.214    0.689
        79 -11.0661     64.8120    223.8363   1.1398510646e+02   1.9820951418e+01    0.3163942     0.159877 -84.95  0.001285637    2.319    0.569
        80 -10.7020     59.5152    220.3798   1.1477008967e+02   2.1207059900e+01    0.3202797    0.2223821  29.77   0.00130751    1.619    0.382
