#   1 NUMBER                 Running object number                                     
#   2 MAG_AUTO               Kron-like elliptical aperture magnitude                    [mag]
#   3 X_IMAGE                Object position along x                                    [pixel]
#   4 Y_IMAGE                Object position along y                                    [pixel]
#   5 X_WORLD                Barycenter position along world x axis                     [deg]
#   6 Y_WORLD                Barycenter position along world y axis                     [deg]
#   7 A_WORLD                Profile RMS along major axis (world units)                 [deg]
#   8 B_WORLD                Profile RMS along minor axis (world units)                 [deg]
#   9 THETA_WORLD            Position angle (CCW/world-x)                               [deg]
#  10 FWHM_WORLD             FWHM assuming a gaussian core                              [deg]
#  11 ELONGATION             A_IMAGE/B_IMAGE                                           
#  12 ELLIPTICITY            1 - B_IMAGE/A_IMAGE                                       
         1 -14.5298    231.2572     26.8841   3.5206331216e+02   2.6063393767e+01    0.7709667    0.6001204 -51.11  0.004521507    1.055    0.052
         2 -10.8376    227.1655      9.6864   3.4856825008e+02   2.8690071338e+01    0.1995877    0.1184436 -47.06 0.0007146619    1.266    0.210
         3 -10.5338     49.8412    245.9156   7.0022745929e+01   1.6401099258e+01     0.232514   0.09187703  49.62  0.001126836    2.205    0.546
         4 -12.3249    101.6451    246.8450   5.8575460267e+01   1.0432253167e+01    0.5020545    0.2824866 -65.77  0.002400663    2.413    0.586
         5 -15.4276    129.5914    229.6027   5.0522858035e+01   9.9409152808e+00     1.704326     1.118597  32.48   0.01011108    1.307    0.235
         6 -18.3924     14.8462    212.4261   7.6492930125e+01   2.6580592399e+01     8.721299      4.36939 -84.73   0.02955777    2.059    0.514
         7  -7.2220     47.4481    229.4691   6.9539739381e+01   1.9821898322e+01    0.2134608    0.1462792  49.18 0.0007857381    1.231    0.188
         8 -14.8344    111.4092    228.6273   5.4460165537e+01   1.2412963908e+01     2.719885     1.293236  51.03   0.01198818    2.801    0.643
         9 -11.5546     89.3810    221.4471   5.8807164571e+01   1.6543363092e+01    0.2502668    0.1901133  38.98 0.0008522493    1.141    0.123
        10 -10.3433     71.7061    222.6327   6.3186454562e+01   1.8468896666e+01    0.1248913   0.09432945 -20.50 0.0007028354    1.718    0.418
        11 -13.3986    105.6216    213.0285   5.3941231591e+01   1.6090586270e+01    0.4641312    0.3263718 -56.55  0.002620696    1.646    0.393
        12 -11.8523    102.9818    238.0542   5.7396337738e+01   1.1783112977e+01    0.3614457    0.2020282 -47.98  0.001439762    2.125    0.529
        13 -10.6522    210.8880    198.8369   2.9818140030e+01   4.5055286220e+00    0.1784216    0.1289683  -7.20 0.0004677371    1.172    0.147
        14 -16.2050      4.7918    136.4104   7.5500017251e+01   4.6119622892e+01     6.241557     1.010939 -82.83   0.01512193    6.413    0.844
        15 -14.3197     26.0948    175.9082   7.1446811145e+01   3.4119547219e+01     1.563745    0.6249358  89.06  0.005092941    2.871    0.652
        16 -11.5578     68.8681    193.7391   6.1032209134e+01   2.5029335465e+01    0.2161945    0.1890994  80.73 0.0004048219    1.204    0.169
        17 -10.9145     45.3324    189.1760   6.7030735594e+01   2.8899941549e+01    0.3721564    0.1756607  67.35  0.001507241    2.597    0.615
        18 -12.3161     46.4288    237.2482   7.0269890994e+01   1.8396383565e+01    0.2040994    0.1621125 -62.74  0.001359174    1.546    0.353
        19 -10.2409    157.2752    184.6617   3.7716502258e+01   1.4122515897e+01    0.1213074    0.1080786  78.62 0.0002966062    1.611    0.379
        20 -11.9512    171.7549    175.1894   3.2973238134e+01   1.3645898362e+01    0.3275812    0.2642802  16.48  0.001164845    1.182    0.154
        21 -11.5309    173.4874    171.5016   3.1936679912e+01   1.4038374775e+01    0.2523594    0.2132733 -71.38  0.001449462    1.722    0.419
        22 -12.7241     53.8349    158.7738   6.1287056162e+01   3.5491782272e+01    0.4302392    0.2851862  61.65  0.002026449    1.578    0.366
        23 -14.9842     53.6348    146.6283   5.9717633447e+01   3.8708185599e+01     1.311845     1.028974  55.91  0.004684123    1.247    0.198
        24 -14.1504     74.2416    157.8776   5.4803339879e+01   3.2971439227e+01      1.10627    0.7257075 -20.21  0.004673262    2.246    0.555
        25 -11.6171     83.5437    149.6166   5.0582131478e+01   3.3653603326e+01    0.2613261    0.2444162  60.48 0.0003331542    1.051    0.049
        26 -12.0943     79.4648    146.2193   5.1252219002e+01   3.5152633765e+01    0.3128002    0.2552871  73.72 0.0008373035    1.337    0.252
        27 -13.8098     59.9528    170.1161   6.0824417454e+01   3.1829245398e+01    0.9051632    0.8362219 -87.06  0.003871443    1.108    0.098
        28 -11.9535     69.2966    173.1101   5.8444876793e+01   2.9864449241e+01    0.3943711    0.2606627  79.14  0.001829624    1.840    0.456
        29 -15.5591     69.8140    144.4294   5.4035440068e+01   3.7072532916e+01     2.244832     1.188254  70.87  0.002535546    3.215    0.689
        30 -15.3707     69.5163    135.8846   5.2641093193e+01   3.9355844525e+01     1.798161     1.037899  77.31  0.006535103    2.730    0.634
        31 -10.2303     56.3642    235.5029   6.7860140959e+01   1.7674824344e+01    0.1186742     0.101468  37.85 0.0004133133    1.077    0.072
        32 -11.9326     36.4134    168.9785   6.7804846384e+01   3.4848438602e+01    0.3386306    0.1799595  47.81  0.001537562    1.727    0.421
        33 -13.0924     88.8261    169.6299   5.2319403217e+01   2.7927368506e+01    0.4040751    0.3430787  62.09  0.001258687    1.228    0.185
        34 -11.4634    180.3490    168.0008   2.9911764752e+01   1.3599225569e+01    0.3151057    0.1650833 -60.32  0.001128174    4.215    0.763
        35 -11.6665    110.7867    167.2996   4.5876363796e+01   2.5036766015e+01     0.269465    0.2006187  88.09  0.001001561    1.865    0.464
        36 -13.0226     81.2217    164.4994   5.3727257641e+01   3.0300443288e+01    0.7125454    0.3838112   8.85  0.002523493    3.095    0.677
        37 -11.5119     44.1556    230.8729   7.0405752152e+01   1.9886817796e+01    0.1979687    0.1593292 -70.88  0.001066067    1.468    0.319
        38 -12.4819     60.7587    156.4177   5.8785682973e+01   3.5214901926e+01    0.5390515    0.3002828 -73.67  0.002300639    1.932    0.482
        39 -12.1913    134.0000    147.5227   3.6053408823e+01   2.5443282507e+01    0.5117813    0.2109905 -53.65  0.001822722    2.732    0.634
        40 -12.6063    131.3987    143.6343   3.5887530559e+01   2.6764958094e+01    0.5712643    0.3545731 -37.18 0.0009530042    1.719    0.418
        41 -12.0194    108.8782    145.3884   4.2287940449e+01   3.0440687019e+01    0.3119962    0.2922775  36.33 0.0006706379    1.042    0.040
        42 -13.2143     90.0570    144.1599   4.7583876948e+01   3.3971146831e+01    0.6147162    0.4926883 -19.91  0.002982269    1.507    0.336
        43 -14.4073     44.3417    131.1394   6.0689558633e+01   4.4025500128e+01      1.04614    0.5458933  59.03  0.004077793    2.277    0.561
        44 -11.4411    222.3608    129.4663   1.5088868256e+01   1.3424105996e+01    0.6649421    0.1952371 -48.77  0.001918828    6.044    0.835
        45 -12.3689     91.3356    131.5029   4.4640753884e+01   3.6923945527e+01     0.279522      0.27187 -18.36 0.0003352643    1.080    0.074
        46 -12.7809    104.9004    131.7460   4.0553458172e+01   3.4419340891e+01    0.5890073    0.4109234 -23.35   0.00170529    1.916    0.478
        47 -12.2555    112.4722    125.5843   3.6949602131e+01   3.4452379913e+01     0.324179    0.2746909 -11.73 0.0008560291    1.384    0.278
        48 -12.7674     48.4353    124.5199   5.8127457270e+01   4.5331936675e+01    0.4221816    0.2542557 -42.75  0.001801468    1.858    0.462
        49 -11.1923     99.4346    121.0371   3.9758778423e+01   3.8039413706e+01    0.2779492    0.2195231  15.00 0.0006657096    1.502    0.334
        50 -12.0800    104.9574    172.0498   4.8244153312e+01   2.4886834073e+01    0.2769436    0.2232779 -70.06 0.0007474193    1.412    0.292
        51 -11.0571    108.0480    115.9973   3.5923582829e+01   3.7576079111e+01    0.2330618    0.2284829  74.45 0.0003848396    1.018    0.017
        52 -13.3584     53.5618    111.0396   5.3647422392e+01   4.8313629086e+01    0.5011492    0.3611398 -73.45  0.002345541    1.425    0.298
        53 -13.5613     17.4507    110.1992   6.8272851205e+01   5.2426191697e+01    0.5798874    0.3963717  26.35  0.001971174    1.521    0.343
        54 -12.1946     39.7623    102.9896   5.7678541654e+01   5.2265831976e+01    0.2384679    0.2313623  78.22 0.0007700052    1.031    0.030
        55 -11.9208    111.6817    105.3649   3.2105646410e+01   3.9300511395e+01    0.2728782    0.2413059  88.98 0.0006265512    1.244    0.196
        56 -11.0852     36.2616    243.7692   7.2934367573e+01   1.8180955809e+01    0.2564972    0.1730209 -23.39  0.001481654    2.317    0.568
        57 -11.1162     87.6530     67.4503   2.8090433212e+01   5.2834601584e+01    0.3705361    0.2486907  73.98  0.001256812    2.143    0.533
        58 -12.8077    184.1286     64.7935   5.6267384424e+00   3.0741448055e+01     0.372931    0.3134171 -55.01 0.0007704068    1.049    0.046
        59 -11.2967     79.8756     62.3632   2.9052900195e+01   5.5570524737e+01    0.3706846    0.2481277  68.43  0.001336474    2.003    0.501
        60 -14.4596    201.0578     52.7907   5.4436071040e-01   2.8845563290e+01     1.000097     0.833003  34.01  0.004198188    1.629    0.386
        61 -13.2949    207.1126     47.9494   3.5875561086e+02   2.8241184626e+01    0.4232015    0.4052604 -49.65  0.001347549    1.226    0.184
        62 -11.8679     13.3562     59.9249   6.1681046462e+01   6.6170706254e+01    0.2223166    0.1882429  31.91 0.0005824244    1.277    0.217
        63 -10.1388     41.1684     48.1547   4.1202795153e+01   6.5818755561e+01    0.1839834    0.1648786  57.67 0.0003193764    1.284    0.221
        64 -10.3528     56.7527     42.6350   3.0698469058e+01   6.4218215041e+01    0.2046386    0.1300515  51.13 0.0005359107    1.668    0.401
        65 -11.4170    104.0093    232.5420   5.6580445836e+01   1.2635455074e+01    0.2109037    0.1868875 -47.91 0.0007098674    1.355    0.262
        66 -10.8596     60.9627     21.5182   1.8193353045e+01   6.6833425694e+01    0.2156911    0.1285277  53.90  0.001025215    1.577    0.366
        67 -13.9689     47.1587    179.8851   6.5657025867e+01   3.0943063579e+01    0.7922131    0.5396619 -89.05  0.002988842    1.548    0.354
