#   1 NUMBER                 Running object number                                     
#   2 MAG_AUTO               Kron-like elliptical aperture magnitude                    [mag]
#   3 X_IMAGE                Object position along x                                    [pixel]
#   4 Y_IMAGE                Object position along y                                    [pixel]
#   5 X_WORLD                Barycenter position along world x axis                     [deg]
#   6 Y_WORLD                Barycenter position along world y axis                     [deg]
#   7 A_WORLD                Profile RMS along major axis (world units)                 [deg]
#   8 B_WORLD                Profile RMS along minor axis (world units)                 [deg]
#   9 THETA_WORLD            Position angle (CCW/world-x)                               [deg]
#  10 FWHM_WORLD             FWHM assuming a gaussian core                              [deg]
#  11 ELONGATION             A_IMAGE/B_IMAGE                                           
#  12 ELLIPTICITY            1 - B_IMAGE/A_IMAGE                                       
         1 -14.6040     68.4795    144.1415   1.0997039706e+02   3.7465451628e+01     4.845909     2.372087  71.93  0.006037584    3.864    0.741
         2 -14.4641    200.2065     34.0325   4.9211916392e+01   3.0606670972e+01     2.246487      1.50844  30.68  0.007784316    1.996    0.499
         3 -14.1796    214.8052     18.8757   4.3394835141e+01   2.8760715097e+01     1.161556     1.007678  20.82  0.002740452    1.470    0.320
         4 -12.6845      2.3352     22.2803   1.0536483668e+02   7.0753166690e+01    0.7729646    0.3202377 -61.16  0.003949443    2.456    0.593
         5 -13.0636      2.4253      6.4904   9.8917075392e+01   7.3486631625e+01    0.9920993    0.5785494 -32.42  0.006739182    1.267    0.211
         6 -10.9331     42.4116      3.8172   7.6520488772e+01   6.9717430530e+01    0.2012554    0.1935707  56.10 0.0007810824    1.743    0.426
         7 -10.1554    189.8509     15.1177   4.5181910502e+01   3.5507676347e+01    0.2207039    0.1747725 -69.38 0.0006401011    1.249    0.200
         8 -15.8270     79.3561    246.4050   1.1932924658e+02   1.4726145966e+01       8.2679     2.737574  33.26   0.03114577    4.679    0.786
         9  -9.2521    211.0200    202.3142   8.8288190885e+01   2.3363730323e-01    0.1801191    0.1468986  28.99 0.0002778051    1.093    0.085
        10  -9.7429     96.6331    200.9219   1.1140198549e+02   2.0626114810e+01    0.2057919    0.1920792  13.59 0.0005067846    1.438    0.305
        11 -11.7783    193.2896    193.3865   9.0066487731e+01   4.8130058359e+00    0.8058087    0.4751942 -54.87  0.003698292    2.453    0.592
        12  -9.5063     81.9334    194.8801   1.1377091922e+02   2.4100820634e+01     0.182206     0.173692  63.77 0.0007946265    1.259    0.205
        13 -14.2433     46.6835    219.6289   1.2309934953e+02   2.3824776740e+01     1.366324     1.167923   1.49  0.005617443    2.124    0.529
        14  -9.3774     96.7121    189.9601   1.0996766685e+02   2.2872561315e+01    0.1847004    0.1540118 -88.36 0.0004266923    1.155    0.134
        15  -9.3373     73.5039    188.0922   1.1478038964e+02   2.6754127501e+01    0.1775405    0.1156419 -76.97 0.0004130648    1.481    0.325
        16 -12.1000     67.6623    179.9993   1.1510831828e+02   2.9325658223e+01     0.363726    0.2858708 -39.19  0.002137591    1.786    0.440
        17 -11.9619     72.4399    174.2929   1.1332647863e+02   2.9931617416e+01    0.3389163    0.2659945 -39.66  0.001089292    1.722    0.419
        18  -9.6461     99.6003    180.8351   1.0804823819e+02   2.4352397368e+01    0.2107225    0.1780666  40.23  0.000603757    1.256    0.204
        19  -9.6270    141.1139    198.0333   1.0159479224e+02   1.3652726959e+01    0.2062529    0.1811833  52.28 0.0004601159    1.026    0.025
        20  -9.9296     40.7204    178.0128   1.2079847890e+02   3.3114399744e+01    0.1713753    0.1286179  89.85  0.000246484    1.096    0.087
        21 -10.8202    125.3034    173.7075   1.0104793028e+02   2.1421420101e+01    0.3277515     0.254688  10.22   0.00163906    1.812    0.448
        22 -12.1890     81.4956    164.4832   1.0985380280e+02   3.0837655655e+01    0.5250217    0.3817349  70.72 0.0005569152    1.373    0.272
        23 -13.4281     68.9318    160.8474   1.1234962294e+02   3.3481567778e+01    0.5668796    0.4160923 -49.41  0.001135499    1.549    0.355
        24 -12.6284     87.8548    157.6611   1.0725359371e+02   3.1432398619e+01     1.229129    0.7150993 -64.11   0.00143904    1.670    0.401
        25  -9.9743    174.0556    248.3388   1.0244149018e+02  -7.6283949001e-02    0.1774831    0.1243829  38.21  0.001147609    1.109    0.098
        26 -11.1834     33.4105    165.3934   1.2119018511e+02   3.6713306737e+01    0.2824688    0.2037488  53.38  0.001188034    1.354    0.261
        27  -9.0866     42.2666    167.6143   1.1941793292e+02   3.5256650462e+01    0.1335771   0.07794154  75.76  0.000698556    1.698    0.411
        28 -10.2112     37.3377    167.7157   1.2053817741e+02   3.5775791056e+01    0.2315121     0.142698  72.14  0.000826965    1.519    0.342
        29  -9.0826     48.5056    160.5420   1.1718777388e+02   3.6153141476e+01    0.1294736    0.1057655  85.99 0.0002202497    1.026    0.025
        30 -10.1000    189.0168    154.5161   8.3054088757e+01   1.2500282087e+01    0.2335033    0.1420958  44.27  0.001036282    1.601    0.375
        31 -11.1265    133.7510    143.7706   9.3215151927e+01   2.6325693480e+01     1.152602    0.2734505 -54.32  0.002585379    6.506    0.846
        32 -11.6565     54.5465    148.0162   1.1410995558e+02   3.8351061016e+01    0.4123564    0.2874435 -65.69  0.002342969    1.286    0.222
        33 -10.2521    174.9299    148.8798   8.4796379417e+01   1.6577251103e+01    0.2685363    0.2321834 -60.60 0.0006508788    1.302    0.232
        34 -10.7598     38.7261    146.2369   1.1783943920e+02   4.0562394000e+01    0.2786885    0.2109968  51.11 0.0007685086    1.373    0.272
        35 -10.5290     84.9880    144.2264   1.0570077388e+02   3.5027315139e+01    0.3210731    0.2188365  68.01  0.001225007    1.659    0.397
        36 -12.4311     89.4684    141.9684   1.0412497458e+02   3.4851985215e+01    0.2840506    0.2521536 -50.09 0.0005442052    1.200    0.166
        37 -10.2628    101.2930    143.3395   1.0131402942e+02   3.2550526647e+01    0.3024949    0.2666331  87.35 0.0008073066    1.114    0.102
        38  -9.9045    103.5124    139.9738   1.0007430765e+02   3.2949037687e+01    0.3703951    0.2433783 -30.17  0.001171969    2.175    0.540
        39  -9.5642     37.4474    140.9991   1.1751182810e+02   4.1924295735e+01    0.1827682    0.1581768  64.56 0.0005820894    1.200    0.167
        40  -9.8671     79.3640    139.5560   1.0634461320e+02   3.6996119063e+01    0.2394987    0.1958278 -79.49 0.0004994114    1.151    0.131
        41  -8.9403    159.3298    137.3249   8.5644894359e+01   2.2317198221e+01    0.1593954    0.1234878   3.78 0.0007050316    1.702    0.412
        42 -10.1990    111.2981    131.4482   9.6235416855e+01   3.3521079133e+01    0.2998299    0.2589855  -9.32 0.0007606318    1.448    0.310
        43 -10.2176    106.2028    130.8455   9.7456558161e+01   3.4603448997e+01    0.3570774     0.303227  76.53  0.001287609    1.254    0.203
        44 -11.3731    135.7313    128.6052   8.9269661961e+01   2.9290434814e+01    0.6139472    0.1769893 -53.19  0.001580431    4.604    0.783
        45  -9.5031    158.6931    130.6875   8.4207089573e+01   2.3850899753e+01    0.1573025    0.1245327   3.10 0.0002506612    1.621    0.383
        46 -11.6976     45.0216    129.2505   1.1389152012e+02   4.3912667854e+01     0.418375    0.2003825  32.92  0.001999042    2.339    0.573
        47 -13.6270     42.3570    208.1194   1.2304069655e+02   2.6596856481e+01    0.5423065    0.4445721  66.13  0.001359551    1.162    0.139
        48 -11.0556     98.6973    127.8488   9.8831591311e+01   3.6647160101e+01    0.3105764    0.2609461 -19.24 0.0008334612    1.489    0.328
        49 -10.2502    126.1038    127.8741   9.1548978219e+01   3.1448056809e+01    0.3336421    0.2275007  85.20    0.0012951    2.296    0.564
        50 -10.7809    117.0819    126.1488   9.3504287338e+01   3.3640478998e+01    0.3387338    0.2269557 -62.44  0.001194732    1.611    0.379
        51 -10.0021    120.5014    121.9951   9.1612925859e+01   3.3916425052e+01    0.2273968    0.1296879 -28.89 0.0008106151    2.662    0.624
        52  -9.9399    107.8813    119.9967   9.4540926129e+01   3.6826401827e+01    0.2145362    0.2068976 -58.62 0.0003147555    1.033    0.032
        53 -14.8531     52.4262    197.1936   1.2014408449e+02   2.7615826179e+01     1.872508     1.098305  55.93  0.007059675    1.476    0.323
        54 -10.7038    137.7394    170.7449   9.7673263675e+01   1.9710754549e+01    0.2622336    0.1740759  40.19 0.0008111321    1.448    0.309
        55 -10.4710    194.1456    166.9561   8.4678154837e+01   9.1726803709e+00    0.3055307    0.2781224  56.56 0.0008417348    1.239    0.193
        56  -9.6052    117.1665    115.2073   9.0837074974e+01   3.6132267776e+01     0.216304    0.1810835  85.19 0.0007593322    1.388    0.280
        57 -10.2189    134.8532    112.7148   8.5513220252e+01   3.2994665785e+01    0.3473818    0.1738852 -44.53  0.001313918    1.976    0.494
        58  -9.8413    168.0632    112.8635   7.7528076102e+01   2.5390972246e+01    0.3342325    0.2337223 -79.58  0.001317755    2.248    0.555
        59 -11.6914    119.3121    109.3503   8.8752085048e+01   3.7025445524e+01    0.6445798    0.3920869 -72.43  0.002351015    2.701    0.630
        60 -12.3649     18.0107    110.4521   1.1875958158e+02   5.0836275860e+01    0.5489383    0.2004025  29.78  0.002581948    3.078    0.675
        61 -10.3363    134.4821    104.0511   8.3281578764e+01   3.4961002568e+01    0.5523806    0.1523844 -44.94  0.001549866    3.581    0.721
        62 -11.3464     45.5942    105.9095   1.0976709920e+02   4.9427534773e+01     0.239587    0.1896494  48.06 0.0009133315    1.433    0.302
        63 -11.1265    242.1333    101.6972   6.0832193482e+01   1.0369284344e+01    0.2216524    0.1863105 -82.08  0.001021988    1.458    0.314
        64  -9.6134    121.7915     98.6087   8.5157093596e+01   3.8889520722e+01    0.2157682     0.147568  55.63 0.0004512195    1.622    0.383
        65 -10.0888    205.5042    110.2108   6.9118371085e+01   1.7088340505e+01     0.328942    0.2155623  42.30 0.0009683653    1.605    0.377
        66  -9.1547     74.8021     84.7575   9.5428177366e+01   5.0589587077e+01    0.1817035    0.1611626 -81.30 0.0003417254    1.292    0.226
        67  -9.1136    184.4819     77.4599   6.4231301915e+01   2.8066361262e+01    0.1536795    0.1510375  12.08 0.0001134268    1.056    0.053
        68  -9.3172     61.9005     71.3595   9.5978480797e+01   5.5383353316e+01    0.1831647    0.1640807 -14.22 0.0005235145    1.134    0.118
        69 -16.5576     12.1603    241.7736   1.3024726798e+02   2.3583905560e+01     2.793569      2.01295  32.39   0.02152259    1.957    0.489
        70 -10.5454     13.4734     59.7832   1.1117422577e+02   6.2625084845e+01    0.2128451    0.1719921 -53.44 0.0004787711    1.054    0.051
        71 -11.6211    147.1516     51.4107   6.3854889485e+01   4.1898467655e+01    0.6049151    0.3826138 -76.57  0.002000069    2.726    0.633
        72 -11.9895    191.6142     40.3704   5.2229918592e+01   3.1985389120e+01    0.5209534    0.5027788 -81.24  0.000942671    1.035    0.034
        73 -16.5180      7.1424    203.0800   1.2923903317e+02   3.1279870352e+01      7.15056     1.431234 -74.68   0.01446638    3.851    0.740
        74 -12.2774    209.5441     24.5731   4.5469621760e+01   2.9407606525e+01     0.415894    0.3421933  38.23  0.001227697    1.447    0.309
        75 -11.4974    169.6513    233.3018   1.0118810932e+02   2.7557572480e+00    0.2877972      0.23964 -62.52  0.001365516    1.599    0.375
        76  -9.1380    137.2331     35.4235   6.0530629993e+01   4.6702912586e+01    0.1896444    0.1403082  71.29 0.0003129241    1.480    0.325
        77 -10.2876     76.3420    233.4720   1.1878115787e+02   1.7393990922e+01    0.1881848    0.1510518  81.06 0.0005045242    1.165    0.142
        78 -10.3729     71.7344    230.2418   1.1934640651e+02   1.8610591874e+01    0.2606046    0.1506871  55.97 0.0009405296    1.384    0.278
        79 -11.2355    148.3269     44.4791   6.1268137869e+01   4.2644659002e+01    0.3656284    0.2867904 -81.75 0.0009241636    1.571    0.363
        80  -9.4300    143.8858     40.8703   6.0987502551e+01   4.4285979445e+01    0.1963969    0.1739737 -73.54 0.0003254192    1.273    0.214
        81  -9.1598    163.8050    204.8017   9.7986562903e+01   8.3194647680e+00    0.1748147    0.1498143  66.36  0.000438458    1.316    0.240
