#   1 NUMBER                 Running object number                                     
#   2 MAG_AUTO               Kron-like elliptical aperture magnitude                    [mag]
#   3 X_IMAGE                Object position along x                                    [pixel]
#   4 Y_IMAGE                Object position along y                                    [pixel]
#   5 X_WORLD                Barycenter position along world x axis                     [deg]
#   6 Y_WORLD                Barycenter position along world y axis                     [deg]
#   7 A_WORLD                Profile RMS along major axis (world units)                 [deg]
#   8 B_WORLD                Profile RMS along minor axis (world units)                 [deg]
#   9 THETA_WORLD            Position angle (CCW/world-x)                               [deg]
#  10 FWHM_WORLD             FWHM assuming a gaussian core                              [deg]
#  11 ELONGATION             A_IMAGE/B_IMAGE                                           
#  12 ELLIPTICITY            1 - B_IMAGE/A_IMAGE                                       
         1 -14.1549    163.4021     52.2961   7.6009535944e+01   3.7238403153e+01     2.240926     1.483301  10.40  0.006754887    2.370    0.578
         2 -13.1726    181.0270     28.9414   6.5929039796e+01   3.5766851964e+01    0.5867026    0.5203269 -17.56  0.001500068    1.257    0.205
         3 -13.8526    176.7735     35.7346   6.8590274197e+01   3.6034076339e+01    0.9970244    0.7904403 -46.09  0.003039367    1.210    0.174
         4 -12.3732    190.0266     14.9446   6.0751815116e+01   3.5015152833e+01    0.3674368    0.2930536 -52.41  0.001040642    1.144    0.126
         5 -13.7503    195.8015      4.5888   5.7290154837e+01   3.4587924604e+01    0.9578977    0.6172457  79.48  0.003969349    1.477    0.323
         6 -11.0845    208.8586    197.3806   1.0192230848e+02   4.0791949992e+00    0.1900078    0.1551872 -20.55 0.0003786166    1.330    0.248
         7 -18.8365     58.6218    246.0646   1.3894974696e+02   1.7387979370e+01     6.638521     4.128754  26.93   0.04328489    1.510    0.338
         8  -9.8950    160.6121    198.1883   1.1171706681e+02   1.1319469710e+01    0.1658163    0.1186666 -25.15 0.0004304067    1.576    0.365
         9 -11.0696    154.6129    196.6484   1.1278237418e+02   1.2524740313e+01    0.2465297    0.2118022  38.35  0.001028344    1.208    0.172
        10 -12.7798    193.4379    192.6604   1.0404246511e+02   7.0296069336e+00     0.720516    0.4508553 -45.25  0.002709934    2.083    0.520
        11 -19.1630     41.4819     94.2875   1.2897800714e+02   5.3757761141e+01     21.22818     2.118048 -68.86   0.03648674   11.528    0.913
        12 -11.5422    167.6842    189.5967   1.0879993201e+02   1.1579962265e+01    0.3619507    0.2496702   5.33  0.001466424    1.590    0.371
        13  -9.9936      6.8290    213.1832   1.4842532232e+02   2.8525601114e+01    0.1918021   0.07960781  21.49 0.0009761881    2.629    0.620
        14 -10.9046    163.1038    210.5508   1.1306649484e+02   8.9998384106e+00    0.2444083    0.1840541 -41.20  0.001069665    1.630    0.386
        15 -12.4929     16.0486    206.4648   1.4623090737e+02   2.9045021357e+01    0.2300943     0.173527  49.14 0.0009538526    1.082    0.076
        16 -11.4274    205.9324    180.4994   9.9485760575e+01   6.8465826925e+00    0.4313883    0.2152098  35.07  0.001648074    1.832    0.454
        17 -11.4060    208.6937    178.3480   9.8574489544e+01   6.7236922827e+00    0.3512208    0.2484177  17.30  0.002088708    1.244    0.196
        18 -11.9091    136.3210    179.5387   1.1425026765e+02   1.8593745789e+01    0.3103404    0.2217087  31.47 0.0008089175    1.222    0.182
        19 -13.2770     11.5321    205.7363   1.4721079297e+02   2.9586882551e+01    0.3961696    0.3043043  21.73  0.002184574    1.513    0.339
        20 -10.7572      1.4535    177.2896   1.4877569141e+02   3.6352226485e+01    0.1376819   0.09780868  80.27 0.0004030194    1.218    0.179
        21 -11.9431    195.9698    171.1678   9.9650746862e+01   9.8367083913e+00    0.5700455    0.3541169 -42.25  0.002445776    1.848    0.459
        22 -10.6501    193.7935    164.9329   9.8872361061e+01   1.1178714551e+01    0.2701517    0.2385967  24.80 0.0009436241    1.177    0.150
        23 -10.1689    177.4951    169.5136   1.0310458096e+02   1.3253763889e+01    0.1396777    0.1193771  13.89 0.0008105129    1.006    0.006
        24 -11.2600     25.5020    206.4346   1.4410602638e+02   2.8174560458e+01    0.1991284    0.1414034  45.13 5.900085e-05    1.123    0.110
        25 -11.3130     22.3860    205.1791   1.4476101990e+02   2.8722734412e+01    0.1911104    0.1448101  33.91 0.0002557451    1.290    0.225
        26 -10.7458    120.8986    164.3010   1.1555080565e+02   2.4316375751e+01    0.2761016    0.2225935  62.55 0.0007371904    1.382    0.276
        27  -9.7218    223.3891    163.2215   9.3056500186e+01   6.5587274871e+00    0.1705281    0.1088647 -37.95 0.0003465615    1.683    0.406
        28 -10.1465     13.7037    160.2160   1.4500176995e+02   3.9317432286e+01    0.2076975    0.1505813  64.12 0.0003843793    1.138    0.121
        29  -9.4810      5.9514    251.0000   1.4935770974e+02   2.1858378519e+01    0.1556782   0.04382947  29.12 0.0007792931    2.784    0.641
        30 -12.9524    134.0473    145.5230   1.0857022970e+02   2.5893085324e+01     1.243666    0.3479292 -54.81  0.003160921    5.639    0.823
        31 -10.1940     11.2840    153.0337   1.4534196905e+02   4.1202239356e+01    0.2069535    0.1644831  35.76 0.0006178782    1.277    0.217
        32 -10.7733    174.5933    148.7657   9.9556658371e+01   1.7390360423e+01     0.303846    0.2466646 -67.60  0.001323363    1.774    0.436
        33 -10.1832    158.6189    204.7159   1.1314769684e+02   1.0586365647e+01    0.2872088    0.1666802  54.80  0.001326924    2.624    0.619
        34 -12.3474    145.3282    146.2622   1.0584721039e+02   2.3547664628e+01    0.4774322    0.3504816  51.71   0.00109768    1.447    0.309
        35 -10.1134      7.0536    144.0049   1.4615251636e+02   4.3671618360e+01    0.1531849    0.1261427  71.36 0.0003676316    1.004    0.004
        36 -10.0864     11.5241    142.4868   1.4475539146e+02   4.3741562017e+01    0.1294072    0.1074089  72.26 0.0001729751    1.002    0.002
        37 -10.3687      1.9846    147.0562   1.4773723893e+02   4.3255969575e+01    0.1792914    0.1496592  71.85 0.0003224182    1.037    0.036
        38 -12.3161    102.0241    139.1095   1.1622205268e+02   3.3321813205e+01    0.3053389    0.2807321  23.14 0.0003527763    1.126    0.112
        39 -11.1703      3.0978    136.9575   1.4703165744e+02   4.5636546058e+01    0.3514958    0.1129403 -68.14  0.001450391    2.805    0.643
        40 -10.3811    163.3904    203.9911   1.1202270409e+02   9.9645220678e+00    0.2161588    0.1683376   5.25  0.000517994    1.245    0.197
        41 -12.0355    106.0360    130.8494   1.1336474691e+02   3.4557501191e+01    0.4221413    0.3790812 -80.49   0.00118934    1.200    0.166
        42 -11.2548    106.5503    125.7911   1.1212386367e+02   3.5666763838e+01    0.3017518     0.266845 -11.12 0.0006643666    1.305    0.234
        43 -11.6807      3.6838    130.3530   1.4656990249e+02   4.7234581737e+01    0.3401524    0.1728702  58.10  0.001509236    1.757    0.431
        44 -12.2452    118.5893    129.7203   1.0943000025e+02   3.2413654127e+01    0.4428725    0.3901586  46.19  0.001033276    1.086    0.080
        45 -12.4665    135.1889    122.3696   1.0309930788e+02   3.0657932740e+01    0.7626253    0.2556909 -49.30  0.002341043    3.288    0.696
        46 -10.7615    141.7587    126.9851   1.0246741623e+02   2.8281111904e+01    0.3084764    0.2348916  61.36 0.0004153605    1.531    0.347
        47 -11.8649    125.0097    127.0076   1.0699377754e+02   3.1745234451e+01    0.4896166    0.2967345  69.00  0.001719338    2.899    0.655
        48 -10.7434     89.8350    122.6499   1.1672112451e+02   3.9479966995e+01     0.235628    0.1302634  44.63 0.0009496143    1.755    0.430
        49 -10.7880    112.5840    118.8204   1.0870114525e+02   3.6142254660e+01    0.3144799    0.2390515  55.04 0.0005339023    1.368    0.269
        50 -10.8288      7.7587    125.0188   1.4499559773e+02   4.8339901576e+01    0.1831738    0.1532734  79.55  0.001034768    1.008    0.008
        51  -9.8055     11.6362    116.2693   1.4313422785e+02   5.0344812983e+01    0.1407497   0.08103817  54.83 0.0006995789    1.654    0.395
        52 -10.9125    168.3622    113.2762   9.2675709584e+01   2.5264525939e+01     0.387132     0.299317 -83.60  0.001086408    1.918    0.479
        53 -11.1258    160.4797    127.7570   9.8034499840e+01   2.4174801816e+01    0.3839893    0.2546393 -52.49  0.001364032    1.756    0.431
        54 -10.6989      2.7137    112.5293   1.4602314163e+02   5.1777769264e+01    0.2282406      0.22467 -17.73  0.001007859    1.226    0.184
        55 -10.6828    205.3039    110.4794   8.4712262947e+01   1.7842522579e+01    0.3377941    0.2415981  24.63  0.001044535    1.579    0.367
        56 -12.1428     85.5504    108.4013   1.1502791171e+02   4.3809312201e+01    0.5295941    0.4547586 -29.22  0.002190427    1.314    0.239
        57 -10.0212    130.3852    109.7498   1.0124164228e+02   3.4460943276e+01    0.2216537    0.1510864 -34.45 0.0006122267    1.619    0.382
        58 -11.9731     67.0334    104.5795   1.2088612083e+02   4.7797526254e+01    0.3572586    0.2804631   9.81  0.001738289    1.511    0.338
        59  -9.9092    105.0309     73.4980   9.8234540327e+01   4.8207183965e+01     0.250391    0.1562259  43.82   0.00102495    1.574    0.365
        60 -10.1043      2.3729    245.5711   1.4993206518e+02   2.3068303967e+01    0.1108197    0.0779779  40.08 0.0008587578    1.226    0.184
        61 -10.6176    198.6481    222.8303   1.0787533720e+02   2.2300591434e+00    0.2169927    0.1350036  30.98 0.0005380778    1.350    0.259
        62 -11.3791     98.7516    213.8218   1.2772674860e+02   1.7956962268e+01    0.2588971    0.2001742 -84.01  0.001394417    1.620    0.383
        63  -9.8653     13.6196     59.9056   1.3602059788e+02   6.4927799447e+01    0.1898673    0.1455797 -73.47 0.0004379613    1.170    0.145
        64 -11.8450    139.5730    200.5955   1.1672915545e+02   1.4235364454e+01     0.269792    0.2536736  58.86  0.001579344    1.292    0.226
