#   1 NUMBER                 Running object number                                     
#   2 MAG_AUTO               Kron-like elliptical aperture magnitude                    [mag]
#   3 X_IMAGE                Object position along x                                    [pixel]
#   4 Y_IMAGE                Object position along y                                    [pixel]
#   5 X_WORLD                Barycenter position along world x axis                     [deg]
#   6 Y_WORLD                Barycenter position along world y axis                     [deg]
#   7 A_WORLD                Profile RMS along major axis (world units)                 [deg]
#   8 B_WORLD                Profile RMS along minor axis (world units)                 [deg]
#   9 THETA_WORLD            Position angle (CCW/world-x)                               [deg]
#  10 FWHM_WORLD             FWHM assuming a gaussian core                              [deg]
#  11 ELONGATION             A_IMAGE/B_IMAGE                                           
#  12 ELLIPTICITY            1 - B_IMAGE/A_IMAGE                                       
         1 -13.5788     67.4078    144.2283   1.3255272521e+02   3.8275783003e+01     2.922203     1.281068 -89.23  0.006879921    5.902    0.831
         2 -14.3179    196.1357     15.1479   6.7699963723e+01   3.4285936575e+01     2.348669     1.655672  13.63  0.008805087    1.941    0.485
         3 -14.0656    202.4407      8.0449   6.4973310739e+01   3.3384485287e+01      2.99261     1.448542  35.04  0.001428193    3.262    0.693
         4  -9.0483    128.0143     23.6538   8.1891567747e+01   5.1029918124e+01    0.1970543     0.173459  51.33 0.0004153359    1.084    0.077
         5 -10.4472    249.3867    248.8955   1.1235127592e+02  -9.9878494303e+00    0.2532989    0.1427045  -1.38  0.001560031    2.052    0.513
         6 -11.4466    139.1656    249.6159   1.3104417721e+02   7.0073839737e+00    0.2451564    0.2044031  20.77  0.001765329    1.544    0.352
         7 -11.4853    123.3424    249.8448   1.3380097265e+02   9.4332364916e+00    0.4582224    0.1085525  45.00  0.001886097    3.057    0.673
         8 -12.2586    109.6556    248.9811   1.3606912586e+02   1.1633438300e+01    0.6252448    0.2035705  49.07   0.00301629    2.322    0.569
         9 -11.7950     98.9067    249.8612   1.3797853133e+02   1.3077395066e+01    0.4548254    0.2560406  52.46  0.002231099    1.314    0.239
        10 -10.5536     74.5970    249.7234   1.4203433108e+02   1.6487225997e+01    0.2743983    0.2207151   8.48 0.0008321477    2.667    0.625
        11 -11.0526     88.5204    249.0574   1.3966423772e+02   1.4683966719e+01    0.2437763     0.233459  13.58  0.001958666    1.714    0.417
        12 -10.5167     85.3747    246.7811   1.4001188146e+02   1.5486020350e+01    0.2258746    0.1594393 -78.28   0.00112864    1.555    0.357
        13 -11.6658     81.5033    248.3278   1.4078332934e+02   1.5774295667e+01    0.4215477    0.2070187  62.82  0.002235444    1.784    0.440
        14 -11.9365     81.9229    242.9605   1.4029281935e+02   1.6584194148e+01    0.3309557    0.2226762  55.83   0.00178934    1.106    0.096
        15 -11.1375     67.2425    250.1812   1.4327287077e+02   1.7383964139e+01    0.2831619    0.1313831  62.39  0.001067003    1.792    0.442
        16 -14.9665      6.1413     16.7908   1.2471444793e+02   7.1610532088e+01     19.94087    0.1619024 -56.04    0.0336634   21.291    0.953
        17 -15.6981      7.6382    239.9973   1.5214656652e+02   2.5891171765e+01     7.978747    0.8035783 -71.81   0.03176662    6.362    0.843
        18 -15.4083     55.9692    217.9306   1.4288918639e+02   2.4401609912e+01     6.354526     1.018592  43.83    0.0139383    3.877    0.742
        19 -11.5808     94.9939    240.7654   1.3785690011e+02   1.5087970123e+01    0.3116057    0.1771573 -57.44  0.001932832    2.225    0.551
        20 -11.2992     35.0729    230.1124   1.4731843437e+02   2.4699011818e+01    0.2804835    0.1597874  69.94 0.0007021414    1.330    0.248
        21 -11.0395     37.4579    226.4997   1.4670708037e+02   2.5068092006e+01    0.2372548    0.1380101 -89.38  0.001178047    1.494    0.331
        22  -9.1954    152.7254    212.9454   1.2400643660e+02   1.0342973195e+01    0.1650788    0.1461935  56.71 0.0002976571    1.095    0.087
        23 -10.6433     32.7893    205.8801   1.4622972883e+02   2.9409909888e+01    0.2337937    0.1491171  79.36 0.0009375834    1.225    0.183
        24 -10.4921    193.3002    195.1912   1.1338582925e+02   5.7711011720e+00    0.7261348    0.3622065 -62.29  0.002091125    7.294    0.863
        25 -11.6630     71.3176    196.2938   1.3806415242e+02   2.6535223401e+01    0.3422883    0.2439595 -48.42  0.002068409    1.970    0.492
        26  -9.6349     66.3781    195.6724   1.3898917068e+02   2.7330221430e+01    0.2352415     0.131993  60.09 0.0006895939    1.558    0.358
        27 -11.7171     76.0465    189.0502   1.3633553571e+02   2.7334883724e+01    0.2599355    0.2220495 -64.59 0.0006367419    1.386    0.279
        28 -11.1634     84.5187    176.8385   1.3307576803e+02   2.8634376061e+01    0.2425805    0.2051923 -88.99 0.0004438554    1.100    0.091
        29 -13.3140     72.1371    174.5798   1.3549996937e+02   3.0906467995e+01    0.4474288    0.2704479 -46.66  0.001552836    2.246    0.555
        30 -12.8739     50.4871    129.8726   1.3474373639e+02   4.3689878283e+01    0.6496394    0.2994081  36.50  0.002386375    2.330    0.571
        31 -11.0060    163.0344    248.7871   1.2681063437e+02   3.3222393928e+00    0.2650431    0.1847068  44.35  0.001102412    1.085    0.079
        32  -9.5451    105.0197    147.0261   1.2373898046e+02   3.1811624249e+01    0.2671313    0.1791468 -33.51  0.001229588    2.151    0.535
        33 -12.0715     91.4086    150.7877   1.2769490427e+02   3.3246556886e+01    0.2655632    0.2555362 -41.75 0.0004784857    1.288    0.224
        34 -12.3208     46.2596    148.4841   1.3827559400e+02   3.9930586519e+01    0.5193822    0.2753193 -71.51  0.002363392    1.633    0.388
        35  -9.6537    134.0000    145.9883   1.1659321151e+02   2.6604403310e+01    0.5557854   0.08347712 -49.58  0.001248877    6.895    0.855
        36  -8.6919    192.3468    144.1908   1.0342061755e+02   1.4548300509e+01    0.1947348    0.1350969 -48.60 0.0003726081    1.582    0.368
        37  -9.9824    112.3599    136.5309   1.1991527357e+02   3.2835641958e+01    0.2939608    0.2396925 -24.84 0.0009621569    1.619    0.382
        38 -13.9476     11.5053    207.0249   1.5007164150e+02   3.1376300438e+01     1.038605    0.7793909  41.98  0.003131256    1.594    0.373
        39 -12.5725     90.8616    167.9543   1.3045777134e+02   2.9557562401e+01     1.910275    0.5200622  49.93  0.003412582    3.920    0.745
        40  -9.3232    108.9266    123.7030   1.1808864911e+02   3.6350146459e+01    0.1951293    0.1772235  60.47 0.0003889596    1.097    0.088
        41 -13.0699     47.5975    230.2119   1.4521868789e+02   2.3218738823e+01    0.4134052    0.2973719  62.97 0.0009110759    1.084    0.078
        42 -10.6977    100.0884    133.9091   1.2249728931e+02   3.5617305228e+01     0.280821    0.2399918 -30.34 0.0004657869    1.458    0.314
        43 -11.1100    168.3620    113.3398   1.0107765575e+02   2.5851535191e+01    0.4187356    0.3332746 -82.27  0.001102308    1.575    0.365
        44 -10.0739    102.4797    151.4379   1.2513529619e+02   3.1270610673e+01    0.3161421    0.2566189 -47.02   0.00091077    1.400    0.286
        45  -9.9340    229.1529    229.2649   1.1264367108e+02  -4.9388673646e+00    0.1773606    0.1555711 -70.70 0.0007527434    2.022    0.506
        46 -10.6939    238.2175    248.4046   1.1406767644e+02  -8.3424878196e+00    0.1545414   0.08557852  43.41 0.0009520849    1.674    0.403
        47 -13.9375     32.5560    245.8217   1.4856372446e+02   2.2300785910e+01     1.797941    0.5708235  43.34   0.01023306    2.387    0.581
