#   1 NUMBER                 Running object number                                     
#   2 MAG_AUTO               Kron-like elliptical aperture magnitude                    [mag]
#   3 X_IMAGE                Object position along x                                    [pixel]
#   4 Y_IMAGE                Object position along y                                    [pixel]
#   5 X_WORLD                Barycenter position along world x axis                     [deg]
#   6 Y_WORLD                Barycenter position along world y axis                     [deg]
#   7 A_WORLD                Profile RMS along major axis (world units)                 [deg]
#   8 B_WORLD                Profile RMS along minor axis (world units)                 [deg]
#   9 THETA_WORLD            Position angle (CCW/world-x)                               [deg]
#  10 FWHM_WORLD             FWHM assuming a gaussian core                              [deg]
#  11 ELONGATION             A_IMAGE/B_IMAGE                                           
#  12 ELLIPTICITY            1 - B_IMAGE/A_IMAGE                                       
         1 -14.6171     11.3410     33.5079   6.8317806563e+01   7.0367458502e+01    0.8606527    0.5710148 -56.36  0.004976117    1.258    0.205
         2 -14.0968     22.6255     33.2621   6.1430048245e+01   6.9507303723e+01    0.4569826     0.368399 -73.24  0.002702752    1.546    0.353
         3 -14.1020     30.4360     25.7320   5.3346270303e+01   7.0227660859e+01    0.7212811     0.469073 -43.92  0.003352024    1.353    0.261
         4 -14.2972    201.4837      8.0518   2.0818652326e+00   3.3877515246e+01      1.86809    0.5073459 -47.58  0.006838571    3.070    0.674
         5 -14.5187      5.8290     16.3166   6.4882522646e+01   7.4443986692e+01    0.9093741    0.6864857 -86.67  0.005395294    2.037    0.509
         6 -14.9595    161.5428     10.2985   6.6086011514e+00   4.3444919692e+01     1.764357     1.018407 -62.01  0.008185185    1.841    0.457
         7 -13.1804    176.1178      2.0305   2.4716553273e+00   4.0609005823e+01     1.010674    0.2276545  75.29  0.003147643    4.349    0.770
         8 -14.8698     36.5253      8.9033   4.0070574270e+01   7.2307495900e+01     1.115831     1.038228  -8.76  0.006694473    1.262    0.208
         9 -14.8468     56.6801     11.4336   3.1621410764e+01   6.8455300080e+01     1.126458    0.4736981  47.61  0.004873658    2.373    0.579
        10 -14.3801     68.9809      8.9913   2.5337804695e+01   6.6280488654e+01    0.6847774    0.6369304  72.46  0.004250612    1.323    0.244
        11 -13.1466      9.9515      3.6900   5.4585506599e+01   7.6511774036e+01    0.4025069    0.3729195  13.26  0.002658233    1.418    0.295
        12 -12.9881    119.5075      3.6876   1.0070065372e+01   5.4833882758e+01    0.4517837     0.275242 -85.73  0.002086873    1.985    0.496
        13 -13.9819     54.9386    209.3858   8.1494891108e+01   2.1608734195e+01    0.7959738    0.5647269 -73.99  0.004941418    1.440    0.306
        14 -14.5670      3.4941    248.1784   9.3411305247e+01   1.9425986750e+01     0.978027    0.5672821  35.90  0.006932681    1.614    0.380
        15 -13.9396      4.5863    235.8069   9.2865503719e+01   2.1580641903e+01    0.9292557    0.3019111  59.41  0.004943969    2.258    0.557
        16 -15.5745      8.3704    216.0508   9.1487504965e+01   2.5104400556e+01      2.03177    0.7089053 -88.31  0.009914413    2.635    0.621
        17 -15.2310     15.3050    212.2247   8.9955761596e+01   2.5249470839e+01     2.746386    0.6099912 -86.33  0.009348562    5.238    0.809
        18 -11.9932    100.0742    214.8102   7.2263391778e+01   1.4628134650e+01     0.352956    0.1295251  43.16  0.001518279    2.340    0.573
        19 -13.1368     78.2095    211.6854   7.6657956551e+01   1.8214214282e+01    0.4630096    0.2932875  55.13  0.002424017    1.431    0.301
        20 -13.2903    164.9632    202.4034   5.6762897939e+01   7.3131818572e+00     0.407216     0.290719 -18.99  0.002286841    1.545    0.353
        21 -14.2144    121.7454    186.2171   6.3599454048e+01   1.7231658775e+01    0.7463051    0.6316649 -52.35  0.004019554    1.243    0.195
        22 -13.7960    107.8835    206.7624   6.9609239098e+01   1.5105180827e+01    0.7372994    0.3622714  47.12  0.003480979    1.928    0.481
        23 -13.8552     86.2000    189.6116   7.2416849038e+01   2.1859654701e+01     0.734763    0.4887739  49.48  0.003912744    1.390    0.281
        24 -13.9201     88.1173    182.9349   7.1107287534e+01   2.3099373407e+01     1.010094    0.3087049  34.33  0.003582781    3.101    0.677
        25 -14.8570    159.9711    184.4214   5.4748992514e+01   1.1373613885e+01    0.9140148    0.6783186 -57.54  0.004895219    1.616    0.381
        26 -13.0248      4.7276    187.7258   9.1084402424e+01   3.1544355060e+01    0.3959311    0.2381376  57.18 0.0009063516    1.350    0.259
        27 -12.6370     31.2943    186.2711   8.5022612337e+01   2.9401917155e+01    0.4412058    0.3481462  68.40  0.001921856    1.044    0.042
        28 -12.0623     59.3112    184.5742   7.8260565107e+01   2.6607997442e+01    0.4153485    0.2787237  40.75  0.002284858    1.415    0.293
        29 -13.2637     66.2187    178.1500   7.5881327029e+01   2.7248317505e+01    0.5606484    0.4588271  28.48  0.002614475    1.383    0.277
        30 -13.5922     62.8054    173.3015   7.6174799898e+01   2.8862974683e+01     0.935031      0.55449  25.29  0.004489194    1.983    0.496
        31 -12.4851     54.1811    174.4552   7.8469885284e+01   2.9659991686e+01    0.4402074    0.3644224  29.49   0.00196952    1.388    0.280
        32 -13.1727     16.6734    182.8797   8.8167464545e+01   3.1617377549e+01    0.4605071    0.3932481 -30.31  0.003033067    1.717    0.418
        33 -12.4017     13.9982    179.9961   8.8616481079e+01   3.2535478054e+01    0.3580449    0.2602976 -37.76  0.002124572    2.036    0.509
        34 -15.3749    242.8954    163.6113   3.5071857139e+01   1.8523268144e+00     2.154142     1.187462 -51.45  0.009759713    2.990    0.666
        35 -15.3729    246.9230    132.8869   2.8005705558e+01   5.9882036442e+00     2.149495     1.011452 -35.74   0.01033228    1.687    0.407
        36 -14.2417    143.6740    162.5027   5.4298124590e+01   1.8633665092e+01    0.9418554    0.5619551 -19.22  0.003572591    2.834    0.647
        37 -14.5584    135.2101    171.8558   5.8045233469e+01   1.8087041037e+01     1.129545      0.77176  57.37  0.005386208    1.748    0.428
        38 -15.1102    135.9568    153.5035   5.4337218577e+01   2.2025869882e+01     1.752433     1.098249 -36.96  0.007723124    1.726    0.420
        39 -12.9148    227.8088    173.3202   3.9492047038e+01   2.5640835775e+00    0.3514773    0.1895919 -36.54  0.001819852    1.664    0.399
        40 -13.2631      8.2231    171.9485   8.9518266119e+01   3.4945671431e+01    0.5647927    0.3992107   8.99  0.002908986    2.049    0.512
        41 -12.0062     22.7137    171.9487   8.6038009980e+01   3.3667992935e+01    0.3360119    0.2212155  66.68  0.001276784    1.301    0.231
        42 -14.3783    154.8766    166.3818   5.2492479851e+01   1.5824530119e+01     1.119334    0.6380877 -26.49  0.004580842    2.348    0.574
        43 -14.2969    222.0580    165.6584   3.8946755911e+01   4.6400300485e+00     1.009798    0.4752692 -20.11  0.004051544    2.816    0.645
        44 -13.3835     94.4300    167.2666   6.7290680467e+01   2.5842404801e+01    0.6397852    0.3792875 -59.36  0.002966181    1.663    0.399
        45 -12.1409     41.1683    166.3134   8.0943350160e+01   3.3180918475e+01     0.313807    0.2938518 -19.30  0.001161018    1.422    0.297
        46 -11.4951     48.2531    161.0070   7.8541316876e+01   3.3720236409e+01    0.2247205    0.2089029  17.20 0.0007798221    1.354    0.261
        47 -14.2421     33.9053    149.6320   8.1203884754e+01   3.8222179606e+01     1.388388    0.9772647 -60.71  0.007583718    1.402    0.287
        48 -15.2054     13.1947    141.7264   8.6237063197e+01   4.2142103622e+01     1.331353    0.6957477 -80.28  0.004719543    1.559    0.358
        49 -11.6390      2.7721    153.4726   8.9827526271e+01   3.9910275325e+01    0.2848338     0.220681 -87.19  0.001420244    1.094    0.086
        50 -11.2253     70.1475    153.0454   7.1577054261e+01   3.2977976191e+01     0.258929    0.2114418  36.82  0.001391059    1.311    0.237
        51 -10.2302     61.2962    153.3213   7.4059075848e+01   3.4093986535e+01    0.1412927    0.1053501 -41.30 0.0004824365    1.617    0.382
        52 -12.8120     45.9583    148.8075   7.7748966846e+01   3.7143399155e+01    0.4224579    0.2895374 -20.60  0.001263861    2.293    0.564
        53 -12.2865     70.0527    147.6572   7.0787160791e+01   3.4391436033e+01     0.497465    0.2794004 -43.23  0.001783667    2.149    0.535
        54 -13.2836     80.5265    173.5821   7.1737008359e+01   2.6388876930e+01    0.5039435    0.4399593  45.06  0.002456197    1.150    0.131
        55 -13.4292     59.1291    138.4572   7.2522424722e+01   3.8296395594e+01    0.7585449    0.5318626 -56.45  0.003736829    1.372    0.271
        56 -13.5206     22.7723    147.5238   8.4074520621e+01   3.9831173681e+01    0.5823404     0.502579  46.93  0.002853226    1.281    0.219
        57 -12.6961    107.1365    135.7639   5.8120823516e+01   3.1544154991e+01    0.8221407    0.4913391  64.29  0.003130326    2.404    0.584
        58 -13.9191     37.4064    131.3018   7.8047011698e+01   4.2748477340e+01    0.9698244    0.6345707 -51.83  0.004106783    1.559    0.358
        59 -11.5815     75.3139    134.5796   6.7059339609e+01   3.7088716458e+01    0.2626605    0.2347036 -57.47  0.000421123    1.123    0.110
        60 -12.6290     54.8356    127.9550   7.2156234555e+01   4.1676643463e+01    0.4458771    0.3007795 -63.64  0.001688254    1.311    0.237
        61 -13.6855     48.8485    124.1824   7.3431328783e+01   4.3428995548e+01    0.8133653    0.4926755 -72.69  0.003413987    1.471    0.320
        62 -11.4010      1.9676    127.4781   8.8356456749e+01   4.6656169914e+01    0.2777872    0.1467347  82.65  0.001377418    1.635    0.388
        63 -12.8842     11.8140    122.7017   8.4971015686e+01   4.7280706400e+01    0.6815168    0.3908841 -60.39  0.003374137    1.560    0.359
        64 -11.9619     23.7420    177.4118   8.6172101339e+01   3.2249666169e+01    0.2710585    0.2400588 -31.94  0.001591732    1.586    0.369
        65 -12.9302     41.7304    115.4721   7.4340281990e+01   4.6614312223e+01    0.6086262    0.4319504 -50.95  0.002525042    1.382    0.276
        66 -12.2048     10.7999    104.7694   8.3402196574e+01   5.2175839007e+01    0.3632613    0.2392396  81.51  0.001930673    1.428    0.300
        67 -11.8388      8.1643     98.3221   8.3569031811e+01   5.4072173817e+01    0.2090564    0.1551065 -44.18  0.001033803    1.432    0.302
        68 -12.3599    250.2875     72.9602   1.3916067387e+01   1.4763671483e+01    0.4587186   0.09466331 -33.80  0.001445675    3.738    0.732
        69 -13.2673      5.0912     69.1364   8.0608450564e+01   6.1968778019e+01    0.6321712    0.3859686 -55.51  0.003078772    1.321    0.243
        70 -12.6413    189.9689     52.3277   1.5993992068e+01   3.0824188256e+01    0.3556022    0.3030574  77.28  0.001937918    1.262    0.207
        71 -14.0667     26.7434     42.7883   6.2855633273e+01   6.6987779670e+01    0.9910952     0.663308  18.70  0.005396802    1.700    0.412
        72 -13.4642    172.4095     44.4445   1.6219797960e+01   3.6325219120e+01    0.9179058    0.6811579 -78.34  0.004503819    1.492    0.330
        73 -13.1414     12.9588     45.1792   7.1213306512e+01   6.7543631979e+01    0.4603142     0.299082 -75.69  0.002207246    1.616    0.381
        74 -11.2224     47.5004    233.5027   8.4709555432e+01   1.7644304665e+01    0.1162755   0.08941357  58.72 0.0003136061    1.005    0.005
        75 -12.6106    239.1763     45.7265   8.5329350213e+00   2.0861340350e+01    0.3623651     0.206758  51.15  0.001454358    2.281    0.562
        76 -12.4444     62.7172    225.3620   8.1112708950e+01   1.7432326927e+01    0.3640881    0.1772531  46.25  0.001956505    1.654    0.395
        77 -11.5203     70.0265    222.5102   7.9378789959e+01   1.7091970158e+01    0.1899196    0.1028279  36.89  0.001038202    1.607    0.378
        78 -13.3832     64.1507     25.3120   3.6165526384e+01   6.4994655106e+01    0.5165542    0.4731357  87.93  0.003015912    1.490    0.329
        79 -13.5863    164.7689    214.5031   5.8700433339e+01   5.3040167259e+00    0.4025115    0.2601327 -52.48  0.002252122    1.919    0.479
        80 -13.2709    125.7592    214.7198   6.6772478758e+01   1.0979240639e+01    0.7190134    0.2679563 -62.61  0.002710894    4.089    0.755
        81 -15.0951    147.0022    211.9033   6.1931204923e+01   8.3585118339e+00    0.8836338    0.7833619  -0.38  0.005283222    1.137    0.120
        82 -15.1366    107.8252    195.4080   6.8141857617e+01   1.7439825634e+01     1.495486    0.5904863  41.79  0.006202529    2.282    0.562
        83 -14.4763    112.0864    179.5313   6.4832817223e+01   2.0221415831e+01    0.9938128    0.8346436 -11.24  0.005166896    1.470    0.320
        84 -12.5618    105.1954    171.1017   6.5182307995e+01   2.3240762844e+01     0.607514    0.4268459  80.33  0.002893047    1.796    0.443
        85 -15.5851    135.5502    195.4475   6.1912853752e+01   1.3164744423e+01     1.300683     1.030825 -76.31  0.006771762    1.598    0.374
        86 -14.3295    125.3771    199.2621   6.4732316185e+01   1.3989125832e+01    0.9248697    0.5589793  69.43   0.00400811    2.790    0.642
