#   1 NUMBER                 Running object number                                     
#   2 MAG_AUTO               Kron-like elliptical aperture magnitude                    [mag]
#   3 X_IMAGE                Object position along x                                    [pixel]
#   4 Y_IMAGE                Object position along y                                    [pixel]
#   5 X_WORLD                Barycenter position along world x axis                     [deg]
#   6 Y_WORLD                Barycenter position along world y axis                     [deg]
#   7 A_WORLD                Profile RMS along major axis (world units)                 [deg]
#   8 B_WORLD                Profile RMS along minor axis (world units)                 [deg]
#   9 THETA_WORLD            Position angle (CCW/world-x)                               [deg]
#  10 FWHM_WORLD             FWHM assuming a gaussian core                              [deg]
#  11 ELONGATION             A_IMAGE/B_IMAGE                                           
#  12 ELLIPTICITY            1 - B_IMAGE/A_IMAGE                                       
         1 -13.5519    220.9823      5.4110   1.1225404206e+01   2.9062388596e+01     3.671952    0.2542332  67.95  0.009349138    6.432    0.845
         2 -13.2667    227.3732     15.3691   1.3013233903e+01   2.6360763404e+01     0.931457    0.5915136 -20.84  0.004722946    2.013    0.503
         3 -12.7798    209.6841      8.1902   1.3016386303e+01   3.1570609695e+01    0.6847826     0.517052   3.61  0.003695352    1.945    0.486
         4 -12.5811    199.9150      3.1779   1.2743631970e+01   3.4575953677e+01     1.238501    0.3175152  75.09  0.003841606    4.036    0.752
         5 -12.6479    236.5002     29.8915   1.5550720863e+01   2.2339904411e+01    0.6100957     0.420085 -29.26  0.002848286    1.607    0.378
         6 -13.0545    237.4144      5.0806   9.7188337366e+00   2.5140033947e+01     1.082669    0.6911704  55.70  0.005926633    1.782    0.439
         7 -13.9626    239.5220     17.4089   1.2346098782e+01   2.3201336325e+01     1.216883     1.131317 -68.21  0.007938003    1.186    0.157
         8 -12.5062    248.4411     15.1325   1.1051202072e+01   2.1404364152e+01    0.8482289    0.4805812 -35.73   0.00446623    1.723    0.420
         9 -11.7125    111.1696     19.2554   3.2965835758e+01   5.5082669414e+01    0.5070044    0.3133009 -15.94   0.00211446    1.828    0.453
        10 -11.2644    151.4471     18.7715   2.4108267540e+01   4.5418967207e+01    0.4159749      0.29915  84.64  0.001997699    1.501    0.334
        11 -10.0108     39.2291      9.1748   5.3472338285e+01   6.9059517364e+01     0.189153    0.1410374 -22.38 0.0007980556    1.156    0.135
        12 -10.8591     37.7346     17.3866   5.7859432648e+01   6.8057290517e+01    0.3762252    0.1909097   7.51  0.001740005    3.097    0.677
        13 -11.5241     43.6467     12.0943   5.2867394349e+01   6.8100171205e+01    0.2516149    0.1850427 -14.42 0.0004022426    1.153    0.133
        14 -10.9786     45.7248      9.3094   5.0667887098e+01   6.8201921480e+01    0.1923067    0.1590568 -12.28 0.0001929572    1.113    0.102
        15 -10.1347    137.0387     16.0108   2.5909340933e+01   4.9343073429e+01    0.3345475    0.2088633 -18.88 0.0007779549    1.841    0.457
        16 -10.6396    101.9950     15.1100   3.3749090685e+01   5.7567554257e+01    0.5883709    0.3053828  16.40  0.002318612    3.144    0.682
        17 -13.0545    244.8570     32.0013   1.5190049753e+01   2.0094238665e+01    0.9964417    0.6367286  19.86  0.004189052    3.412    0.707
        18 -12.2571    187.0266     13.8089   1.7141995825e+01   3.6757654357e+01    0.3001777    0.2557873 -79.61  0.000347302    1.102    0.093
        19 -11.8538    182.7671     12.5820   1.7351956682e+01   3.7998705730e+01    0.3362889    0.2914165  75.64 0.0008526975    1.040    0.038
        20 -10.5942    131.9707     14.2476   2.6315876619e+01   5.0774929689e+01     0.278555    0.2137265 -54.72  0.001509156    1.539    0.350
        21 -10.1312    125.7089     14.3061   2.7664476151e+01   5.2276413224e+01    0.2468496    0.1863415 -48.38 0.0001708773    1.548    0.354
        22 -11.0797    123.2375     11.1578   2.7042604242e+01   5.3192963326e+01    0.4055678    0.2304442  49.90   0.00163796    1.540    0.351
        23 -10.8614     83.5429     13.1342   3.8336156047e+01   6.1536598471e+01    0.2191954     0.188436  19.34 0.0001951379    1.012    0.012
        24  -9.9867     63.0517     10.2091   4.4104570662e+01   6.5510828900e+01    0.1919152    0.1415858 -10.87 0.0003979131    1.241    0.194
        25 -10.9173     58.2817     13.0160   4.7221156059e+01   6.5909892334e+01    0.5686474    0.2894971  54.58   0.00258965    3.272    0.694
        26 -10.6394     24.5493     13.1085   6.2175381009e+01   7.0095810383e+01    0.2186453    0.1620819  -6.41  0.000358502    1.197    0.165
        27 -10.1793    144.5993     12.1980   2.3160093236e+01   4.7865162414e+01    0.3189124    0.1991816 -62.75  0.001191076    2.092    0.522
        28 -11.5708     30.7544     11.4116   5.8436177000e+01   6.9722274764e+01    0.2765105    0.1757455 -32.41 0.0009253851    1.331    0.248
        29  -9.8267    176.2292     12.2026   1.8129348199e+01   3.9738869960e+01    0.2018969    0.1719188  59.73  0.000362488    1.137    0.120
        30 -10.2290    157.8428     11.1198   2.0545531510e+01   4.4609992092e+01    0.3267158    0.2151638 -62.17  0.001091287    1.783    0.439
        31 -10.6222    149.4891     11.9694   2.2215585230e+01   4.6654395428e+01    0.2950941     0.181716  58.15 0.0004279614    1.418    0.295
        32 -10.7302    153.2604      9.5804   2.0795772372e+01   4.5939415189e+01    0.2460876    0.1993474  76.00 0.0006138634    1.152    0.132
        33 -10.7746    150.3788      6.1540   2.0151538753e+01   4.7008436779e+01    0.2908771    0.2406171 -59.92 0.0005773286    1.330    0.248
        34 -10.9062    153.7739      3.4105   1.8719784093e+01   4.6404743244e+01    0.3818055    0.2614059  64.12  0.001766805    1.262    0.208
        35 -10.5303    134.9068      9.9006   2.4187030239e+01   5.0506723084e+01    0.2001427    0.1750008  51.31 0.0002992178    1.027    0.026
        36  -9.5933     76.4985      9.4450   3.9002751640e+01   6.3276709345e+01    0.1755816    0.1116212  -9.83 8.140011e-05    1.647    0.393
        37 -10.2963     77.1283      5.1239   3.6851471239e+01   6.3630955678e+01    0.2944008    0.2133095 -62.16  0.001404181    2.461    0.594
        38 -12.1353    127.6991      4.4458   2.3646426171e+01   5.2780646722e+01    0.3501085    0.2865396 -59.79  0.002041621    1.453    0.312
        39  -9.7067    103.0011      7.9530   3.0588700587e+01   5.8114313117e+01    0.1901483     0.157789 -76.98  0.001040107    1.639    0.390
        40  -9.2149     73.2855      8.6973   3.9748525805e+01   6.3942196720e+01    0.1081079   0.09838335 -56.79 0.0001536678    1.558    0.358
        41  -9.5426     22.7589      8.0244   6.0791153826e+01   7.1029611428e+01    0.1482985    0.1116573 -20.42 0.0002848542    1.028    0.027
        42 -11.0122    167.8099      5.7585   1.7384003400e+01   4.2582130757e+01    0.3922924    0.3008529   0.70  0.001254375    1.667    0.400
        43  -9.8077    178.9877      5.9764   1.5948967860e+01   3.9670749572e+01    0.1924695    0.1678554  87.81 0.0003355494    1.037    0.035
        44 -10.4581    175.9814      2.9927   1.5470153626e+01   4.0741556174e+01    0.2348972    0.2044386  -5.95 0.0005127584    1.414    0.293
        45 -11.1004     34.4328      4.0205   5.3203465175e+01   7.0331279330e+01    0.3709674    0.1742546 -32.63  0.001959423    1.886    0.470
        46 -11.6321      3.5279      4.1895   6.9215616246e+01   7.3144218891e+01    0.2328655    0.1875192 -22.77 0.0002792903    1.151    0.131
        47 -10.9074      7.4845      2.4948   6.6286985282e+01   7.3133025391e+01    0.2141224    0.1273587 -30.12 0.0008622918    1.287    0.223
        48  -9.8730     47.1957      5.5989   4.8263064021e+01   6.8474744042e+01    0.2227862    0.1047731  36.30 0.0005601452    2.077    0.519
        49  -9.6651     50.0000      3.9817   4.6297105607e+01   6.8270902943e+01    0.2228753    0.1233504 -28.29  0.001080551    1.687    0.407
        50 -11.0559     89.2487      3.0518   3.2247157878e+01   6.1482295345e+01     0.367903    0.2095046  58.08 0.0009972689    1.793    0.442
        51 -10.4904     16.6489      3.1073   6.1635961975e+01   7.2306134248e+01    0.2436129    0.1777109 -59.41   0.00133097    2.332    0.571
        52 -11.0549     40.6355      2.7249   4.9714390953e+01   6.9719567990e+01    0.2422771    0.1871412  49.62  0.001214081    1.955    0.488
        53  -9.6515    138.5035      1.4730   2.0582483398e+01   5.0412210381e+01    0.1361915    0.1177572  57.44 -6.174248e-05    1.013    0.013
        54 -10.0103    115.7605      8.0470   2.7534755027e+01   5.5249614755e+01    0.1760069     0.170131  66.22  0.000392574    1.147    0.128
        55  -9.9010    115.8470      1.0000   2.4802919467e+01   5.5882319834e+01    0.3765933   0.06703447  62.38  0.001058956    5.004    0.800
        56 -11.7836     81.0520    103.1396   6.9124640830e+01   4.5444406624e+01    0.2676027    0.2444746  88.04            0    1.122    0.109
        57 -13.1977      8.8445    248.5864   1.0133574674e+02   2.3096214704e+01    0.6401415    0.3116045  40.64  0.004344293    2.035    0.509
        58 -11.1621    249.7118    104.0084   3.1326995106e+01   8.0944472270e+00    0.2097206    0.1731711 -38.43  0.001175727    1.104    0.094
        59  -9.4190    114.2239    104.3781   5.9872435107e+01   3.9226659863e+01    0.2059657    0.1404994  54.64 0.0003625072    1.557    0.358
        60  -9.7147     16.7919    104.3972   8.8656576778e+01   5.2384248346e+01    0.1346909    0.1126917 -18.49 0.0002499151    1.535    0.349
        61  -9.9477      8.8200    104.2341   9.0932427727e+01   5.2962538750e+01    0.1677533    0.1108941 -54.04 0.0007882472    1.378    0.274
        62  -8.9662    131.3172    103.6915   5.5104571725e+01   3.5789153580e+01    0.1586476    0.1223032  89.74 0.0004210306    1.635    0.388
        63  -9.6676    106.6549    103.3884   6.1732625174e+01   4.0930248617e+01    0.2009303    0.1438992  32.90 0.0006754638    1.566    0.362
        64  -9.2680    127.2461    101.9640   5.5717573577e+01   3.7049159716e+01    0.1886536    0.1299522 -48.52 0.0002485754    1.444    0.308
        65  -9.3805    143.4942    100.4757   5.1142078958e+01   3.3735389058e+01    0.1550829    0.1532521  53.69 3.088927e-05    1.048    0.046
        66 -11.5060    101.3588     97.8167   6.1815313298e+01   4.3176554051e+01    0.3669724    0.2679678  49.56  0.001806044    1.433    0.302
        67 -10.2923     86.7571     97.7360   6.6111293735e+01   4.5759887459e+01    0.2843851    0.1946583 -55.30  0.001264243    1.380    0.275
        68 -10.3358     26.8860     96.9793   8.4491776156e+01   5.3286015553e+01    0.1827952    0.1494168 -71.07 0.0004033506    1.041    0.040
        69  -9.4661    116.7136     96.0448   5.6983675624e+01   4.0557305166e+01    0.2022695    0.1898309 -65.55 0.0002761925    1.055    0.052
        70 -10.8565    107.9342     96.0055   5.9443719553e+01   4.2325955891e+01     0.292129    0.2103798  51.13  0.000382404    1.450    0.310
        71  -9.3899     81.5175     94.4922   6.6892188590e+01   4.7340455199e+01    0.1411316    0.1305895 -67.42 0.0008098033    1.054    0.051
        72 -10.3738     17.0501     92.3625   8.6783397392e+01   5.5072057127e+01    0.2268474    0.1400356 -83.58  0.001317866    1.587    0.370
        73  -9.2158      9.6046     93.2773   8.9217547467e+01   5.5356565446e+01    0.1156794   0.07687536  67.72 0.0006992752    1.748    0.428
        74 -12.3914     34.9447     89.4427   8.0570588160e+01   5.4287481458e+01    0.2683525    0.1970931 -69.58 0.0008598134    1.213    0.175
        75 -10.4628     33.7868     83.9493   7.9846132366e+01   5.5619607848e+01    0.2719253    0.1569068 -62.66 0.0008242359    1.460    0.315
        76 -11.3759     12.9144     88.1109   8.7406786908e+01   5.6293270848e+01    0.1882975    0.1520215 -78.61   0.00131449    1.132    0.117
        77  -9.2323    139.3027     88.6607   4.8915805876e+01   3.7151736760e+01    0.1607549    0.1229659 -80.79 0.0003975158    1.672    0.402
        78  -9.7066    120.6910     87.9881   5.3639846215e+01   4.1442996612e+01    0.2126427    0.1921858 -49.41 0.0003378152    1.096    0.088
        79 -10.2424     84.1549     87.2226   6.4190124847e+01   4.8531849686e+01    0.2691643    0.1938756 -57.72 0.0006337475    1.364    0.267
        80  -9.4509     54.6359     88.6625   7.3999682635e+01   5.2388459500e+01    0.1405445   0.09193254 -30.29 0.0007033349    1.830    0.454
        81  -9.1254    131.3000     86.2940   5.0299435000e+01   3.9464887822e+01    0.1515168    0.1233506   6.93 0.0004010405    1.569    0.363
        82 -12.1909    105.3873     80.7202   5.5890914884e+01   4.6096255113e+01    0.6417812    0.3912033 -26.65   0.00152356    2.172    0.540
        83  -9.7303    187.7667     83.0162   3.6523774379e+01   2.6301646401e+01    0.2089606    0.1952596 -57.70 0.0001986719    1.058    0.055
        84 -10.1488    111.8718     82.6621   5.4575922344e+01   4.4394893839e+01    0.2319026    0.1853133  25.20 0.0003946848    1.420    0.296
        85 -11.0351     79.3045     81.3521   6.4127310190e+01   5.0588100191e+01    0.4359885    0.2906774   3.89  0.001954731    2.370    0.578
        86  -9.1492      1.4820     83.4776   9.0331587748e+01   5.7961173215e+01    0.1155424   0.08727336 -65.17 0.0002997742    1.025    0.025
        87 -11.2443     54.0940     81.1345   7.2388047591e+01   5.4125411858e+01    0.2439796    0.1864562 -58.42 0.0003900173    1.181    0.153
        88  -9.7103     86.9349     80.2403   6.1385727974e+01   4.9576698657e+01    0.1849559    0.1775337 -31.80 0.0002929138    1.029    0.028
        89  -9.4830     31.5141     78.9964   7.9576963271e+01   5.6912348539e+01    0.1645349   0.09912048 -89.20 0.0006092335    2.342    0.573
        90  -9.0691     23.2676     79.3133   8.2452024757e+01   5.7510475378e+01    0.1231708   0.07327072 -43.81 0.0002610033    1.547    0.354
        91  -9.0201    186.7306     76.2868   3.4878601337e+01   2.7765001868e+01    0.1535058    0.1166952 -72.08            0    1.502    0.334
        92  -9.4876     61.2057     76.1878   6.8707564425e+01   5.4311641123e+01    0.1651805    0.1482864  80.08 0.0003548373    1.320    0.242
        93 -11.4796     45.3249     73.1578   7.3419310246e+01   5.6847999019e+01    0.3177431    0.2660775 -40.36  0.001984883    1.088    0.081
        94 -10.0933    151.9973     73.1943   4.1295936142e+01   3.7106682967e+01     0.257603     0.217334 -43.10 0.0003363645    1.207    0.172
        95 -10.0056     76.5141     75.0000   6.3241809330e+01   5.2376628467e+01    0.2839788   0.07907087  37.62 0.0009264956    3.868    0.742
        96 -10.3710     56.8626     72.7126   6.9264194074e+01   5.5608513689e+01    0.3516845    0.1729619 -40.85 0.0005195418    1.987    0.497
        97 -10.8878     60.8197     70.8117   6.7363690892e+01   5.5503634000e+01    0.3424655     0.213634  25.84  0.001665044    1.848    0.459
        98 -11.4981      8.2263     73.9442   8.6583311286e+01   5.9661818134e+01    0.1896338    0.1735854 -46.41 0.0004927308    1.196    0.164
        99 -10.9473    250.0000     72.4845   2.3997999752e+01   1.3063737539e+01    0.3163573   0.07281059 -34.68 0.0009422495    3.996    0.750
       100 -11.5353    238.4572     73.1392   2.5677633517e+01   1.5572042523e+01    0.2894769    0.1886344  88.57  0.001336428    1.921    0.479
       101  -9.9178    137.4254     72.7633   4.4690530776e+01   4.0709279205e+01    0.2821935    0.2071245  42.09 0.0009212442    1.383    0.277
       102  -9.2967    136.5132     69.5169   4.3920560119e+01   4.1530220602e+01    0.2639017     0.151953 -37.21 0.0008595953    1.787    0.440
       103  -9.3498     83.5399     73.4048   6.0477564018e+01   5.1579980644e+01    0.2207178    0.1739223 -39.89  0.000123883    1.198    0.165
       104  -9.7186     81.9868     70.2762   6.0042071865e+01   5.2479085918e+01    0.1917984    0.1810966 -81.03 0.0002157834    1.202    0.168
       105  -9.3450     23.8542     72.8692   8.0935697247e+01   5.8865296042e+01    0.1470822    0.1240723 -79.11            0    1.241    0.194
       106 -10.6792     17.5225     70.7670   8.2738091641e+01   5.9769855608e+01    0.2384262    0.1701627 -55.98 0.0007926522    1.107    0.096
       107  -9.6685    142.6183     71.2132   4.2928596284e+01   3.9760325898e+01    0.2087631    0.1484741 -25.99 0.0004656981    1.606    0.377
       108 -12.0789     51.3200     69.9979   7.0476025916e+01   5.6851532865e+01    0.3073429    0.2207778 -63.51 0.0004648328    1.417    0.294
       109 -10.7530     30.7607     71.0511   7.8081332015e+01   5.8698714250e+01    0.1746593     0.161397 -35.19 0.0003528117    1.143    0.125
       110 -10.8512    155.9759     69.6741   3.9332873333e+01   3.6756778400e+01    0.3272442    0.2786411   1.21  0.001610924    1.422    0.297
       111 -10.6788     73.9375     67.6038   6.1913504463e+01   5.4302416935e+01    0.2522205    0.2048518 -42.31 0.0006218411    1.133    0.117
       112 -10.0857     34.9911     67.6615   7.5745147385e+01   5.9044839570e+01    0.2655236    0.1827897  58.48 0.0007995139    2.039    0.509
       113 -10.2086    194.8061     65.6532   3.0481136867e+01   2.7510781427e+01    0.2493664    0.2053877 -39.94  0.000241736    1.230    0.187
       114 -10.7402    180.9038     64.2273   3.2593161564e+01   3.1331093214e+01    0.3513345    0.2634069 -32.92  0.001455185    1.410    0.291
       115 -11.2351    111.0916     65.8400   4.9630171005e+01   4.7894072323e+01    0.2349419    0.2167891 -23.77 0.0002467203    1.080    0.074
       116  -9.9051     89.2589     65.6127   5.6226838023e+01   5.2165478141e+01    0.2650244    0.1901567  61.89 0.0007411973    1.831    0.454
       117  -8.9107      9.3021     66.3083   8.4788753143e+01   6.1225577174e+01    0.1201697   0.06602403 -43.09 0.0004260895    1.602    0.376
       118 -10.2065      2.5700     65.0789   8.6978456234e+01   6.1836331730e+01    0.2492958    0.1633057  83.60 0.0008836206    1.872    0.466
       119 -10.6017    161.4404     64.2651   3.6510290250e+01   3.6326268698e+01    0.3720262    0.1438491 -39.05   0.00127781    2.583    0.613
       120 -10.0476    153.0005     65.0113   3.8590425112e+01   3.8325501168e+01    0.2242741    0.2168914  42.54  0.001203715    1.057    0.054
       121  -9.6361     62.4019     63.8138   6.4768071600e+01   5.6735613928e+01    0.2503835    0.1194788 -52.88 0.0008146869    2.003    0.501
       122 -10.7148     59.2071     58.1867   6.4186474876e+01   5.8286901634e+01    0.4009667     0.332969  48.58  0.002452276    1.465    0.317
       123 -10.4522     81.1612     62.0441   5.7735354269e+01   5.4254576904e+01    0.3122794    0.1703442 -38.52  0.001420557    1.781    0.438
       124  -9.8472     44.6385     63.3568   7.1076044958e+01   5.8984620670e+01    0.1724858    0.1426805 -89.82 0.0005739099    1.578    0.366
       125 -10.2035    147.0202     61.6939   3.8934381698e+01   4.0386845768e+01    0.2527328    0.2116094   8.16 0.0003997977    1.435    0.303
       126 -12.5299    150.7656     57.5255   3.6774954015e+01   4.0160773007e+01    0.3537629    0.3146062 -67.42 0.0005504247    1.197    0.164
       127  -9.2139    167.5241     61.5677   3.4435282635e+01   3.5227322725e+01    0.1534054    0.1455055  72.46 7.988892e-05    1.011    0.011
       128 -11.6617    248.2207     58.9863   2.1077032007e+01   1.5512900062e+01    0.3123675    0.1551154 -35.99  0.001397546    1.866    0.464
       129 -10.2352    218.5782     59.1864   2.5005652745e+01   2.2530279007e+01    0.2389561    0.1882824  85.73 0.0006746511    1.282    0.220
       130  -9.6070    177.1859     64.1255   3.3272387760e+01   3.2308614950e+01    0.2073949    0.1964516 -62.04 0.0002516511    1.060    0.056
       131 -10.6858    160.4110     57.0629   3.4543201336e+01   3.7795564758e+01    0.3397006    0.2930977 -24.42  0.001120595    1.268    0.212
       132  -9.9002      8.1556     56.8501   8.3269369666e+01   6.3256056296e+01    0.1587444    0.1011687 -42.86 -0.0006383859    1.325    0.245
       133  -9.5027     27.1918     56.4111   7.5802063277e+01   6.2053210950e+01    0.1862501    0.1168208  12.81 0.0008318995    1.911    0.477
       134 -11.7844     30.5700     53.6481   7.3730790554e+01   6.2324896404e+01    0.3672903    0.2580278 -84.92  0.002096802    2.118    0.528
       135 -10.7290     19.9266     55.5074   7.8399041726e+01   6.2791503289e+01    0.2091477    0.1403738 -56.62 0.0003937521    1.228    0.185
       136  -9.9184    200.8321     54.9660   2.6564902958e+01   2.7668721023e+01    0.2168886    0.2003163  33.41 0.0004383717    1.255    0.203
       137  -9.1155     68.5665     53.9108   5.9412235855e+01   5.7796753460e+01    0.1912526    0.1007029 -26.81 0.0008054124    2.453    0.592
       138  -9.5955    178.6879     52.8440   2.9714149201e+01   3.3741544574e+01    0.2996017    0.1472991 -24.39   0.00109334    2.622    0.619
       139 -10.3546    135.1243     52.5802   3.8843984998e+01   4.4815260737e+01    0.4540383     0.258757  60.28  0.001256968    1.840    0.457
       140 -10.3546    127.9409     52.5254   4.0625206817e+01   4.6522477790e+01     0.283675    0.2021978 -53.53  0.001048765    1.613    0.380
       141 -11.9658    122.5237     50.0562   4.1201065541e+01   4.8176210285e+01    0.4181176    0.2520395 -45.00  0.001152541    1.782    0.439
       142  -9.3163     44.4964     53.5384   6.8265571068e+01   6.0977643785e+01    0.1260613    0.1049141 -33.60 -3.849324e-05    1.032    0.031
       143 -11.2144     10.8150     52.4261   8.1232801360e+01   6.4005574818e+01    0.2330435    0.2009901 -64.42 0.0005556914    1.195    0.163
       144 -11.4833      2.0987     51.0304   8.4364542319e+01   6.4745553775e+01     0.332504    0.1137378 -55.22   0.00080004    1.976    0.494
       145  -9.8474    172.9777     50.8933   3.0190284084e+01   3.5530195249e+01    0.4364639    0.2003553 -59.03  0.001351755    3.679    0.728
       146  -9.7281    117.7615     51.4011   4.2941732381e+01   4.9025459840e+01     0.193019    0.1311561  39.61 0.0001402472    1.475    0.322
       147  -9.5363    113.1852     51.4274   4.4221394277e+01   5.0024165964e+01    0.1889679    0.1382372  61.55 0.0003282682    1.544    0.352
       148  -9.5360     35.2490     50.7948   7.1055181054e+01   6.2462897695e+01    0.1655666    0.1155208 -31.42 0.0003948675    1.313    0.238
       149 -10.7577     19.3996     49.8688   7.7154462191e+01   6.3962635009e+01    0.3609007    0.2132176   4.37  0.001388225    2.086    0.521
       150  -9.2480     21.7210     47.3388   7.5518073403e+01   6.4292436266e+01    0.1252401   0.09358343 -39.29 0.0004384774    1.096    0.087
       151 -10.6568    211.6604     49.3620   2.3448844029e+01   2.5752649915e+01    0.3114969    0.2187935 -86.13 0.0006514359    1.536    0.349
       152  -9.8476    201.2764     49.8102   2.5096515575e+01   2.8337653667e+01    0.2550628    0.1899329  79.52 0.0009915075    1.339    0.253
       153  -9.7671    103.8365     49.1836   4.6147990529e+01   5.2371403842e+01    0.1989676     0.190338 -64.28 0.0004952915    1.192    0.161
       154 -10.4205    233.4932     48.4883   2.0354412881e+01   2.0492137219e+01    0.1408755    0.1260934 -70.36 0.0008104468    1.021    0.021
       155  -9.9292    193.9789     48.1739   2.5783504977e+01   3.0468634353e+01    0.2388566    0.1891639 -76.13 0.0005692233    1.298    0.230
       156 -11.8842    138.2382     47.5739   3.6441014176e+01   4.4861417433e+01    0.2858616    0.2623648 -79.17 0.0003535613    1.185    0.156
       157 -10.2351    134.4925     43.8366   3.6076339485e+01   4.6343087495e+01    0.2559318    0.1922233  54.86 0.0005766842    1.270    0.212
       158 -10.1404     27.0324     48.0075   7.3538373800e+01   6.3741572224e+01    0.1873095     0.142011 -38.34 0.0005240619    1.086    0.079
       159  -9.1773     63.7000     47.5903   5.9018813377e+01   5.9679001261e+01    0.1405177   0.09077179 -16.81 0.0004596736    1.852    0.460
       160 -12.2518    163.5227     42.6285   2.9469550682e+01   3.9222383296e+01    0.3662953    0.2833389  82.08  0.001818631    1.364    0.267
       161 -11.8559     90.8013     43.8048   4.8248436667e+01   5.5830789929e+01    0.2807577    0.2421345  24.89 0.0002652479    1.127    0.113
       162 -10.2399     38.3816     44.1744   6.7722401508e+01   6.3424403871e+01     0.223239    0.1721626 -52.56 0.0008553463    1.296    0.228
       163 -12.2905    249.2212     40.2028   1.6626522298e+01   1.7979941894e+01    0.4489868    0.3730725 -14.94  0.002613164    1.558    0.358
       164 -12.2518    239.0904     41.1519   1.7938559818e+01   2.0201914787e+01    0.3560876    0.2991115 -89.41  0.001418755    1.121    0.108
       165 -10.0760    218.1129     41.3588   2.0505094866e+01   2.5282904266e+01    0.2150226    0.1946099 -36.90 0.0003425739    1.214    0.176
       166 -10.1054     28.0710     41.1666   7.1029060124e+01   6.4965344266e+01    0.1810014    0.1285129 -31.59 0.0002954898    1.213    0.176
       167 -11.8756    229.7584     38.6428   1.8399125893e+01   2.2786944404e+01    0.4526708    0.2760065 -78.58  0.001128934    1.833    0.454
       168  -9.9235    209.5000     40.4936   2.1419091326e+01   2.7579921085e+01    0.1450535    0.1314685 -83.73 -0.0001556699    1.016    0.016
       169 -10.8888    114.7418     36.5099   3.8498807255e+01   5.2019457279e+01    0.5587851    0.2599272 -23.57   0.00181711    2.678    0.627
       170  -9.0967     75.3709     40.2408   5.2121573216e+01   5.9154411676e+01    0.1326899   0.09423836   8.82 0.0005860309    1.616    0.381
       171  -9.1546    177.6556     39.2890   2.5913130633e+01   3.6014542521e+01    0.1551318     0.108649 -74.51  0.000702399    1.653    0.395
       172 -12.4508    140.2663     37.8501   3.2725531936e+01   4.5808135821e+01    0.2994232     0.290556  28.97 0.0003643481    1.057    0.053
       173 -10.8050    123.9764     30.5818   3.3986606101e+01   5.0730661053e+01    0.2360359    0.2244386 -32.85 0.0003751352    1.134    0.118
       174 -10.5079    126.4633     37.4599   3.5823717813e+01   4.9195761313e+01    0.3667615    0.2746956  81.81  0.001491522    1.698    0.411
       175  -9.7363    126.7345     34.3031   3.4644036357e+01   4.9576573348e+01    0.1977641    0.1932329 -62.03  0.001163735    1.118    0.106
       176 -11.3759     84.5371     38.4685   4.8307909245e+01   5.7852247861e+01    0.3547833    0.2401601 -55.00 -4.52614e-05    1.982    0.495
       177 -10.5317     55.8544     38.5301   5.8740323490e+01   6.2375945153e+01    0.3253034    0.2372613  36.07  0.001444101    1.517    0.341
       178 -10.4332     54.0845     33.3466   5.7474883063e+01   6.3491838056e+01    0.2050337    0.1585845 -11.63 0.0003464381    1.208    0.172
       179 -10.9586     33.7074     37.7554   6.7516725457e+01   6.5077989923e+01       0.2937    0.2407039  57.10  0.001032048    1.830    0.454
       180 -10.3538    194.6964     37.6670   2.2751853199e+01   3.1787252447e+01    0.2748109    0.2146365 -56.53  0.001165127    1.271    0.213
       181  -9.7201     89.0228     38.2967   4.6769720176e+01   5.7051826557e+01    0.1840438    0.1598978  29.05 0.0001801656    1.118    0.105
       182  -9.9240     61.4803     34.8100   5.5152133278e+01   6.2215866340e+01    0.3188379    0.2113789 -71.56  0.001211846    3.815    0.738
       183 -13.0821    246.1901    247.3037   6.0034461563e+01  -1.1731559275e+01    0.7037944    0.3466272  39.13  0.004154901    1.730    0.422
       184  -9.4547     21.5530    104.7252   8.7314764941e+01   5.1953133859e+01    0.1669826   0.09923797 -80.76 0.0005278485    1.542    0.352
       185 -11.6831      2.2803    241.5195   1.0205357685e+02   2.4985870126e+01    0.1755088     0.153998 -62.23   0.00150403    1.964    0.491
       186  -9.0804    196.2887    229.6683   6.6081252510e+01  -1.7270682638e+00    0.1154648   0.09341405  66.29 0.0004598465    1.624    0.384
       187 -11.0460     68.8606    217.8058   8.9135992409e+01   2.1517203387e+01    0.4194859    0.2049524 -89.33 0.0007609433    2.357    0.576
       188  -9.8418     74.1686    221.2301   8.8440240319e+01   2.0104126950e+01    0.1965783    0.1581543  41.73  0.001311781    1.455    0.313
       189 -10.2489     78.7900    218.5756   8.7309047471e+01   1.9947056581e+01    0.2839828    0.1961465  30.98  0.001234658    1.907    0.476
       190 -10.5327    154.5599     34.9886   2.8795347204e+01   4.2604003264e+01    0.3193845    0.2062106  56.10  0.001118913    1.423    0.297
       191 -10.4463    169.9683     33.6094   2.5524946686e+01   3.8800618773e+01    0.2592748    0.2062158 -47.73 0.0004301638    1.309    0.236
       192  -8.9996    174.0000     32.9601   2.4644286720e+01   3.7833441814e+01    0.2298536   0.08438247 -29.76 0.0008008894    2.932    0.659
       193  -9.4311    149.2301     33.5612   2.9394285597e+01   4.4154226105e+01    0.1918543    0.1273639  50.01 0.0002740868    1.414    0.293
       194  -9.1380     68.3134     33.2767   5.1986192220e+01   6.1426707043e+01    0.1286451    0.0911006   1.13 0.0003705902    1.563    0.360
       195  -9.9248     31.9106     32.9977   6.6624503285e+01   6.6105330776e+01     0.177038    0.1406337 -29.20 0.0004839191    1.013    0.013
       196 -12.0362    132.2378     29.5338   3.1671426833e+01   4.8900749338e+01    0.3361037    0.2992584 -35.34  0.000198334    1.206    0.171
       197  -9.7514     55.9866    216.9700   9.1493668457e+01   2.3423006069e+01    0.1385516    0.1026701  80.83   0.00093487    1.108    0.098
       198 -11.5215    221.3489     15.5488   1.3656630220e+01   2.7818505182e+01    0.2915752    0.2239324  74.60  0.000126607    1.216    0.177
       199  -9.5365     77.0344     30.6911   4.7833192791e+01   6.0382624339e+01     0.177526    0.1560343  11.67 0.0005093748    1.052    0.049
       200 -10.1310     47.2473     28.7682   5.8465611508e+01   6.5129407386e+01    0.1652621    0.1452215 -10.04  0.001075788    1.104    0.094
       201 -10.8079     34.8346     26.4668   6.2896401630e+01   6.6933023880e+01    0.3859085    0.1850463 -49.45  0.001905073    2.067    0.516
       202  -9.7434     82.7351     27.4513   4.4588296177e+01   5.9839199490e+01    0.1853453    0.1136457  33.36 0.0009491866    1.617    0.381
       203  -9.4491     70.9513     26.5386   4.8305947496e+01   6.2027027697e+01     0.187521    0.1177625  37.19  0.001020622    1.572    0.364
       204  -9.4927     23.2442     23.9975   6.7219260483e+01   6.8454083463e+01    0.1525822   0.07991891 -46.25   0.00088702    1.607    0.378
       205  -9.7078     73.5594    214.2314   8.7901296910e+01   2.1553211667e+01    0.1543406    0.1071147 -65.68 0.0003766031    1.588    0.370
       206  -9.9941     99.6685     23.2259   3.7641204947e+01   5.7083179976e+01     0.225778    0.1764845  55.90 0.0009227283    1.347    0.257
       207  -9.7632    211.5831     22.3078   1.6417635461e+01   2.9447070517e+01    0.2454224    0.1155914  68.84 0.0006613639    1.953    0.488
       208 -10.9826    178.3421     20.0700   2.0137965041e+01   3.8305507279e+01    0.4265969    0.2126516 -46.36 0.0009260217    2.120    0.528
       209  -9.9548     67.3433     21.6119   4.7559548851e+01   6.3322521500e+01    0.2625928    0.1379063  32.59  0.001206019    1.933    0.483
       210 -10.4142      7.8144     21.0407   7.3522295085e+01   7.0101979720e+01    0.2614689    0.1739345 -11.83  0.001761021    1.480    0.324
       211  -9.7174    188.3075     20.6806   1.8906262571e+01   3.5634388100e+01    0.1972419     0.144632 -36.05 0.0003501319    1.447    0.309
       212 -11.5830    192.5572     18.1925   1.7648707758e+01   3.4823460104e+01    0.4374862     0.289654  58.89  0.002218763    1.431    0.301
       213  -9.4753      1.4321     21.5008   7.6801967336e+01   7.0382219976e+01    0.1069361   0.08086654 -40.74 3.509544e-05    1.050    0.047
       214  -9.3700    123.9551    206.0081   7.6804608704e+01   1.5094288160e+01    0.1491144    0.1271448  63.49 0.0009058875    1.031    0.030
       215 -11.8132     55.3704     19.5247   5.1277347100e+01   6.5453521401e+01     0.216829    0.1802125  -6.12 0.0002768593    1.005    0.005
       216  -9.5711    101.0744    176.0847   7.7489069589e+01   2.5255819998e+01    0.1762611    0.1379372  74.61            0    1.195    0.163
       217  -9.3815    234.6584    175.6818   4.9402055736e+01  -5.4716005339e-01    0.1408312   0.09645008   9.17 0.0007049248    1.714    0.417
       218 -10.9020      4.6543    163.0093   9.7525461386e+01   4.0210542665e+01    0.1757309      0.13935  68.13 0.0003476244    1.206    0.171
       219  -9.8986      3.8668    152.2583   9.6909716641e+01   4.2604435827e+01    0.2037775    0.1150349  88.88  0.000581596    1.412    0.292
       220  -9.5975      5.6421    147.9378   9.6176502533e+01   4.3416945737e+01    0.1588261    0.1168994 -89.51 0.0007277837    1.019    0.019
       221 -10.0444     29.7144    146.4720   9.0428779316e+01   4.1665349937e+01    0.2634945    0.1383774  48.70  0.000736529    1.914    0.477
       222 -10.0934     10.4351     15.6800   7.0251791551e+01   7.0840921871e+01    0.1936072   0.09211815 -54.06 0.0006601334    2.021    0.505
       223 -10.3647     11.8521    145.0571   9.4510432734e+01   4.3570343532e+01    0.1714718     0.141588  80.67  0.001240911    1.130    0.115
       224  -9.9762      2.6596    142.8378   9.6441777134e+01   4.4760043244e+01    0.1863369    0.1431479  73.47   0.00121704    1.188    0.158
       225  -9.6118     17.1108    140.6577   9.2852057220e+01   4.4126742583e+01    0.1381547     0.114346   4.75 0.0009406763    1.777    0.437
       226  -9.8432     72.0075    138.3215   7.8635612280e+01   3.8520681831e+01    0.2326604    0.1668043  84.04 0.0006449286    1.456    0.313
       227 -10.1128     29.6090    137.9452   8.9492186298e+01   4.3629395445e+01      0.17125    0.1538418 -79.85 0.0002861409    1.176    0.150
       228 -10.7236     12.8389    135.0080   9.3326578152e+01   4.5745537873e+01    0.1718738    0.1437838  88.45 0.0002802284    1.106    0.096
       229  -9.2462     86.9596     15.7709   3.8389187669e+01   6.0566857477e+01    0.1602116   0.09839582  46.17 0.0002423094    1.527    0.345
       230 -10.4261    184.8013    134.0587   5.0100986110e+01   1.7178811993e+01    0.2427112     0.213291  53.26 0.0002832027    1.121    0.108
       231 -10.3667     16.8292    133.0733   9.2141995193e+01   4.5866403830e+01    0.3739718    0.1629583  66.83  0.001276607    2.878    0.652
       232 -10.7055     27.4167    130.2448   8.9127342096e+01   4.5605446848e+01     0.200871    0.1670362  75.02 0.0002827118    1.170    0.145
       233  -9.5116      4.5050    131.4818   9.5024735796e+01   4.7146421386e+01     0.117132   0.08809207 -86.80 8.364286e-06    1.032    0.031
       234  -9.7322     20.2167     13.7697   6.4586052628e+01   7.0387676482e+01    0.1579418    0.1137015 -29.79 0.0003470073    1.092    0.084
       235 -11.3131     98.7811    125.9210   6.9146593385e+01   3.7182376218e+01    0.2631981    0.2362429  67.08 0.0003161149    1.101    0.091
       236  -9.1217     48.9684    126.9695   8.2951530008e+01   4.4165359911e+01    0.1534604     0.128485 -77.85 0.0009486295    1.013    0.013
       237  -9.0170     33.2498    126.6704   8.7136541027e+01   4.5887027956e+01    0.1253179   0.08200268  81.03 0.0002342199    1.549    0.354
       238 -10.8994     23.5473    124.7702   8.9464585873e+01   4.7204418673e+01    0.3014655    0.1623645  89.95  0.001573859    1.867    0.464
       239 -10.1664    229.9171    124.5177   3.9217377566e+01   8.8587142729e+00    0.2746983     0.227052 -67.86  0.001445128    1.429    0.300
       240  -9.9666     59.0340    125.0335   7.9882763435e+01   4.3411033162e+01    0.1904335    0.1678442 -78.44  0.001172193    1.024    0.023
       241 -10.8508    250.4064    120.2703   3.4907498583e+01   5.2998824489e+00     0.272895    0.1268921 -31.94  0.001134034    2.097    0.523
       242 -11.2838     41.5849    119.4717   8.3820621924e+01   4.6729567961e+01    0.2312259    0.1920894 -73.61 0.0001905411    1.019    0.018
       243  -9.8888     20.9792    118.3206   8.9341476543e+01   4.8895239126e+01    0.1810592    0.1302414 -74.49 0.0002904097    1.110    0.099
       244  -9.5087     90.9577     11.0000   3.5163961475e+01   6.0320184256e+01    0.2125351   0.06760766  53.62 0.0008045523    2.957    0.662
       245  -9.3785     98.5817    117.4770   6.7364445529e+01   3.9189289580e+01    0.1465393    0.1358607 -75.51 8.412907e-05    1.013    0.013
       246 -10.9687     46.9425    116.3723   8.1809142506e+01   4.6879946903e+01    0.2317904    0.1624282 -67.65 0.0001595432    1.221    0.181
       247 -10.3068     15.3748    115.8745   9.0558842216e+01   4.9885814380e+01     0.178337    0.1662203 -63.82 0.0003999931    1.241    0.194
       248  -9.0950    214.0198    114.5158   3.9670577871e+01   1.4171189140e+01    0.2031232    0.1483096  54.60  8.82279e-05    1.410    0.291
       249  -9.0135    187.2577    114.3230   4.4816415738e+01   2.0498842775e+01    0.1511313    0.1238876   2.30 0.0001976555    1.549    0.354
       250 -10.9541     84.1965    113.1369   7.0460886804e+01   4.2627990523e+01    0.2229166    0.2102119  82.46 0.0002826145    1.066    0.062
       251 -10.2094      2.3297    113.5704   9.3809721712e+01   5.1279440245e+01    0.2483216    0.1655227  59.48  0.001638046    1.611    0.379
       252  -9.1131     98.5618    113.5201   6.6469729433e+01   4.0111065338e+01    0.1463356    0.1373605 -70.92  2.93148e-05    1.015    0.015
       253 -10.6657      9.4890    112.6580   9.1776120941e+01   5.1027712321e+01    0.1980609    0.1608235 -73.91 0.0006253737    1.068    0.064
       254  -9.1693     71.5023    112.5825   7.4011599642e+01   4.4673787944e+01    0.1376346    0.1241679 -79.09 6.336164e-05    1.041    0.039
       255 -10.0301     62.8797    110.7908   7.6170749358e+01   4.6270779500e+01    0.4279053    0.1337365 -61.90 0.0007738427    3.031    0.670
       256  -9.6391     50.3067    111.9552   8.0073935929e+01   4.7536006552e+01    0.1875728    0.1423003 -62.83 0.0004102628    1.142    0.124
       257  -9.9756     20.4761    110.5770   8.8455861263e+01   5.0704128080e+01    0.3082392    0.1100901  44.85  0.001376463    3.210    0.688
       258 -10.5080     36.0150    109.9364   8.3896416416e+01   4.9504269482e+01    0.3378572    0.2169018  32.53  0.001943173    1.812    0.448
       259 -10.8494      5.6607    109.2817   9.2431530672e+01   5.2032052808e+01    0.2074935    0.1534082 -63.95 0.0003774303    1.164    0.141
       260 -10.0627     46.0175    108.1596   8.0654390568e+01   4.8897290263e+01    0.3852386    0.1924545 -84.02  0.001582877    2.827    0.646
       261 -11.4495     45.6996    102.3380   7.9677515249e+01   5.0279868607e+01    0.2606795    0.1905675 -68.73  0.000276906    1.202    0.168
       262  -9.5999     28.5358    109.5156   8.5998857224e+01   5.0283857815e+01    0.1248238    0.1014363 -71.36 2.672163e-05    1.012    0.012
       263 -11.4391    120.4805    107.9470   5.9078927462e+01   3.7157994764e+01    0.3777043    0.2194549  42.73            0    1.759    0.432
