#   1 NUMBER                 Running object number                                     
#   2 MAG_AUTO               Kron-like elliptical aperture magnitude                    [mag]
#   3 X_IMAGE                Object position along x                                    [pixel]
#   4 Y_IMAGE                Object position along y                                    [pixel]
#   5 X_WORLD                Barycenter position along world x axis                     [deg]
#   6 Y_WORLD                Barycenter position along world y axis                     [deg]
#   7 A_WORLD                Profile RMS along major axis (world units)                 [deg]
#   8 B_WORLD                Profile RMS along minor axis (world units)                 [deg]
#   9 THETA_WORLD            Position angle (CCW/world-x)                               [deg]
#  10 FWHM_WORLD             FWHM assuming a gaussian core                              [deg]
#  11 ELONGATION             A_IMAGE/B_IMAGE                                           
#  12 ELLIPTICITY            1 - B_IMAGE/A_IMAGE                                       
         1 -11.5193      7.2448     17.9588   1.1299249218e+02   6.9924848571e+01    0.3070106    0.1781485 -36.27  0.001236136    1.416    0.294
         2 -11.2780     37.2130     20.8160   1.0052457071e+02   6.6592684119e+01    0.3438988    0.1844642  42.93  0.001905119    2.473    0.596
         3 -11.0400    182.3886     18.6900   6.3263908432e+01   3.7236905559e+01     0.232877    0.1905601  65.34 0.0004019289    1.145    0.127
         4 -12.6224    113.0935     15.4408   7.4245445281e+01   5.3835119486e+01    0.3963034    0.2405572  57.97 0.0009026884    1.441    0.306
         5 -11.4945     80.3109     14.8974   8.2576888024e+01   6.0550642550e+01    0.2720959    0.2545569  24.30  0.001149114    1.244    0.196
         6 -10.8541     58.8665     15.4655   8.9845745948e+01   6.4186896645e+01    0.2626697    0.1510842 -16.85 0.0005493764    1.764    0.433
         7 -12.4664     26.1147     13.2653   1.0218590856e+02   6.8822920803e+01    0.2441804    0.1846963  -7.87 0.0005019453    1.077    0.071
         8 -11.2269     65.5372     13.2406   8.6613967409e+01   6.3331790462e+01    0.3243396    0.2160884  14.39  0.001545939    1.393    0.282
         9 -11.8335     49.4517      9.5488   9.0836056366e+01   6.6245248423e+01    0.4255236    0.3177457  44.82  0.002345484    1.646    0.392
        10 -12.1850    211.4926      9.8144   5.7940161095e+01   3.1339279146e+01     0.257926    0.2528523   8.22   0.00129842    1.452    0.311
        11 -12.4870    208.9669      5.1398   5.7185292729e+01   3.2410500313e+01    0.2647507    0.2073935 -74.53 0.0003803947    1.126    0.112
        12 -11.2916     74.6831      9.2065   8.2053461652e+01   6.2120998044e+01    0.2673608    0.1930021 -28.56  0.001135116    1.611    0.379
        13 -11.6814     75.6122      3.2169   7.9394755714e+01   6.2467712291e+01    0.3629898    0.2727826  50.11  0.001647176    1.317    0.240
        14 -10.8462      2.8555     10.8420   1.1230879624e+02   7.1240824414e+01    0.1831097    0.1214628  13.44 0.0004018844    1.471    0.320
        15  -9.8161     37.2398      9.7938   9.5827757247e+01   6.7907057826e+01    0.1519446    0.1127752  -0.31 0.0002363663    1.060    0.056
        16 -11.3752     39.5463      4.8482   9.2677313718e+01   6.8126055271e+01    0.3639119    0.1836546 -39.91  0.002011122    2.799    0.643
        17 -10.9431     16.4583      7.7909   1.0428920650e+02   7.0487965187e+01    0.3399326    0.1586785 -11.23   0.00157644    2.614    0.617
        18  -9.9891     20.0204      7.2509   1.0235730042e+02   7.0197021740e+01    0.1943335    0.1094147  14.83 0.0009091347    1.581    0.368
        19 -10.9714     87.6390      8.1098   7.7908557267e+01   5.9773938605e+01    0.2685151    0.2122936  18.64   0.00121863    1.174    0.148
        20  -9.7868    108.4537      8.4645   7.2925082591e+01   5.5460715370e+01     0.127229    0.1019215  43.35 0.0008075277    1.035    0.034
        21 -11.4992     24.6465      6.8554   1.0003538108e+02   6.9748229722e+01    0.2232976    0.1509618 -29.00 0.0006907678    1.506    0.336
        22 -10.6264     62.2050      6.3931   8.4913824033e+01   6.4546941630e+01    0.2425272    0.1720321  39.22  0.001249077    1.270    0.213
        23 -11.2023    191.1548      5.5677   5.9090088159e+01   3.6505050655e+01    0.2253054    0.1874051 -69.63 0.0008652536    1.187    0.157
        24 -11.4069    195.0026      3.5213   5.8215467053e+01   3.5803665277e+01    0.2623741    0.1460596  69.02 0.0008851474    1.480    0.324
        25 -11.1586     11.1136      2.9620   1.0473011810e+02   7.1572736724e+01    0.2711871    0.1515571 -21.56   0.00111582    1.453    0.312
        26 -11.3504    218.1188      3.3485   5.5976853645e+01   3.0520390021e+01    0.2228324    0.1763072  45.07  0.001299959    1.735    0.424
        27 -11.8072    180.7860      2.6466   5.9560966610e+01   3.9226949086e+01    0.3252204    0.2386016  59.41  0.002023193    1.291    0.226
        28 -11.1792    161.2620      3.2895   6.2148248962e+01   4.3794975380e+01    0.2878155    0.1999796  74.55  0.001714181    1.201    0.168
        29 -11.5635     32.0114      3.3332   9.5157957960e+01   6.9263475026e+01    0.2993944    0.2256715  23.77    0.0022465    1.306    0.234
        30 -10.8195     91.0253      2.7094   7.5010335427e+01   5.9544182978e+01    0.2602877    0.1479177  53.56 0.0005632093    1.479    0.324
        31  -9.9637      1.2936      2.2004   1.0940495574e+02   7.2486818269e+01    0.1239262   0.07570467 -36.58 0.0002214831    1.580    0.367
        32 -10.4605     81.0259      1.4569   7.7166456162e+01   6.1593995456e+01    0.1758916   0.09670743  50.25  0.001002491    1.512    0.339
        33 -10.4516     65.3830      1.5601   8.1850653952e+01   6.4427742369e+01    0.2047785     0.100654  52.01 0.0006188957    1.985    0.496
        34  -9.5794     53.6783      1.3297   8.5708056473e+01   6.6381429122e+01   0.09333327   0.09208203 -64.59 0.0004588143    1.694    0.410
        35 -11.4143    182.0830    235.1878   1.1308244846e+02  -2.2166304312e+00     0.321683    0.2055114  30.11  0.001307887    1.456    0.313
        36 -11.2775    228.0617    250.4193   1.0657890536e+02  -1.1960615608e+01    0.1763937    0.1291702  16.86  0.001117401    1.144    0.126
        37  -9.4114    187.4636    250.4853   1.1445876001e+02  -5.6198039245e+00    0.1293503     0.108465  28.95 0.0003089635    1.029    0.028
        38  -9.9192    149.2903    250.6678   1.2217296827e+02   7.9394063010e-01     0.185549    0.1055091  35.23 0.0008229124    1.585    0.369
        39 -10.5583    118.3599    250.6926   1.2842228452e+02   6.0126671618e+00    0.2669464    0.1580464  63.30 0.0006824535    1.849    0.459
        40 -10.6392    115.3399    249.7056   1.2890732580e+02   6.6950561836e+00    0.2522356    0.1612922  62.52  0.001360062    1.567    0.362
        41 -11.4447    105.5868    246.2211   1.3044882132e+02   8.9522658979e+00    0.3146134    0.1963522 -74.86   0.00165595    1.872    0.466
        42 -11.2883    117.9832    237.0681   1.2676550589e+02   8.6711242135e+00    0.7851064    0.4907028 -25.31  0.003265592    3.498    0.714
        43 -10.5475    114.4919    243.5212   1.2831633482e+02   8.0054335753e+00     0.239338     0.174599  49.81 0.0005422972    1.152    0.132
        44 -11.2947    110.3521    249.2857   1.2985579134e+02   7.5929318005e+00    0.3926367    0.2341353  27.06  0.001915756    2.202    0.546
        45 -11.9083    109.8501    244.6296   1.2939773366e+02   8.5611782704e+00    0.4064635    0.2202728  57.68 0.0006511827    1.818    0.450
        46 -11.1615     91.9414    250.3315   1.3361313189e+02   1.0331713032e+01    0.1829614    0.1426679  56.53 0.0005980412    1.054    0.052
        47 -11.6213     46.1856    216.5097   1.3931439506e+02   2.3895389771e+01    0.7303883    0.3421207  82.34  0.003214595    2.632    0.620
        48 -13.0543     33.6390    204.3345   1.4074153914e+02   2.8114196601e+01     1.063735    0.4327782  58.51   0.00477517    2.575    0.612
        49 -12.2137     46.9227    230.8401   1.4047557575e+02   2.0723792906e+01    0.3652619    0.2029485  74.34 0.0004219846    1.723    0.420
        50 -13.8891      9.7495    215.8770   1.4635817062e+02   2.8130838783e+01    0.8916506    0.4976849  52.28  0.003213538    1.606    0.377
        51 -13.2627     22.0818    198.1894   1.4257537821e+02   3.0753016439e+01     1.039631    0.6588726 -83.01  0.005734631    1.295    0.228
        52 -14.1412     38.0185    222.6578   1.4149497256e+02   2.3573018665e+01     1.114446    0.5952542 -69.66  0.006239674    1.723    0.420
        53  99.0000     46.6497    245.3198   1.4173434264e+02   1.7796291615e+01    0.9793182    0.5092859  33.24  0.004045239    2.321    0.569
        54 -13.0328     43.7301    235.9821   1.4151965850e+02   2.0062535660e+01    0.4722282    0.3879471  49.05  0.001255053    1.349    0.259
        55 -13.4914     36.4446    232.6547   1.4261722924e+02   2.1654752310e+01    0.6192868    0.4730434 -25.99  0.002051593    2.647    0.622
        56 -12.0482     20.0587    216.1584   1.4443696912e+02   2.7013371169e+01    0.2332498    0.1633331 -87.34 0.0003156481    1.153    0.133
        57 -12.5304     19.1906    211.4993   1.4424743152e+02   2.8111531455e+01    0.3297913    0.1949187  80.92 0.0008008687    1.442    0.307
        58 -12.5603     13.3789    205.6830   1.4493232987e+02   2.9969607289e+01     0.370379    0.2455274  30.29  0.002343772    1.927    0.481
        59 -12.8563     22.9126    221.1548   1.4427229761e+02   2.5637138867e+01    0.6036921    0.2386927 -67.17  0.002235814    2.242    0.554
        60 -13.8602     29.4639    217.2455   1.4270852507e+02   2.5743890784e+01    0.8343164     0.327058 -60.91  0.002515385    2.497    0.599
        61 -15.1554     19.8791    237.5460   1.4597916800e+02   2.2574897906e+01     1.958493    0.8193612  66.65  0.009064437    2.233    0.552
        62 -15.2537     11.0386    232.7459   1.4722416675e+02   2.4495318730e+01     1.638439    0.8039805 -57.31  0.009194137    2.533    0.605
        63 -14.7830     14.4949    246.9931   1.4749290016e+02   2.1293502039e+01    0.5684099    0.3812571  67.10  0.003017092    1.118    0.106
        64 -10.6896    178.7106    232.0952   1.1326495444e+02  -1.0932552116e+00    0.2684568    0.2233572   1.40  0.000633541    1.300    0.231
        65 -11.3521    183.6936    239.3358   1.1343465475e+02  -3.1926528741e+00    0.2320894    0.2063547  37.18 0.0004861425    1.119    0.106
        66 -12.1190    154.4387    233.0295   1.1850226592e+02   3.0554751406e+00    0.5177449    0.3282356  61.83  0.002470636    1.973    0.493
        67 -11.3389    151.6644    227.0249   1.1814844743e+02   4.6869008575e+00    0.2661531    0.2276296 -28.34 0.0007122619    1.378    0.274
        68 -12.1520    195.1965    233.2177   1.1007533690e+02  -4.1439958867e+00    0.6767473    0.2573087  38.90  0.001343303    2.348    0.574
        69 -10.5134     58.1530    232.1293   1.3840573462e+02   1.8963350578e+01    0.4480461    0.2822074 -86.89   0.00186108    1.500    0.333
        70 -10.8654     56.4812    226.7120   1.3821908736e+02   2.0336252558e+01    0.2776431    0.1448423 -57.04  0.001421624    2.138    0.532
        71 -11.3632     71.0242    225.8489   1.3518089132e+02   1.8476394167e+01     0.238072    0.1508936  55.00 0.0004194634    1.376    0.273
        72 -10.5660     73.1229    217.1972   1.3377526031e+02   2.0048097759e+01     0.199388    0.1725377  47.62 0.0004680761    1.251    0.201
        73 -10.5366     80.9897    230.8169   1.3367814929e+02   1.5938132104e+01    0.3136418    0.1550948  53.01  0.001509418    1.814    0.449
        74 -10.2816     77.3012    234.0871   1.3478646815e+02   1.5812853749e+01    0.2107272    0.1608031 -56.21  0.001263876    1.579    0.367
        75 -11.4257     74.5215    230.6310   1.3497973156e+02   1.6947943843e+01    0.3814916    0.2945335 -37.35  0.001066563    1.997    0.499
        76 -12.1305     77.9963    220.6682   1.3314349947e+02   1.8560114969e+01    0.7307107    0.3061663 -78.70  0.002473999    3.496    0.714
        77 -11.0529    231.4399    232.6928   1.0288199515e+02  -9.9310418531e+00    0.2963487    0.2047286 -12.93  0.000928861    1.447    0.309
        78 -12.1160    143.6180    232.1894   1.2066636650e+02   5.1446178568e+00    0.3487033    0.2273938  42.06 0.0004102698    1.339    0.253
        79 -10.4628    186.5261    231.1148   1.1148586692e+02  -2.2943427183e+00      0.26188    0.1924207  13.06  0.001416797    1.479    0.324
        80  -9.8195    243.6810    230.7417   1.0025680388e+02  -1.1467562787e+01    0.1566935    0.1104074 -39.15 0.0002552722    1.589    0.371
        81  -9.7798    241.6633    228.2959   1.0018670199e+02  -1.0815635304e+01    0.1586839     0.124192 -40.55 0.0003453375    1.526    0.345
        82 -10.5398    237.7991    229.7806   1.0116965246e+02  -1.0459661184e+01    0.2099367    0.1452307  20.79 0.0004310394    1.317    0.241
        83 -10.4014    169.9805    229.9074   1.1472488181e+02   8.4595379421e-01    0.2036333    0.1824294  37.97 0.0005407757    1.046    0.044
        84 -11.2750     94.9441    228.8940   1.3055211165e+02   1.4154631452e+01    0.3749496       0.2651 -89.43 0.0005688423    1.496    0.332
        85 -10.6212    249.2101    227.9089   9.8740635446e+01  -1.1856780406e+01    0.2571368    0.1282926 -38.12  0.001325835    2.002    0.501
        86 -11.2807    158.5057    225.7059   1.1646980000e+02   3.6959177500e+00    0.3483502    0.2377786 -62.37 0.0009167684    1.838    0.456
        87 -10.9501    111.4795    225.9641   1.2665330291e+02   1.2022616544e+01    0.4547382    0.1809214 -51.40  0.001836723    2.830    0.647
        88  -9.2920    103.5220    228.4874   1.2868866509e+02   1.2837033735e+01    0.1388322    0.1144048  64.42 0.0008093966    1.061    0.058
        89 -10.9163    177.0857    223.4794   1.1214445704e+02   7.3340040243e-01    0.3938884    0.2211381  48.26  0.001624776    1.790    0.441
        90 -10.9869    164.5876    225.3043   1.1510423962e+02   2.6650369944e+00    0.3068537    0.2354324 -18.62 0.0007981365    1.629    0.386
        91 -10.5036    133.3800    227.3405   1.2213053037e+02   7.9158129081e+00    0.3176341     0.146598  40.88 0.0007579454    1.920    0.479
        92  -9.7258     86.4050    226.2280   1.3202460936e+02   1.6071666793e+01    0.1667786    0.1160948 -87.31 0.0003378555    1.472    0.320
        93 -13.6951      9.0462    249.8470   1.4855770561e+02   2.1327141829e+01    0.3259708    0.2284254  80.34  0.001469839    1.070    0.065
        94 -10.4629    187.6829    223.3744   1.0990858945e+02  -1.1507586826e+00    0.2770169    0.1700775 -40.60 0.0009251972    1.769    0.435
        95  -9.8310    219.2193    232.2453   1.0514070202e+02  -7.9583204575e+00    0.1891857    0.1007309 -48.40  0.000888947    2.442    0.591
        96 -10.5167    121.1755    224.6463   1.2437454083e+02   1.0619003549e+01    0.2888495    0.1836277  29.08 0.0008840588    1.816    0.449
        97 -10.7513    124.5527    221.7201   1.2321204032e+02   1.0627742295e+01    0.3923711    0.2194953 -42.76  0.001541731    2.266    0.559
        98 -10.6654    106.2571    223.7542   1.2747914520e+02   1.3370105377e+01    0.3568693    0.2021852  65.45  0.001600252    2.096    0.523
        99 -10.3013    228.1368    223.7486   1.0189682736e+02  -8.0562727638e+00    0.2040676    0.1615788 -35.19 0.0006832054    1.356    0.262
       100 -10.0105    137.5975    223.3483   1.2061163274e+02   7.9573839525e+00    0.2445563     0.138556 -59.53 0.0008210616    2.058    0.514
       101 -11.2560     94.0357    221.5270   1.2982192205e+02   1.5863704505e+01    0.3701268    0.2586957  31.43 0.0007728447    1.642    0.391
       102 -10.8812     84.8209    221.5421   1.3179757281e+02   1.7323616086e+01    0.2058566    0.1976122 -51.45 0.0005656146    1.353    0.261
       103 -10.5402     63.0039    220.0631   1.3621878628e+02   2.0874173461e+01    0.2868428    0.1660779  73.75  0.001290113    1.792    0.442
       104 -12.1946    125.9322    215.5609   1.2197649099e+02   1.1669720010e+01    0.3148426    0.2281601  50.85 0.0003497533    1.256    0.204
       105 -10.6624    130.5176    220.0792   1.2165687047e+02   9.9004363845e+00    0.3079085    0.1413799 -56.84 0.0009926803    2.448    0.591
       106 -10.3651    134.0983    219.0844   1.2071539161e+02   9.4577791788e+00    0.3085284    0.2415799  19.21 0.0009113005    1.549    0.354
       107 -10.4566     52.8709    220.2168   1.3831427347e+02   2.2219551582e+01     0.305342    0.2329874  72.67  0.001924396    1.080    0.074
       108 -10.7447    196.5029    219.9568   1.0747812374e+02  -2.1148804188e+00     0.243651    0.1732331 -56.41  0.001243005    1.837    0.456
       109 -11.1753    193.5390    215.5496   1.0728881252e+02  -8.0565018569e-01    0.3697491    0.2399481 -60.01  0.001730714    2.214    0.548
       110 -10.5220    217.5042    217.6527   1.0283423791e+02  -5.3432285713e+00     0.255879    0.1967665  -2.67 0.0006167233    1.310    0.237
       111 -11.4273    100.4167    217.2967   1.2787726412e+02   1.5730539506e+01    0.4082029    0.2882558 -53.20  0.001358301    1.588    0.370
       112 -11.8219    109.8070    212.8364   1.2516718816e+02   1.5107112412e+01     0.394979    0.2009707  52.19  0.001712451    1.916    0.478
       113 -11.5204    107.3545    216.2217   1.2619951349e+02   1.4793012800e+01     0.480119    0.2181621  42.36  0.001962641    1.986    0.497
       114 -10.1095     89.1310    217.8828   1.3041695516e+02   1.7440948939e+01    0.2089342     0.161372  71.80 0.0004606801    1.191    0.160
       115 -12.1642     80.3554    208.5450   1.3115034936e+02   2.0890742825e+01    0.6488238    0.4002419 -86.68  0.003182202    1.792    0.442
       116 -11.9856     84.2137    216.0410   1.3125149858e+02   1.8619795895e+01     0.408371    0.3164193  15.75  0.001068538    1.900    0.474
       117 -10.9664     85.5933    211.5020   1.3037207768e+02   1.9411640212e+01    0.2489709     0.194478  77.47 7.559911e-05    1.194    0.162
       118 -10.5618    162.9570    217.0635   1.1406119071e+02   4.5357647502e+00    0.3721938    0.1883258  35.36 0.0005037489    1.915    0.478
       119 -10.2692    141.5419    217.4060   1.1880813786e+02   8.4402464073e+00    0.2178488    0.1943559  46.15 0.0005540885    1.022    0.022
       120 -11.7703    145.8703    215.7220   1.1757747357e+02   7.9828865744e+00    0.2598822    0.2462609  32.83 0.0003678744    1.088    0.081
       121 -10.0668     59.1615    215.8857   1.3657662381e+02   2.2323853956e+01    0.2098644    0.1675944 -65.10 0.0004130562    1.358    0.264
       122  -9.9166     60.3254    212.6515   1.3598453265e+02   2.2882799828e+01    0.2282189    0.1499307  72.43  0.001253437    1.435    0.303
       123 -10.5940     57.3575    211.9084   1.3653266772e+02   2.3453446614e+01    0.3229465      0.19651 -51.84  0.001648877    1.971    0.493
       124 -11.3868    231.1040    213.2444   9.9382396559e+01  -6.8615668599e+00    0.3953346    0.2789145 -65.17  0.001917645    2.650    0.623
       125 -10.2694    172.3568    214.9932   1.1166786478e+02   3.1848287341e+00    0.1828954    0.1753716 -28.11 0.0004014906    1.130    0.115
       126 -10.1165    199.8472    214.2025   1.0573977188e+02  -1.6960373155e+00    0.1916289    0.1806026  42.06 0.0004992665    1.195    0.163
       127 -10.5050    217.2762    212.9392   1.0199892153e+02  -4.5167713765e+00    0.1880551    0.1618333  -9.75 0.0003847195    1.088    0.081
       128 -10.6305    162.0312    212.8936   1.1353918196e+02   5.5263936503e+00    0.4557486    0.1611586  45.20  0.001612476    2.677    0.626
       129 -11.6017    117.1113    211.7972   1.2337375476e+02   1.4053323212e+01    0.5583106    0.1899518  47.20  0.001585786    2.788    0.641
       130 -10.0158     94.7117    212.1241   1.2843452247e+02   1.7808818069e+01    0.1925456    0.1696962  89.07 0.0007610572    1.090    0.083
       131 -11.5597     69.9184    211.1013   1.3375257171e+02   2.1873733048e+01    0.3619286    0.2363589 -77.82   0.00106231    1.474    0.321
       132 -11.3958     66.6234    206.1244   1.3388254200e+02   2.3473478927e+01    0.2351217    0.1954437  81.79  0.000387216    1.028    0.027
       133  -9.8840    250.5882    210.8911   9.5345845923e+01  -9.5238101344e+00    0.1871596    0.1100778 -32.01  0.000676284    1.563    0.360
       134 -10.6480    103.1992    209.6957   1.2619494315e+02   1.6932349153e+01    0.3485319    0.1829616 -58.69  0.001570816    1.974    0.493
       135 -11.7701    242.4085    200.6141   9.4857201535e+01  -6.6254528360e+00    0.2376079    0.2289757  34.30  0.001030211    1.320    0.242
       136 -10.6510    237.5014    208.4710   9.7274464923e+01  -7.1181511634e+00    0.3452179    0.1877766 -11.20  0.001420871    2.903    0.655
       137 -11.1125    241.2204    204.5808   9.5841361157e+01  -7.0817441292e+00    0.2919627    0.1917598   3.75  0.001506012    1.792    0.442
       138 -10.9107    184.0538    210.0036   1.0826105465e+02   1.9528373121e+00    0.2081253    0.1882831  20.85 0.0003479008    1.029    0.028
       139 -12.5590    183.4042    204.5462   1.0738092308e+02   3.1146628453e+00    0.3457983    0.2632579 -49.00 0.0007556859    1.441    0.306
       140 -10.9843    184.1570    199.1204   1.0618419580e+02   4.0244421508e+00    0.2755319    0.2044234 -41.06 0.0004253048    1.407    0.289
       141 -11.2745    190.7055    200.9378   1.0513766461e+02   2.4249504886e+00    0.2575244    0.2533029   1.53 0.0003734842    1.104    0.094
       142 -12.5870    188.4927    196.2126   1.0468969467e+02   3.7589610770e+00    0.3030851    0.2775578  33.32 0.0003589879    1.061    0.057
       143 -11.4820    210.9066    208.1019   1.0234883919e+02  -2.5815544950e+00    0.3073131    0.1911398 -34.27  0.001526543    1.636    0.389
       144 -11.1824     51.4066    207.4951   1.3732545840e+02   2.5233302387e+01    0.5122044    0.2258295  57.01  0.002301488    2.315    0.568
       145 -11.7968     52.4154    201.8425   1.3649876838e+02   2.6388001536e+01    0.3354478    0.2017382 -62.34 0.0007999418    1.608    0.378
       146 -10.9393    191.9923    207.0009   1.0602306510e+02   1.0405106947e+00    0.2089164    0.1758128  79.07 0.0005161138    1.633    0.388
       147 -10.7619      4.9201    204.4512   1.4647817384e+02   3.1042777971e+01    0.2510886    0.1396387 -66.77 0.0008711923    1.639    0.390
       148 -10.2505      2.0082    205.7206   1.4711904817e+02   3.1033745522e+01    0.2869367    0.1557966  79.04  0.001163096    1.550    0.355
       149  -9.4894    164.2398    206.6285   1.1193783892e+02   6.3577838665e+00    0.1396628    0.1130543  89.32 0.0003639392    1.615    0.381
       150 -10.6898    145.0811    205.4278   1.1600902224e+02   1.0265329803e+01    0.3083904    0.2000486 -36.11 0.0005647835    1.897    0.473
       151 -10.9033    129.8620    206.1459   1.1958931216e+02   1.2969086966e+01    0.2262817    0.1879754  67.05  0.000981562    1.207    0.172
       152 -10.7138    199.6158    204.9002   1.0403586239e+02   2.3377064515e-02    0.2770248    0.1832109  54.55 0.0009001063    1.844    0.458
       153 -10.7864    121.4386    199.2729   1.2039332975e+02   1.6038973205e+01    0.2566031    0.2224256 -68.67 0.0006533925    1.191    0.161
       154 -11.5407    117.5420    203.7703   1.2202706764e+02   1.5741531550e+01    0.3448178    0.2840034   7.81  0.001263613    1.645    0.392
       155 -10.9711    121.3819    203.2698   1.2106246539e+02   1.5157575050e+01    0.2691631    0.2475133  87.87 0.0005365981    1.083    0.077
       156 -10.4076     98.9087    205.2780   1.2652869704e+02   1.8646908108e+01     0.210957    0.1903601  77.44 0.0003474016    1.036    0.034
       157 -10.5686     96.1953    201.1944   1.2655580238e+02   2.0030003079e+01    0.2960727    0.1894674 -69.02  0.001017269    1.607    0.378
       158  -9.8367    218.5552    204.5138   1.0014060086e+02  -3.2940324947e+00    0.1361243     0.122933   1.15 3.624191e-05    1.026    0.025
       159 -10.5194     59.1657    204.0558   1.3527494587e+02   2.4983837352e+01    0.1965341    0.1653099  79.13 0.0007725112    1.020    0.019
       160  -9.7673    235.0513    203.0766   9.6695098153e+01  -5.8383779046e+00    0.1570439    0.1359623   0.54 0.0003320795    1.028    0.027
       161 -10.2713    132.4133    203.2885   1.1852889200e+02   1.3115639757e+01    0.2713099     0.157998  55.82 0.0008387223    1.840    0.456
       162 -11.5425     69.4750    201.2508   1.3265501240e+02   2.4181571623e+01    0.3577091    0.2325319  58.20 0.0004934043    1.455    0.313
       163  -9.7195    166.9847    202.0114   1.1048360879e+02   6.7631071028e+00    0.1678604    0.1619144  28.82 0.0003126952    1.035    0.034
       164 -10.2348    149.9896    201.2431   1.1415652436e+02   1.0210747459e+01    0.2485977    0.2020148 -53.34 0.0007369012    1.319    0.242
       165  -9.5962    137.2699    202.7136   1.1731755798e+02   1.2326982301e+01    0.1428034    0.1098627  73.93 0.0002823137    1.502    0.334
       166 -10.8957    170.7096    199.4986   1.0918852162e+02   6.5503813654e+00     0.484143    0.3269556 -70.77  0.001817411    2.195    0.544
       167 -11.4722     44.4379    200.3739   1.3806886228e+02   2.7732178078e+01    0.4945011    0.2528116  31.85  0.002255517    2.287    0.563
       168 -10.6328     39.9515    197.6817   1.3875683785e+02   2.8889640292e+01    0.2310729    0.1526562  84.87 0.0008083572    1.365    0.267
       169 -11.4347     40.4817    192.8181   1.3813181228e+02   2.9948200537e+01    0.4378773    0.2345506  80.52  0.002106702    2.052    0.513
       170 -10.9730    176.6167    199.1436   1.0782336455e+02   5.4749994590e+00    0.3582269    0.2391971  51.98  0.001541634    1.590    0.371
       171  -9.9864    161.1135    199.3888   1.1130487080e+02   8.4417239073e+00    0.2882389    0.1678919 -33.86 0.0007976348    2.150    0.535
       172 -11.9661    205.7813    197.3163   1.0129569054e+02   2.8582438670e-01    0.4643384    0.3057615 -45.32  0.001614019    1.604    0.376
       173 -11.0506    206.7328    191.4626   9.9937240274e+01   1.1990832557e+00    0.2902674    0.2129208 -50.63  0.000888566    1.525    0.344
       174 -10.9347    140.0020    194.6993   1.1527187679e+02   1.3555337900e+01    0.2721129    0.2172732 -46.55  0.000497164    1.344    0.256
       175 -10.0167    116.6670    198.0627   1.2130729437e+02   1.7181692966e+01    0.1963009    0.1784844 -81.10 0.0004046396    1.104    0.094
       176 -11.8289    109.5046    197.6339   1.2291480647e+02   1.8560874677e+01     0.290994    0.2413609  55.10 0.0003983959    1.120    0.107
       177 -10.8596    106.4610    194.4818   1.2312676824e+02   1.9821646969e+01    0.3152011    0.2714322  -9.67   0.00115367    1.586    0.369
       178  -9.9219     75.9364    198.4803   1.3083342161e+02   2.3870447242e+01    0.1917101    0.1256347  45.40 0.0004236642    1.467    0.318
       179 -10.9815     63.4953    196.3809   1.3339668778e+02   2.6160706969e+01    0.3052909     0.194251  87.43  0.001252629    1.624    0.384
       180 -10.3466     82.3831    196.2543   1.2904411197e+02   2.3402310366e+01    0.2259188     0.155444 -78.16 0.0006265444    1.450    0.310
       181 -11.8691    216.2180    193.3884   9.8417066867e+01  -9.0437931415e-01    0.4708241     0.264769 -30.49  0.002128092    1.893    0.472
       182 -10.3671    199.4346    196.5246   1.0244642256e+02   1.6165605012e+00    0.2968446    0.1354058  39.72    0.0011945    2.132    0.531
       183 -10.4797      9.8695    195.9368   1.4487550940e+02   3.2453247942e+01     0.168607    0.1299963  86.43  0.000325441    1.025    0.024
       184 -11.2846      4.5905    195.8416   1.4592168723e+02   3.2953399868e+01    0.2007529    0.1523171  85.74 0.0003355652    1.023    0.022
       185 -11.6781      2.2500    191.7933   1.4608678042e+02   3.4050570024e+01    0.3505355    0.1700985 -67.69  0.001409749    1.721    0.419
       186  -9.9483     95.0885    195.1252   1.2590977377e+02   2.1616798567e+01    0.1923189    0.1870113  36.63 0.0003223433    1.218    0.179
       187 -12.6070     57.4709    180.8421   1.3280466411e+02   3.0655913006e+01    0.8685154    0.3858319  40.64  0.003869255    2.232    0.552
       188 -10.5794     67.0727    184.9411   1.3107099231e+02   2.8360620635e+01     0.209504    0.1770154  85.28 0.0004687273    1.050    0.047
       189 -12.8025     53.2502    192.9902   1.3530350562e+02   2.8329569471e+01    0.4283845    0.2751017  40.69 0.0004598635    1.607    0.378
       190 -10.5882     71.6523    194.6215   1.3130523734e+02   2.5407303997e+01    0.2923645    0.2248027  17.27  0.001023472    1.825    0.452
       191 -12.8594     67.3524    190.9787   1.3181898143e+02   2.6886045013e+01    0.6115989     0.331639  34.98  0.002874157    1.991    0.498
       192 -11.4420     60.1000    187.9744   1.3311528901e+02   2.8604233321e+01    0.3297738    0.3060453  23.43  0.001591828    1.382    0.276
       193 -10.7578    250.0783    194.0000   9.2188825722e+01  -6.7634620249e+00    0.2225093    0.1826587  28.44 0.0007006696    1.275    0.216
       194 -12.8915    246.1378    190.7559   9.2251422576e+01  -5.5962561731e+00    0.5594683    0.3961605   2.85 0.0008464306    1.589    0.371
       195 -11.0220    126.0812    193.3676   1.1829914015e+02   1.6508657872e+01    0.2739599    0.2083184 -68.29 0.0006301023    1.411    0.291
       196  -9.9618    113.9380    193.9991   1.2127862941e+02   1.8602496972e+01    0.2037282    0.1836598  66.31 0.0004068944    1.025    0.024
       197 -11.7561    120.0250    190.4435   1.1922758170e+02   1.8306473245e+01    0.4878973    0.3623304  13.51  0.002261842    1.904    0.475
       198 -11.6570    211.1856    192.3500   9.9213768217e+01   2.0577738328e-01     0.241706    0.2266416 -13.97 0.0002621324    1.064    0.060
       199 -10.5830    163.3455    192.7592   1.0954752957e+02   9.3895943927e+00    0.2698498    0.2126694  24.90 0.0006254304    1.354    0.261
       200  -9.7178    164.0000    189.0098   1.0867134101e+02   1.0052019022e+01    0.3906111    0.1255017 -54.19  0.001105406    4.263    0.765
       201 -10.6491      2.2627    173.9545   1.4466778081e+02   3.8045717187e+01    0.3211128    0.1639323  64.83 0.0004574967    2.005    0.501
       202 -10.8008     16.4380    191.1403   1.4313325155e+02   3.2906196009e+01    0.3500404     0.279747   4.82  0.001836097    1.977    0.494
       203 -12.4889     12.7933    170.7867   1.4205614413e+02   3.7900761908e+01    0.8819144    0.4861276 -39.33  0.004517675    2.632    0.620
       204 -12.1667     15.8765    183.3402   1.4255829523e+02   3.4733843017e+01    0.4582636    0.2579678 -87.07  0.001435875    1.530    0.347
       205 -13.1293      7.1072    182.2410   1.4433318622e+02   3.5770366919e+01     0.550741    0.4600252  44.99  0.002046729    1.419    0.295
       206 -10.1883    148.4756    192.4759   1.1289579440e+02   1.2390222393e+01    0.1493262    0.1419785  39.16 0.0006040675    1.044    0.042
       207 -10.8495    178.1848    189.8260   1.0566285990e+02   7.0506471431e+00    0.3251946    0.2365096 -71.60  0.001483216    1.924    0.480
       208 -11.0936    186.3717    186.9430   1.0329959812e+02   6.0110574327e+00    0.4028471      0.23582  31.79  0.001723133    1.841    0.457
       209 -11.5264    193.5254    188.0000   1.0198338540e+02   4.3931572806e+00    0.5600681    0.2098406  43.87  0.001779645    2.633    0.620
       210 -10.8324    197.9176    186.0278   1.0065787966e+02   3.9238504253e+00    0.2371906    0.2014683  32.08 0.0003712614    1.149    0.130
       211 -10.5367     91.7468    189.5705   1.2585412259e+02   2.3473565343e+01    0.2472868    0.1853309 -65.55  0.000590561    1.307    0.235
       212 -11.6473     78.9031    189.2180   1.2886184635e+02   2.5596908369e+01    0.9192953    0.4842731  77.09  0.003445741    3.039    0.671
       213 -10.1062     83.9677    188.2731   1.2751751843e+02   2.5034395068e+01    0.2323958    0.1841712  32.77 0.0005349138    1.428    0.300
       214 -10.1066     70.1663    173.8469   1.2871750528e+02   3.0594197538e+01     0.626532    0.1996302 -61.74 0.0003010594    2.877    0.652
       215 -11.7295     75.2799    180.3001   1.2842703428e+02   2.8279789869e+01    0.2755598    0.2121953 -60.57 0.0001912026    1.272    0.214
       216 -12.3291     73.6706    177.6667   1.2842667454e+02   2.9155521852e+01    0.4947571    0.3387154   2.95    0.0021937    2.649    0.623
       217  -9.5021    170.7494    192.3307   1.0780276546e+02   8.0108641261e+00    0.1422089    0.1175982 -90.00 0.0003097577    1.552    0.356
       218 -11.8987    130.3988    188.7736   1.1645788752e+02   1.6732218336e+01    0.2718534    0.2407439  61.04 0.0003063199    1.083    0.077
       219 -10.7398    103.6426    187.5867   1.2267775666e+02   2.1924629526e+01    0.4488415    0.2357611  34.40  0.001867083    2.061    0.515
       220 -10.2154     39.9236    187.2960   1.3765612724e+02   3.1299578696e+01    0.2506984    0.0938767  40.41  0.001100486    2.573    0.611
       221 -10.2525     20.5117    178.6471   1.4109674403e+02   3.5375407110e+01    0.2533528    0.1341479  38.65  0.001208705    2.011    0.503
       222 -11.1445     26.4271    179.3334   1.3984108273e+02   3.4631274669e+01    0.3285395    0.2402594  45.35  0.001805504    1.464    0.317
       223 -11.8435     31.6792    176.1959   1.3830354629e+02   3.4823484502e+01    0.3182803    0.2459907  86.98  0.001106119    1.112    0.101
       224 -11.8102     33.8165    184.8631   1.3876305900e+02   3.2558508607e+01    0.4386162    0.3181031 -25.81  0.002436429    2.242    0.554
       225 -10.6515    220.9053    186.1507   9.6038034915e+01  -4.3892271681e-01    0.2071557    0.1885556  -0.44 0.0004452048    1.026    0.025
       226 -11.3411    156.6582    184.8739   1.0954067182e+02   1.2418180734e+01      0.41337    0.2982349  25.71  0.001096876    1.574    0.365
       227 -10.5789    176.1705    183.6439   1.0486524942e+02   8.7308689286e+00    0.3465305    0.2453224 -28.33  0.001601375    1.630    0.386
       228 -10.8827    225.3084    183.9700   9.4743769460e+01  -8.4109659398e-01    0.2524643    0.1906132  23.62 0.0006118992    1.378    0.274
       229 -12.1013    120.9295    182.3983   1.1757819689e+02   2.0003328877e+01    0.9173235    0.3510226  55.09  0.002652259    4.028    0.752
       230 -10.1087     88.4761    183.5284   1.2570269419e+02   2.5445449115e+01    0.2501814    0.1343243 -74.97   0.00101643    2.222    0.550
       231 -11.1418    231.0891    182.5910   9.3367465182e+01  -1.6277544202e+00     0.250053    0.1856455 -27.73  0.000375043    1.277    0.217
       232 -11.7182    104.0999    182.9945   1.2179657122e+02   2.2930977686e+01    0.3583732    0.2225457  55.37  0.001303023    1.664    0.399
       233 -11.0577    107.5067    180.9810   1.2061295063e+02   2.2805231505e+01    0.3121715    0.2318942 -45.89  0.001003098    1.475    0.322
       234 -11.8138    104.2877    178.0740   1.2089978462e+02   2.4071773095e+01    0.3917906    0.2808487 -59.46   0.00126945    1.383    0.277
       235 -10.7876    101.0164    176.0003   1.2135151673e+02   2.5144466533e+01    0.2009508    0.1955828 -55.87            0    1.146    0.127
       236 -10.9687     46.9957    182.0945   1.3543372995e+02   3.1685217801e+01    0.3485276    0.2448431 -10.86  0.001306799    2.619    0.618
       237  -9.0584    165.4832    182.4740   1.0703411201e+02   1.1148571421e+01    0.1517963    0.1448666  59.09  0.000165517    1.064    0.060
       238 -10.2869    190.2930    180.3292   1.0110021241e+02   6.5641134980e+00    0.3132427    0.2296758  85.88   0.00135728    2.233    0.552
       239 -10.5708     83.3614    180.8806   1.2653802302e+02   2.6898866475e+01    0.2260138    0.1667557 -86.10  0.000542439    1.386    0.278
       240  -9.4145    153.6004    180.1832   1.0932059637e+02   1.4069268653e+01    0.2000759    0.1455671 -37.90 0.0004575225    1.505    0.336
       241  -9.7288     92.4262    180.4609   1.2424189409e+02   2.5533316064e+01    0.1440004    0.1334247 -89.94 7.932351e-05    1.039    0.038
       242 -10.5665     29.5072    183.5439   1.3958784405e+02   3.3330460547e+01    0.2680008    0.1751917 -70.49 0.0007018081    1.312    0.238
       243 -10.5440    147.1044    177.8106   1.1037968508e+02   1.5920225158e+01    0.3135756    0.1974425 -54.14 0.0005544874    1.670    0.401
       244 -11.0315    136.5624    176.6656   1.1268621084e+02   1.8302431143e+01    0.2781408    0.1473301 -46.86 0.0007706733    1.968    0.492
       245 -10.0235    120.3255    177.3221   1.1678868941e+02   2.1309388622e+01    0.1507593    0.1225053 -12.15 0.0004121664    1.684    0.406
       246 -10.4285    219.6145    175.7892   9.4154395908e+01   1.7196771480e+00    0.4348569    0.1625191  48.85  0.001533566    3.112    0.679
       247 -11.3510    131.9702    174.6302   1.1340594884e+02   1.9685392993e+01    0.3144638    0.2443437 -39.54 0.0004904841    1.421    0.296
       248  -9.6597    125.0464    175.9725   1.1536871230e+02   2.0724111696e+01    0.1881119    0.1672607  51.22 0.0005543674    1.090    0.083
       249 -10.0988     95.1066    176.5399   1.2292211445e+02   2.6029058243e+01    0.2039721    0.1405254  42.63 0.0003478824    1.447    0.309
       250 -11.4468     83.8590    175.8429   1.2561570995e+02   2.8038232588e+01    0.2293879    0.2246222  24.90 0.0003730987    1.214    0.176
       251 -11.9196     79.0155    174.1777   1.2655948116e+02   2.9197223314e+01    0.4636385     0.257556  48.53 0.0008918953    1.817    0.450
       252 -11.4035    241.5383    192.5663   9.3439304711e+01  -5.1473818792e+00    0.2301076    0.1862145   6.64  8.17766e-05    1.209    0.173
       253  -9.6362     55.2030    174.9414   1.3255917531e+02   3.2370619321e+01    0.2359238    0.1772338 -17.04  0.001220791    2.100    0.524
       254 -10.4334    189.3550    174.2638   1.0003052163e+02   7.9901032297e+00    0.4309889    0.1999458  53.33  0.001538315    2.654    0.623
       255 -12.1984    172.9082    173.6023   1.0351718972e+02   1.1524960045e+01    0.5105547    0.2801666  44.28  0.002090806    1.788    0.441
       256 -10.3028    143.6253    173.8981   1.1042528520e+02   1.7515619557e+01    0.2595074    0.2111064  30.48 0.0006593739    1.305    0.234
       257 -11.7851     87.0788    171.3505   1.2406268377e+02   2.8615978089e+01    0.4840231    0.2879264 -70.65  0.002156305    1.768    0.435
       258  -9.9367    106.7485    172.3815   1.1926186814e+02   2.4999988419e+01    0.2066926    0.1442635  30.74 0.0009481879    1.616    0.381
       259 -12.0657     63.6872    170.6892   1.2986099714e+02   3.2273982339e+01    0.4944296    0.3087862  31.03  0.002443653    1.844    0.458
       260 -10.3356     25.3297    171.5175   1.3925939929e+02   3.6572815379e+01    0.3039535    0.1307827 -84.84 0.0009669939    2.538    0.606
       261 -10.5473    157.0612    173.0736   1.0705731728e+02   1.4938131276e+01     0.236707    0.2283719 -83.05 0.0008824962    1.067    0.063
       262 -11.2937     31.4473    169.3169   1.3757090943e+02   3.6476276206e+01    0.2354612    0.1890732 -89.53 0.0002467682    1.065    0.061
       263  -9.9522    108.7490    169.0274   1.1813097076e+02   2.5445797529e+01    0.2066729    0.1872297 -69.73 0.0002867751    1.081    0.075
       264 -10.2251     72.7196    169.4769   1.2739951338e+02   3.1288158257e+01    0.3557233    0.1436575  33.01  0.001332822    2.771    0.639
       265  -9.7863      1.5468    168.9766   1.4439545710e+02   3.9231520565e+01    0.1715624   0.09138445 -74.94 5.884729e-05    1.453    0.312
       266 -10.7375    194.8626    167.9787   9.7512376828e+01   8.1469377309e+00    0.2616969    0.2104952  38.98 0.0006146074    1.249    0.199
       267  -9.8583    113.8067    168.6188   1.1676806877e+02   2.4609710437e+01    0.2273465    0.1341011  50.83 0.0009504021    1.739    0.425
       268 -10.6358     56.9702    167.7860   1.3111834509e+02   3.3876438117e+01    0.1837906    0.1645016  77.96            0    1.085    0.078
       269 -10.3884     48.4593    167.5354   1.3320693015e+02   3.5001080873e+01      0.26688    0.1167022 -66.10 0.0007018918    2.003    0.501
       270 -11.9900     51.1194    163.5473   1.3198233968e+02   3.5645203793e+01    0.4201264     0.314308  71.75  0.001792123    1.365    0.267
       271  -9.9305    206.4748    167.5097   9.5008062388e+01   5.8777736042e+00    0.1472738    0.1400464 -13.63 0.0002199145    1.008    0.008
       272  -9.9301    148.6980    167.2869   1.0783570309e+02   1.7981871964e+01    0.2239556    0.1928642 -56.45 0.0002436056    1.189    0.159
       273 -11.2881    142.6215    162.9128   1.0838727288e+02   2.0250709463e+01    0.5313075    0.2446117  47.45  0.001504009    2.188    0.543
       274 -10.2971     40.8388    166.3151   1.3492685010e+02   3.6181824489e+01    0.2171484    0.1551362 -82.46 0.0007924761    1.246    0.197
       275  -9.4032    132.2785    166.2812   1.1165239951e+02   2.1578101241e+01    0.1473063     0.124238  -8.79 0.0006918042    1.507    0.336
       276 -10.7492     82.1643    166.3982   1.2447829666e+02   3.0608982777e+01    0.3515173    0.1779123  32.90  0.001458752    2.210    0.548
       277 -10.2566     74.6780    165.0108   1.2617611745e+02   3.2092491980e+01    0.3213633    0.2374144 -12.10   0.00152599    2.135    0.532
       278 -11.7920     10.1401    163.7941   1.4197352106e+02   3.9742774390e+01    0.3902864    0.2352077 -73.11  0.001024274    1.313    0.238
       279 -10.9770    159.1354    164.6976   1.0479423140e+02   1.6373680941e+01    0.2859903    0.2213162 -41.79   0.00045823    1.333    0.250
       280  -9.8786    124.2989    164.3155   1.1325488510e+02   2.3628120036e+01    0.1523395    0.1244704 -13.54 0.0003369715    1.610    0.379
       281 -10.2530    104.6821    164.0347   1.1822547032e+02   2.7392045271e+01    0.2610817    0.1977459  56.32 0.0002961289    1.347    0.258
       282 -10.7047    203.1087    162.2608   9.4556287971e+01   7.6087437907e+00    0.3040257    0.2139258 -48.25  0.001438162    1.440    0.306
       283  -9.4683     26.3126    163.3165   1.3809869022e+02   3.8414591820e+01    0.1260566   0.08520363 -47.22 0.0007034735    1.642    0.391
       284 -10.0563    242.5177    161.0025   8.6835862399e+01   2.0777727036e-01    0.2087419    0.1245913 -38.22 0.0003779959    1.515    0.340
       285  -9.7545     35.8191    164.8870   1.3597650532e+02   3.7073958298e+01    0.1726058    0.1306859  76.23 0.0003120418    1.279    0.218
       286 -12.3908     34.2355    158.1196   1.3550114292e+02   3.8863314264e+01    0.3796087      0.24051  60.75 0.0003002269    1.717    0.418
       287 -12.0487    107.3040    158.0745   1.1637540686e+02   2.8364331832e+01    0.2716853    0.2539517 -65.96  0.000259897    1.053    0.050
       288  -9.8614     66.4654    158.5395   1.2724753925e+02   3.4863493957e+01    0.1409952    0.1265607 -76.34 0.0002326418    1.020    0.020
       289 -10.3991     24.1873    158.0136   1.3798833980e+02   3.9873823180e+01     0.179659    0.1644727  78.35 0.0002667186    1.174    0.148
       290 -10.1275    209.4013    157.1493   9.2168010625e+01   7.3381170119e+00    0.2105403    0.1355365 -51.54 0.0007880731    1.643    0.391
       291 -10.8090    190.3727    157.0976   9.6079265965e+01   1.1336983245e+01    0.2812218    0.2182259  53.81 0.0004452972    1.360    0.265
       292  -9.8710     95.9328    157.5018   1.1926100547e+02   3.0527222772e+01    0.2119667    0.1471875  40.28 0.0003178885    1.479    0.324
       293 -12.2937    137.8054    154.4268   1.0774645897e+02   2.3229091946e+01    0.6521506    0.4502754 -88.87  0.002089367    2.188    0.543
       294 -10.8236    183.9253    156.0194   9.7232015347e+01   1.2947782209e+01    0.2271731    0.2231019 -24.51 0.0003911506    1.012    0.012
       295 -10.3436    155.8742    155.8652   1.0363000106e+02   1.9059533279e+01    0.2169723    0.1876729  81.85  0.000555997    1.300    0.231
       296  -9.8464    130.6875    156.7382   1.1004829141e+02   2.4150855371e+01    0.1504277    0.1256008  -0.29            0    1.536    0.349
       297 -10.5529    113.5391    153.9946   1.1390245075e+02   2.8187656912e+01    0.3647663    0.2442839 -79.32  0.001432363    1.978    0.494
       298 -10.4404     84.4165    155.0002   1.2185584730e+02   3.3052812858e+01    0.3912829    0.1935779  39.65  0.001619531    2.071    0.517
       299 -11.7969     19.0086    153.1230   1.3868572831e+02   4.1494577777e+01    0.4731966    0.3012426 -42.72   0.00103996    1.807    0.447
       300 -11.0582    225.3360    151.5476   8.7892442297e+01   5.2143181484e+00     0.439803      0.28284 -64.77  0.001892272    2.236    0.553
       301  -9.9311     36.1182    153.3734   1.3438423989e+02   3.9809304859e+01    0.1756736    0.1546857  88.93 0.0004383273    1.089    0.082
       302 -10.5975     10.8498    153.4367   1.4072517630e+02   4.2093162669e+01    0.2076453    0.1581064 -15.23  0.001310554    1.880    0.468
       303 -10.6924    249.3109    151.0731   8.3610180699e+01   7.6595037807e-01    0.2002455    0.1590877 -40.51 0.0005453723    1.126    0.112
       304 -10.2858    189.0363    149.3050   9.4607244657e+01   1.3257528819e+01    0.2595842    0.2077108 -29.75 0.0005561443    1.319    0.242
       305  -9.8886      3.4787    149.5288   1.4209508948e+02   4.3547900229e+01    0.1846001    0.0847633 -63.52 0.0001066464    1.688    0.408
       306  -9.7684      3.7292    146.6334   1.4172876613e+02   4.4197784670e+01    0.1850449    0.1057454 -50.01 0.0006951161    1.727    0.421
       307 -10.3102     92.6538    147.3254   1.1813267373e+02   3.3580215809e+01    0.2828175     0.207625 -18.13 0.0009390659    1.953    0.488
       308 -10.6818     37.1760    147.9105   1.3333507771e+02   4.1015394762e+01    0.2561703    0.1902928  19.55 0.0006474146    1.702    0.412
       309  -9.8851    195.9606    146.0588   9.2408411125e+01   1.2426105454e+01    0.1863011    0.1698834 -43.13 0.0005059512    1.070    0.066
       310 -10.5090    164.0123    145.6731   9.9374954360e+01   1.9566636594e+01    0.2300857    0.2065905  39.88 0.0006378641    1.127    0.112
       311 -10.0921    237.1718    144.7885   8.4322089832e+01   4.1722408720e+00    0.1877674     0.159981  -8.63 0.0004075073    1.301    0.231
       312 -11.3133     52.6593    144.3497   1.2860042690e+02   4.0137743756e+01    0.2361766    0.2008915 -59.19 0.0004406373    1.092    0.084
       313 -11.3991     22.9040    143.3172   1.3645809799e+02   4.3475809537e+01    0.4319819    0.2263709 -78.68  0.001600336    1.796    0.443
       314 -10.7416     14.4841    143.2128   1.3863258766e+02   4.4197587903e+01    0.2146946    0.1755237  72.90 0.0005930074    1.269    0.212
       315 -10.5721    106.4020    143.2205   1.1351266250e+02   3.2135342798e+01    0.2266925    0.1446878 -64.98  0.000958557    1.721    0.419
       316 -12.5592    132.5323    140.6345   1.0596817210e+02   2.7562995923e+01    0.3169162    0.2819736 -60.62 0.0005157547    1.130    0.115
       317 -10.0038     47.3082    142.2839   1.2972979684e+02   4.1270603158e+01     0.132799   0.09553786 -37.91 0.0001789966    1.566    0.362
       318 -10.2763      5.7123    141.1206   1.4062481594e+02   4.5332705357e+01    0.1526762    0.1388356 -29.80 0.0001589066    1.376    0.273
       319 -10.1242     62.5667    140.0490   1.2508851912e+02   3.9927037342e+01    0.1954105    0.1858935  40.80 0.0003049621    1.170    0.145
       320 -10.0931     17.3634    139.8089   1.3745269331e+02   4.4767449923e+01    0.2679872    0.1096693  44.66  0.001230876    2.819    0.645
       321 -11.0931     35.8875    138.2408   1.3223187120e+02   4.3471344990e+01    0.2437182    0.1567243 -59.57 0.0004083459    1.315    0.239
       322  -9.8704    168.6674    137.7358   9.6422705290e+01   2.0273001655e+01    0.1566179    0.1263234  11.00 0.0001861713    1.579    0.367
       323 -12.8990     43.9359    135.2617   1.2950205554e+02   4.3344040821e+01    0.4700462    0.3066347  70.61  0.002356456    1.948    0.487
       324 -11.4835     77.2982    135.1597   1.1994533463e+02   3.9020062852e+01    0.2685174    0.2454069 -64.26 0.0004837796    1.017    0.017
       325 -10.1011     76.2177    130.7282   1.1933311127e+02   4.0255009053e+01    0.2072465    0.1600431 -36.88  0.000377232    1.368    0.269
       326  -9.4638    220.3082    134.7280   8.5091290747e+01   9.4756569193e+00    0.1430351    0.1136882 -78.43 0.0002430993    1.545    0.353
       327  -9.7015     29.6775    131.7083   1.3294503797e+02   4.5623386154e+01     0.198636   0.07742735 -47.68 0.0003906813    2.446    0.591
       328 -11.4190    195.8286    133.4635   8.9516584296e+01   1.5046111533e+01    0.2752248     0.240833 -42.32 0.0002678738    1.116    0.104
       329  -9.6591    101.3311    133.7179   1.1280065948e+02   3.5353979870e+01    0.1537066    0.1182456  76.13 0.0002688617    1.609    0.379
       330 -11.6557     93.1634    141.7869   1.1684816488e+02   3.4845194114e+01    0.3274777    0.2972253 -53.76  0.001773218    1.074    0.069
       331 -11.3518     49.7416    129.3697   1.2679481027e+02   4.4105931561e+01    0.4831445    0.2587777 -29.16  0.001981433    2.872    0.652
       332 -10.6821     22.7711    130.9158   1.3475609465e+02   4.6414975847e+01    0.1858352    0.1724001 -75.76 0.0004366087    1.133    0.117
       333 -12.6862    156.6687    128.8471   9.7083829237e+01   2.4945729129e+01    0.3146661    0.3060146 -64.67 0.0004183712    1.024    0.023
       334 -11.8288    123.1208    129.0232   1.0568845836e+02   3.2228699647e+01    0.2763928    0.2679326  -4.41 0.0002594613    1.091    0.084
       335 -11.3190     62.1016    128.1722   1.2294055510e+02   4.2863652790e+01    0.4262328    0.1616109 -54.71   0.00165698    2.275    0.560
       336  -9.9458    147.4906    129.7241   9.9542955621e+01   2.6819167014e+01    0.2831591    0.1402691  45.03   0.00103939    2.015    0.504
       337  -9.5445      6.4552    137.4871   1.4001127080e+02   4.6121058006e+01    0.1229167   0.09531045 -70.01 0.0002222186    1.033    0.032
       338 -10.4156     16.7396    128.6424   1.3610283533e+02   4.7428989384e+01    0.2903463    0.1258541  18.11  0.001359651    3.071    0.674
       339 -10.0320      1.3333    128.2331   1.4024430945e+02   4.8576833211e+01     0.167352   0.09074108 -79.09 0.0003726653    1.597    0.374
       340 -10.6372     91.5532    126.6923   1.1398246566e+02   3.8755521334e+01    0.3174115    0.2574742 -17.73  0.001587484    1.477    0.323
       341  -9.7869    103.0884    125.8580   1.1047364259e+02   3.6896711197e+01    0.2017666    0.1769112 -14.96  0.001026439    1.291    0.225
       342 -10.4034     20.4204    125.9870   1.3468196695e+02   4.7760475863e+01    0.2058919    0.1621998  60.40 0.0007127755    1.463    0.316
       343  -9.5318    140.9935    125.0370   1.0001313973e+02   2.9313556193e+01    0.1864897    0.1820665  62.02 0.0009618026    1.018    0.018
       344 -10.3788     55.0493    124.6675   1.2433201671e+02   4.4597643488e+01    0.1845832    0.1730071 -41.26 0.0004757108    1.099    0.090
       345 -10.6541     81.3012    124.0563   1.1638334565e+02   4.1067253670e+01    0.2418948    0.2040684  48.32 0.0001978902    1.272    0.214
       346 -10.6411     84.4686    120.3247   1.1458527363e+02   4.1440639545e+01    0.3763549    0.2857823 -58.50   0.00190473    1.285    0.222
       347  -9.2680    113.3000    130.7032   1.0876915923e+02   3.3809392836e+01     0.154697    0.1221685  82.92 0.0003068201    1.575    0.365
       348 -10.0696    108.2981    123.5591   1.0844211837e+02   3.6451300128e+01    0.2005673    0.1503635  27.61 0.0005861006    1.491    0.329
       349 -11.1903     62.4910    122.2342   1.2160603927e+02   4.4228909406e+01    0.4506404    0.1692008  36.85   0.00174538    2.810    0.644
       350 -10.5874     68.5738    121.7279   1.1966646990e+02   4.3518912851e+01    0.3679902    0.2173904 -39.39  0.001677405    1.787    0.440
       351 -10.2592     70.1959    117.3490   1.1820445404e+02   4.4319781924e+01    0.3152284    0.2188414  36.77  0.001056193    1.554    0.357
       352 -10.0931     38.0105    123.0227   1.2908978666e+02   4.6879622352e+01    0.2040626    0.1350683 -38.82 0.0004094237    1.563    0.360
       353  -9.8530      2.7364    123.5463   1.3927805377e+02   4.9558935059e+01    0.1418104    0.1072862  46.83 0.0009380508    1.587    0.370
       354  -9.7981    138.7963    121.4421   9.9667932990e+01   3.0601879856e+01    0.2115269     0.152117  33.33 0.0004238845    1.524    0.344
       355  -9.8966    172.9904    120.2634   9.1176686525e+01   2.3022982302e+01    0.2184886    0.2015235  65.48 0.0004371951    1.088    0.081
       356 -11.6742     29.9897    119.4661   1.3084644366e+02   4.8472624448e+01    0.2672204    0.2159682  15.86   0.00167346    1.491    0.329
       357 -12.3397     19.0956    118.6967   1.3393802006e+02   4.9553966596e+01    0.4127493    0.2505603  -4.50   0.00221382    2.343    0.573
       358 -10.5963     93.2950    118.5071   1.1153639527e+02   4.0377628184e+01    0.3009374    0.2269857 -81.44 0.0008291305    1.710    0.415
       359 -11.4676      2.0799    117.1625   1.3861811682e+02   5.1043474785e+01    0.3492635    0.2017772 -88.73  0.001947032    1.843    0.457
       360 -11.3930      3.7879    111.9704   1.3740018838e+02   5.2111948776e+01    0.2185679    0.1649902 -57.04 0.0003205343    1.084    0.078
       361 -10.3629     54.9763    117.9180   1.2298454373e+02   4.6202373191e+01    0.2093799    0.1813769 -56.02 0.0007001599    1.031    0.030
       362 -10.8227     88.0464    114.6383   1.1215173044e+02   4.2171114410e+01    0.3929479    0.2066099 -55.02  0.001124607    1.891    0.471
       363  -9.7893    126.0219    114.9112   1.0135129003e+02   3.4826194441e+01    0.1835183    0.1802453 -54.47  0.000602463    1.016    0.016
       364 -10.4054     59.9448    114.8983   1.2081005212e+02   4.6285633857e+01    0.2931934    0.1786741 -13.16  0.001236162    2.669    0.625
       365 -10.4995     33.9024    114.8889   1.2884575567e+02   4.9177424385e+01    0.1978255    0.1468939  76.09 0.0007296066    1.683    0.406
       366 -10.0182     49.1577    112.1909   1.2358611583e+02   4.8222028871e+01    0.1779968    0.1542444  69.02  0.001057141    1.364    0.267
       367 -10.8619     36.9150    108.8275   1.2674344903e+02   5.0284606102e+01      0.35133    0.1668528 -57.56  0.001438513    1.745    0.427
       368 -10.9166     20.8297    109.6048   1.3190545807e+02   5.1501361235e+01    0.2395313    0.1588099 -69.19 0.0008151815    1.343    0.255
       369  -9.9321     84.8013    109.2074   1.1178537044e+02   4.3950439828e+01    0.2352469     0.157787  82.22 0.0007211569    2.727    0.633
       370  -9.4505    170.7095    107.6967   8.8497748472e+01   2.6147778369e+01      0.15281    0.1260966   8.64 0.0001653769    1.569    0.363
       371 -10.3692     44.6294    106.6888   1.2385044528e+02   4.9984425616e+01    0.2350472     0.157105  30.75  0.001279283    1.688    0.407
       372 -10.7436     63.9500    106.0338   1.1752480414e+02   4.7794061143e+01    0.2042201    0.1847432 -46.65 0.0003380218    1.029    0.028
       373 -10.9200     87.5403    104.6893   1.0978822468e+02   4.4505785937e+01    0.2474916    0.2377086  55.19 0.0003318742    1.136    0.120
       374 -11.0058     29.1567    103.2332   1.2810101113e+02   5.2262539420e+01    0.2093164    0.1660783 -46.99 0.0003554883    1.079    0.073
       375 -10.8958     19.8474    103.5838   1.3113726720e+02   5.2932323843e+01    0.2289948    0.1871113 -45.01  0.001518176    1.105    0.095
       376 -10.5414    234.0204    102.4849   7.5564014632e+01   1.2580580920e+01    0.2068013    0.1738912 -51.69 0.0003930859    1.076    0.070
       377 -11.6018     75.0344    102.2355   1.1305937860e+02   4.7056840688e+01    0.3551774    0.2645922 -39.57  0.001117419    1.268    0.211
       378 -11.0554    135.2852    101.3010   9.5259277145e+01   3.5718482343e+01    0.2748547    0.2581239  84.51 0.0005466194    1.127    0.113
       379  -9.5842    168.5397    101.5316   8.7376182080e+01   2.7897591497e+01     0.156574    0.1484292 -88.64 7.714619e-05    1.043    0.041
       380 -11.2568     84.6245    100.2224   1.0951482227e+02   4.5976621947e+01    0.4373117    0.2853427  11.72  0.001626157    2.118    0.528
       381  -9.7901    176.5187    100.5979   8.5425310118e+01   2.6166729902e+01     0.153083    0.1470915  72.66 0.0008019542    1.029    0.029
       382 -10.9611     68.0470     98.8866   1.1444348981e+02   4.8821233822e+01    0.3530591    0.2188527 -33.45  0.001406446    1.699    0.411
       383 -11.1647     23.8645     96.3066   1.2844023314e+02   5.4237836620e+01    0.2236374    0.1668476 -87.88 0.0009058123    1.652    0.395
       384 -10.7852      8.7756     99.4484   1.3391011829e+02   5.4598168355e+01    0.2456482    0.1746429  28.73  0.001040157    1.728    0.421
       385 -10.1187      4.7570     97.9852   1.3493341353e+02   5.5153434255e+01    0.1862266    0.1008301 -63.83 0.0007934388    1.450    0.310
       386 -12.4101    106.3141     97.7611   1.0227155211e+02   4.2575618005e+01    0.3176921    0.2856366  42.53 0.0003379253    1.134    0.118
       387 -10.4356    100.2029     95.6200   1.0348312717e+02   4.4199303362e+01    0.2965866    0.2491482 -42.10  0.001336231    1.170    0.145
       388 -12.3764     55.2014     96.8228   1.1813695384e+02   5.0975288562e+01    0.4336109    0.2480014 -54.82 0.0004088343    1.610    0.379
       389 -10.0213    124.9806     97.4412   9.6921385859e+01   3.8787331288e+01    0.2499914    0.1953144 -40.49  0.001209057    1.295    0.228
       390 -11.9939    113.5748     91.2011   9.8320202911e+01   4.2467717221e+01    0.2739051    0.2586739  41.66 0.0003276233    1.069    0.065
       391 -10.3293    118.9312     96.5687   9.8337162671e+01   4.0258777166e+01    0.2548757    0.2048848 -53.05 0.0003599728    1.312    0.238
       392 -10.0616     61.8246     95.6493   1.1565211275e+02   5.0383818741e+01    0.1935766    0.1213652  41.81 0.0009540837    1.818    0.450
       393 -11.0480     34.4217     92.8798   1.2417661870e+02   5.4079727917e+01    0.2504269    0.1774766 -68.38  0.001411307    1.488    0.328
       394 -10.2892      6.0124     94.1336   1.3387369086e+02   5.5919756618e+01    0.1818644     0.121992 -47.09 0.0004315655    1.222    0.182
       395 -11.7706    172.1479     90.2503   8.3643086872e+01   2.9194675675e+01    0.2863867    0.2468327 -77.25 0.0001870336    1.223    0.183
       396 -11.3977     75.1507     90.1915   1.0981625197e+02   4.9636892631e+01    0.3435818     0.251319 -75.96  0.001662865    2.015    0.504
       397 -10.9946     77.9739     87.7569   1.0821453496e+02   4.9700791551e+01    0.4396151    0.2476433 -20.92  0.001732308    2.727    0.633
       398 -11.7468     24.8688     91.1574   1.2703551586e+02   5.5279789225e+01    0.2553159     0.162294 -73.13  0.001402351    1.758    0.431
       399 -11.6264     88.6904     88.0539   1.0486938372e+02   4.7853415325e+01      0.37966    0.3220183 -30.45  0.001532075    1.133    0.118
       400  -9.5303    150.5229     89.5043   8.8233069666e+01   3.4538242146e+01    0.1533195    0.1480101  40.59 0.0008096828    1.052    0.050
       401 -12.1185     63.3882     87.2794   1.1292142511e+02   5.1956623971e+01    0.3136477    0.2627928  50.71  0.000188668    1.460    0.315
       402 -10.5661     48.1984     85.5117   1.1765681486e+02   5.4230403741e+01    0.2291703    0.1604718 -46.76 0.0005293635    1.252    0.201
       403 -11.7297     30.0110     85.2025   1.2393270419e+02   5.6122400890e+01    0.4785315     0.267801  -2.17  0.001768708    2.405    0.584
       404  -9.7717      2.6602     87.6779   1.3382575419e+02   5.7485765657e+01    0.1273801   0.06439914 -40.56 0.0003837209    1.720    0.418
       405 -10.5267    154.4481     85.8187   8.6304499473e+01   3.4295273803e+01    0.2082511    0.1507491 -24.36 0.0007117611    1.653    0.395
       406 -10.8881    127.6936     85.6740   9.2846212059e+01   4.0526657408e+01    0.2375185    0.2170566  21.23 0.0007516846    1.121    0.108
       407 -10.6964    132.0161     85.5011   9.1666512661e+01   3.9591886869e+01    0.4252697    0.2503035  29.95  0.001329398    2.195    0.544
       408 -10.4310    132.5376     82.5143   9.0668367905e+01   4.0035255935e+01    0.2790586    0.2167824  18.41 9.517918e-05    1.545    0.353
       409 -11.5931     53.4499     83.8601   1.1539664554e+02   5.3954200120e+01    0.4436501    0.3863388 -72.93  0.002459819    1.420    0.296
       410 -10.8010      9.9763     85.4977   1.3094403771e+02   5.7535576765e+01    0.2365876    0.1943947 -15.19 0.0009662344    1.315    0.240
       411 -11.2400    119.3794     84.9172   9.4870730594e+01   4.2484432542e+01    0.3299757    0.1903359  62.72  0.001273031    2.436    0.589
       412  -9.9345     98.6551     83.6796   1.0050911461e+02   4.6913792944e+01    0.1522297    0.1115021  -0.02 0.0007049653    1.728    0.421
       413 -10.9163     20.1017     82.0937   1.2670504559e+02   5.7572634679e+01    0.2094374    0.1677292  16.70 0.0006433316    1.450    0.310
       414 -11.1996    154.1491     79.1769   8.4525708781e+01   3.5573863563e+01    0.3300373    0.2370858 -50.21  0.001303374    1.478    0.323
       415 -10.3418    113.8593     80.3654   9.5063123660e+01   4.4516192716e+01     0.250224    0.2120915 -33.59  0.001162132    1.198    0.165
       416 -10.9517    116.8329     77.1185   9.3256223014e+01   4.4489374803e+01    0.2384691    0.2027865 -51.25 0.0004073238    1.287    0.223
       417 -10.7770     77.0785     80.9323   1.0653748286e+02   5.1221866627e+01    0.2118274    0.1899767 -17.93 0.0006513258    1.022    0.021
       418 -10.2041     42.5458     79.7201   1.1812898575e+02   5.6051576885e+01    0.2812209    0.1226581 -62.13 0.0008958877    2.949    0.661
       419  -9.5812    162.4054     80.4542   8.3070811084e+01   3.3348927826e+01     0.150266    0.1419841  87.21 7.640959e-05    1.043    0.041
       420 -10.7865      2.7438     77.9990   1.3196203252e+02   5.9505097814e+01     0.314648    0.1633605 -59.79  0.001836378    1.510    0.338
       421 -12.3031      3.0894     67.6463   1.2965661538e+02   6.1578650360e+01    0.5367905    0.2999681 -55.36  0.003316577    1.394    0.283
       422 -12.5269      5.5155     59.5633   1.2682822315e+02   6.3020223112e+01    0.5148954    0.3384971 -12.30  0.002919191    1.542    0.352
       423 -11.0170     12.6351     64.2461   1.2523014159e+02   6.1688622033e+01    0.3024715    0.2076083  45.09  0.001883757    2.120    0.528
       424 -10.2365     68.6995     78.5730   1.0865217959e+02   5.2971242986e+01    0.1745994    0.1275063  41.64 0.0008672319    1.536    0.349
       425 -10.9363     28.8781     74.5650   1.2173763574e+02   5.8416805756e+01    0.3175559    0.1432532 -51.64 0.0003193764    1.819    0.450
       426 -12.1461     58.4763     74.3767   1.1096245262e+02   5.5221483518e+01    0.3390768    0.2620944  40.96 0.0001704865    1.517    0.341
       427 -10.4693    101.0531     75.2080   9.7224987553e+01   4.8061725978e+01    0.2104165    0.1801421  11.27 0.0002950778    1.182    0.154
       428 -10.7130     53.0739     74.6150   1.1295149593e+02   5.5866062620e+01    0.2414806    0.1655388 -37.79 0.0004323976    1.292    0.226
       429 -10.1675     68.9629     73.6058   1.0707809221e+02   5.3896477689e+01    0.2019351    0.1635443 -34.35 0.0003648466    1.149    0.130
       430 -10.0147     48.6231     73.9484   1.1435933929e+02   5.6532562996e+01    0.1789543    0.1446478 -37.86 0.0004122735    1.101    0.092
       431 -10.7983    116.2049     72.2455   9.1948361537e+01   4.5497034467e+01    0.3826382    0.2566729   4.85  0.001632511    2.249    0.555
       432 -11.1172     84.3121     71.9720   1.0144562162e+02   5.1735104406e+01    0.2682223    0.2175814 -21.71  0.001144523    1.197    0.165
       433 -11.0117     87.9953     69.1863   9.9384097439e+01   5.1594382589e+01    0.2736701     0.221038   5.46 0.0007058768    1.271    0.213
       434 -10.4897     36.4352     71.8193   1.1822262872e+02   5.8264783795e+01    0.2416037    0.2366133  33.41  0.001701761    1.319    0.242
       435  -9.9872    187.9210     69.6855   7.5280149593e+01   2.8940805039e+01    0.2021201    0.1720791  68.47 0.0003676423    1.111    0.100
       436 -10.1566     53.1576     69.6528   1.1146250872e+02   5.6816204005e+01    0.2106462    0.1591778 -47.93  0.000611743    1.333    0.250
       437 -10.0951     57.4595     68.1964   1.0946822284e+02   5.6537375777e+01    0.1685162    0.1205251 -54.56 0.0009243842    1.603    0.376
       438 -11.3695     26.9483     67.5405   1.2061486586e+02   5.9974702017e+01    0.2218487     0.172662 -30.18 0.0004108461    1.069    0.064
       439 -11.0606     26.0169     63.2766   1.1980380149e+02   6.0875154510e+01    0.2031287    0.1342276 -45.12  0.001102827    1.264    0.209
       440  -9.7893    212.4020     67.4929   7.0829552065e+01   2.3415307141e+01    0.1400816    0.1257016 -76.51 9.738297e-05    1.030    0.029
       441  -9.5155     93.6372     67.6701   9.7126515120e+01   5.0831484276e+01    0.1501497    0.1046033   5.24  0.000703905    1.804    0.446
       442  -9.5809    106.2192     66.5823   9.3006852301e+01   4.8560943521e+01    0.2034317    0.1260626  34.25 0.0005601473    1.641    0.391
       443 -10.7886    147.9285     62.8557   8.1260729826e+01   3.9816143072e+01    0.2202521    0.1901626  35.64 0.0004325846    1.197    0.165
       444 -11.7660    216.2709     61.3182   6.8847994352e+01   2.3478824536e+01    0.2377576    0.2121653 -80.42  0.000286325    1.041    0.039
       445 -10.1120    128.1678     62.1930   8.5708335539e+01   4.4545519871e+01    0.1869391    0.1687464 -88.04 0.0002956685    1.281    0.220
       446 -11.7233     73.7685     52.3850   9.8535866743e+01   5.6871137567e+01    0.3961039    0.2233132  53.49  0.000968405    2.588    0.614
       447 -10.2560     70.9393     61.4786   1.0256698616e+02   5.5808215246e+01    0.1933936    0.1246616  33.79  0.000715577    1.545    0.353
       448 -10.1798     39.5309     60.3561   1.1372978545e+02   6.0131003496e+01    0.2656388    0.1055357 -47.56  0.001221773    2.220    0.550
       449 -11.2231     31.7067     59.9905   1.1664869859e+02   6.0983657135e+01    0.2716855    0.1455533 -47.04  0.001222583    1.608    0.378
       450  -9.3247     54.2778     58.3263   1.0750947617e+02   5.8746441458e+01    0.1314169   0.08655111 -15.43 0.0002453156    1.591    0.371
       451  -9.5176    110.9509     56.9880   8.8598366779e+01   4.9141660929e+01    0.1705502    0.1497991  35.49  0.000397994    1.053    0.051
       452  -9.7613    107.4674     57.5063   8.9739052995e+01   4.9789395310e+01    0.1418567    0.1267242  20.53 0.0001167481    1.048    0.045
       453 -10.1410     58.2742     56.9518   1.0558421150e+02   5.8448856027e+01    0.1759939    0.1438156 -22.14            0    1.086    0.079
       454 -11.4236     27.6158     55.1091   1.1680074382e+02   6.2252759795e+01    0.3870372    0.2340659 -45.47  0.002320154    1.428    0.300
       455 -10.3229     20.9000     56.9113   1.2001620169e+02   6.2487377888e+01    0.1570143    0.1444368  74.08 0.0009429315    1.639    0.390
       456 -10.6326    181.6024     56.1401   7.2886486498e+01   3.2609918843e+01    0.2253729     0.181933  84.45 0.0004440112    1.202    0.168
       457 -11.3446     46.9217     53.2946   1.0863092637e+02   6.0543797859e+01    0.2877879    0.1528303 -33.96  0.001504071    1.720    0.419
       458 -10.6935     93.3891     54.2934   9.2822027415e+01   5.3092770897e+01    0.2613882    0.1926192  13.20   0.00077534    1.456    0.313
       459 -10.4913    164.1809     54.1161   7.5462476266e+01   3.7194843677e+01    0.2057149     0.182625  48.53 0.0002856798    1.143    0.125
       460 -11.0445    118.9915     53.5174   8.5333080220e+01   4.7934340887e+01    0.2534167    0.1938104  -7.27 0.0008953484    1.526    0.345
       461 -11.6265     41.6061     51.7556   1.1018436845e+02   6.1428893647e+01    0.2599042    0.2060182 -52.06   0.00105743    1.547    0.354
       462 -10.7665     32.8840     51.2365   1.1347857570e+02   6.2443480619e+01    0.3211054    0.1658643 -56.13  0.001610657    2.413    0.586
       463 -10.3556      1.5096     52.9306   1.2675305178e+02   6.4483079066e+01    0.1666584    0.0873514 -53.72 0.0004177249    1.524    0.344
       464 -10.2367    106.9166     50.5943   8.7627878816e+01   5.0951728178e+01    0.3520041    0.1373647  39.87  0.001297553    2.605    0.616
       465 -11.6812     17.4437     62.4828   1.2291460044e+02   6.1698890784e+01    0.3900439    0.2723148 -73.01  0.001591012    1.946    0.486
       466  -9.6846     82.3036     50.6372   9.5080635191e+01   5.5693136191e+01    0.1237565    0.1083166 -77.78 0.0007037259    1.731    0.422
       467 -10.3769     20.4581     41.4265   1.1542289091e+02   6.5248844026e+01     0.288626     0.145181 -43.27  0.001672493    1.655    0.396
       468 -10.6953     19.0100     49.5434   1.1860967598e+02   6.3969123082e+01    0.2873121    0.1891743  16.01  0.001821201    1.607    0.378
       469 -11.7157     16.9805     46.4426   1.1850437388e+02   6.4670192737e+01    0.3814841    0.1908876   7.56  0.002109668    2.265    0.558
       470 -11.3730     12.7952     46.1639   1.2018185241e+02   6.5023704275e+01    0.2761596    0.2313554  88.93  0.001649458    2.060    0.514
       471 -10.4365     24.2627     39.6074   1.1318430592e+02   6.5218167323e+01    0.2132162     0.151564 -20.00 0.0002872816    1.135    0.119
       472 -10.2316     22.5067     36.5365   1.1287459953e+02   6.5870431645e+01    0.1788869    0.1245141 -40.05  0.000684135    1.348    0.258
       473 -10.4304     11.8092     50.6134   1.2190258151e+02   6.4298823603e+01    0.1447837   0.09852932  25.74 0.0009568146    1.751    0.429
       474  -9.7020    128.9889     49.7787   8.1669282344e+01   4.6230311986e+01    0.1838212    0.1069204  53.12 0.0003740257    1.568    0.362
       475 -11.4497     77.9597     61.2370   1.0009699704e+02   5.4718189252e+01    0.3660403    0.2581434 -14.36   0.00114589    1.524    0.344
       476 -10.2202    145.8484     54.8887   7.9390153978e+01   4.1534450885e+01    0.2108995    0.1848928  36.00 0.0002949469    1.167    0.143
       477  -9.9993     93.9857     46.7820   9.0086762900e+01   5.4102827298e+01    0.2046336    0.1574162  76.55  0.001055884    2.044    0.511
       478  -9.9562    122.5887     46.1862   8.2085310849e+01   4.8183015226e+01    0.1769029     0.133258 -10.71 0.0004361155    1.552    0.356
       479 -12.2596     61.8544     44.7843   1.0007332900e+02   5.9912653881e+01    0.2577706    0.2103742 -13.92 0.0003410929    1.094    0.086
       480 -10.9772    164.2977     43.2576   7.2453496160e+01   3.8685980313e+01    0.2791924     0.251094 -54.09  0.001515243    1.194    0.162
       481 -10.4984     34.6504     44.6317   1.1057049003e+02   6.3382671581e+01    0.1793961    0.1640242  69.22 0.0005390554    1.844    0.458
       482 -10.8194    141.2714     42.8459   7.6794545033e+01   4.4309736138e+01    0.2875664    0.2270112 -23.86  0.001146809    1.445    0.308
       483  -9.7561     80.4559     44.0023   9.3359499890e+01   5.7005580467e+01    0.1878671    0.1225142 -30.49  0.000692233    1.551    0.355
       484 -11.1667     86.1342     42.9223   9.1156018644e+01   5.6134792333e+01    0.2035508    0.1815102  14.32 0.0002942363    1.051    0.049
       485 -10.5148     70.0141     41.7709   9.6078979518e+01   5.9093680489e+01     0.204014      0.16373 -16.37 0.0003796072    1.170    0.145
       486  -9.5845    246.3031     41.2783   6.1006111229e+01   1.9688519852e+01    0.1092721    0.0969988  50.50 0.0001976444    1.546    0.353
       487 -11.0627     56.5166     40.6991   1.0056723061e+02   6.1302007457e+01    0.2812915    0.1695111  -8.96  0.001354551    1.924    0.480
       488 -10.2857     38.5278     40.4650   1.0752986395e+02   6.3630960527e+01     0.323624       0.1677   8.29  0.001472385    2.474    0.596
       489 -10.5491    125.4863     40.6557   7.9628538481e+01   4.8265648355e+01    0.3500032    0.1180524  55.41  0.001280672    2.674    0.626
       490 -11.2944      9.5543     39.3335   1.1946120553e+02   6.6421192685e+01    0.2403675    0.1474732 -22.92 0.0005961122    1.373    0.272
       491 -11.8645    166.2160     37.9198   7.0663894667e+01   3.8911276691e+01    0.2412409    0.2224576  74.41 0.0002839518    1.057    0.054
       492 -10.6170    239.3296     36.5363   6.0748398461e+01   2.1836847366e+01    0.2194771    0.1636018 -61.69 0.0003149959    1.160    0.138
       493 -10.1675     41.6252     36.6451   1.0488065075e+02   6.3856572627e+01    0.1921374     0.173825  68.93  0.000893835    1.980    0.495
       494  -9.8903    129.0424     36.5201   7.7507550543e+01   4.7974211897e+01    0.2088487    0.1223292  56.63 0.0005668913    1.528    0.346
       495 -11.1451     16.2864     33.7770   1.1463876812e+02   6.6836381405e+01     0.487746    0.1944733 -30.33  0.001688181    2.384    0.581
       496 -11.3120    142.8230     31.0999   7.2973994370e+01   4.5395792329e+01    0.2507018    0.2082794  22.73 0.0006746264    1.366    0.268
       497 -11.0152     60.4170     34.5010   9.6811149530e+01   6.1617695767e+01    0.3017424    0.2013464  -4.88   0.00152998    1.526    0.345
       498 -10.0449     29.3372     34.8968   1.0934942119e+02   6.5479132037e+01    0.1584018    0.1313876 -41.65 0.0006985101    1.483    0.326
       499 -10.3041     91.9965     33.7213   8.6095831765e+01   5.6238565866e+01    0.1814427    0.1489586  33.81 0.0002201819    1.076    0.070
       500 -11.9294     78.7748     33.0212   8.9919846068e+01   5.8791313100e+01     0.420588    0.2463751  41.55  0.001525547    1.559    0.359
       501 -10.5083     55.4670     33.9807   9.8455292759e+01   6.2417522521e+01    0.1727369    0.1095554 -32.88 0.0004820913    1.549    0.354
       502 -11.0224    103.2146     32.9353   8.2663981699e+01   5.4077093572e+01    0.2816936    0.1809977 -24.67  0.001024703    1.700    0.412
       503 -11.0772    106.2449     31.4405   8.1347009151e+01   5.3620843133e+01    0.2502468     0.231893  38.80 0.0008664916    1.109    0.098
       504  -9.5002    183.0146     31.9697   6.6484876631e+01   3.5550045607e+01    0.1568944    0.1398503 -89.64            0    1.060    0.056
       505 -10.1077      5.0396     32.4451   1.1924456841e+02   6.7857291979e+01    0.1473677   0.09360586   5.70 0.0004416423    1.557    0.358
       506 -10.0006    206.6687     31.4492   6.3246864626e+01   2.9935078919e+01     0.175378    0.1103991  61.80 0.0009287023    1.492    0.330
       507  -9.9605    158.9597     30.4925   6.9860231365e+01   4.1586711061e+01    0.1899757    0.1760561 -45.18 0.0005224837    1.220    0.180
       508 -10.8135    118.7618     33.3554   7.8866874221e+01   5.0682080130e+01    0.3532673     0.213919  67.73 0.0009814386    1.918    0.479
       509 -10.2797    232.9165     32.3379   6.0536545412e+01   2.3802363326e+01    0.2058368    0.1463346 -61.50 0.0002293946    1.236    0.191
       510 -10.5990     32.0018     27.7682   1.0552303478e+02   6.6254396270e+01     0.279324    0.1868249 -50.93  0.001691019    2.199    0.545
       511 -11.5963    100.7370     27.2147   8.1334581089e+01   5.5253985680e+01    0.3573831    0.2008168  47.15  0.001846625    1.531    0.347
       512 -11.1164     76.8958     27.5025   8.8460483464e+01   5.9804355349e+01     0.250001    0.1719651 -29.21 0.0006237524    1.546    0.353
       513 -10.9215    187.1003     27.0311   6.4691061762e+01   3.5154935495e+01    0.2001088    0.1696391  78.06 0.0003401916    1.038    0.037
       514  -9.6063     17.5092     27.4458   1.1180472891e+02   6.7713305946e+01    0.1134927   0.08321538 -16.36 0.0002449866    1.025    0.024
       515 -10.1361    168.9813    249.2687   1.1798037229e+02  -2.3278026528e+00    0.1842939     0.149716  37.21 0.0004032636    1.042    0.040
       516 -11.2105      1.8702     25.4437   1.1833496194e+02   6.9170037685e+01    0.1879223    0.1319068 -33.97 0.0005172296    1.146    0.127
       517 -12.9519      8.1978     23.5321   1.1465711192e+02   6.9037566931e+01    0.3642187    0.1964745  22.31  0.001495717    1.937    0.484
       518  -9.9328     90.4833     24.4640   8.3187185643e+01   5.7616988248e+01    0.1288786    0.1068228  28.05 0.0001688062    1.013    0.013
       519 -10.2894     61.8542     23.8094   9.2145189799e+01   6.2768415189e+01    0.1938553    0.1409429   8.92 0.0007104757    1.221    0.181
       520 -11.2846     17.5589     23.0339   1.1010260837e+02   6.8357109623e+01    0.2928642    0.1530485  25.88  0.001265838    1.953    0.488
       521 -10.0688    118.8265     22.8305   7.5406122004e+01   5.1840404601e+01    0.1685207    0.1419085  71.98 0.0002326635    1.278    0.218
       522 -10.7119    114.1609     20.8323   7.5806624256e+01   5.3076089794e+01    0.1824412    0.1677267  67.19 0.0005407479    1.196    0.164
       523 -11.0587    135.5034    248.5390   1.2468157675e+02   3.5225084959e+00    0.2764032    0.1975579  -3.60  0.001370427    2.461    0.594
       524 -10.3645    218.3018     19.6725   5.9364972469e+01   2.8669236603e+01     0.134458   0.07945043 -69.96 0.0002327029    1.643    0.391
       525 -10.5895     98.5075    249.4801   1.3223176485e+02   9.4640020312e+00    0.2328492    0.1427306  38.37 0.0006352213    1.559    0.359
       526 -10.0198    225.9952     16.9881   5.8055471041e+01   2.7246089848e+01    0.1505122    0.1189084 -82.68            0    1.004    0.004
       527 -10.1149    158.0588     17.2733   6.6362835745e+01   4.3247096816e+01    0.1840849    0.1462379  69.32 0.0003316523    1.064    0.060
       528 -10.7065    132.5141     16.4833   7.0549026839e+01   4.9363012901e+01    0.2355565    0.1424998  38.82  0.000700598    1.663    0.399
       529 -10.5022     95.6194    247.7565   1.3261148321e+02   1.0251800895e+01     0.259383     0.144898 -74.80  0.001232839    2.095    0.523
       530 -11.1249    145.0071    247.5432   1.2260723511e+02   2.0742627516e+00    0.3105017    0.2370261 -21.48  0.001745509    1.827    0.453
       531 -10.5971    138.0381    237.0000   1.2255400535e+02   5.2163147007e+00    0.6465807    0.1605695  35.46  0.001764229    5.187    0.807
       532  -9.4106     45.3287     17.6938   9.5902257459e+01   6.5929294950e+01    0.0961954   0.09339699  26.02 0.0002708454    1.655    0.396
       533 -10.0928     21.5300     17.4955   1.0605645637e+02   6.8754098517e+01    0.1114968   0.08284683  -8.93 4.850859e-05    1.017    0.017
       534 -11.2220    146.3360    241.9145   1.2153257251e+02   2.8541915601e+00    0.2795661     0.215536  47.78 0.0007772666    1.133    0.117
       535  -9.9516    153.5154     15.0025   6.6450873439e+01   4.4560737694e+01    0.1722539    0.1328313 -24.66   0.00102297    1.567    0.362
       536 -10.7306    173.0307     13.7001   6.3252837767e+01   4.0009364966e+01    0.1860348    0.1460315  75.14  0.000405569    1.060    0.057
       537 -11.1228     86.7359     13.9443   8.0351034696e+01   5.9422838474e+01    0.3352022     0.137481  48.08  0.001374589    2.000    0.500
       538 -11.2481    143.4223    238.3297   1.2161826766e+02   4.0223286221e+00    0.3355085    0.2256935  46.32  0.001135699    1.291    0.225
       539 -10.1400     92.5578     19.0508   8.0625586822e+01   5.7779988431e+01    0.1723909    0.1199467 -20.36 0.0007650082    1.564    0.361
       540 -11.2053    130.3131    247.3037   1.2557410706e+02   4.6300007349e+00    0.3441163    0.2662979  14.49  0.001058073    1.717    0.418
       541 -12.6013    128.2553    240.9763   1.2515121637e+02   6.1610922387e+00    0.3307252    0.2761885  72.64 0.0003883014    1.225    0.184
       542 -10.5368    122.1660    247.8986   1.2730685399e+02   5.8955259212e+00    0.2591306    0.1705288  61.56 0.0007057603    1.524    0.344
       543 -11.2127    121.4042    243.2961   1.2687217437e+02   6.8881682953e+00    0.2281201    0.1917573  69.93 0.0001812185    1.157    0.135
       544 -13.6410     76.5522    241.5722   1.3571589571e+02   1.4394798239e+01    0.6368939    0.3594648  75.77  0.002218063    1.966    0.491
       545 -11.1296     83.6406    238.4402   1.3397903338e+02   1.3960679387e+01    0.2845119    0.2067348  44.36 0.0007017095    1.303    0.233
       546 -10.4529     87.4656    236.4596   1.3298782753e+02   1.3774344920e+01    0.2131517    0.1723027 -66.09 0.0006949152    1.375    0.273
       547 -10.2404    210.2011    247.3993   1.0948705383e+02  -8.8183012033e+00    0.1899446    0.1365177  31.05 0.0007474114    1.200    0.167
       548 -10.9339    206.3302    245.9165   1.0999610572e+02  -7.9847953439e+00    0.2477037    0.1820819  23.02 0.0008856888    1.178    0.151
       549 -11.9219    164.6922    244.0219   1.1806016776e+02  -7.0953467740e-01    0.2817539    0.2484144 -50.57 0.0004455519    1.344    0.256
       550 -11.7690    168.7786    240.0575   1.1660761894e+02  -7.3606114283e-01    0.3459311    0.2804873 -51.57  0.001325087    1.463    0.316
       551 -12.4371     85.4632    245.3560   1.3435575626e+02   1.2298046400e+01    0.3018829    0.2243579 -75.32 0.0005112784    1.401    0.286
       552 -11.6434     89.4471    244.5258   1.3348040476e+02   1.1847984575e+01    0.2917162    0.2372436  33.15 0.0001095251    1.458    0.314
       553 -10.2615    187.4458    245.3339   1.1364592312e+02  -4.8050797012e+00    0.2337789    0.1056096  39.10  0.001066538    1.904    0.475
       554 -11.2939    180.7400    244.2093   1.1481841312e+02  -3.4932716158e+00    0.2800356    0.1646637  30.50  0.001424888    1.576    0.365
       555 -12.0774    109.0932    235.1672   1.2837417808e+02   1.0546122983e+01    0.6509032     0.320161  33.72  0.001425274    2.202    0.546
       556 -11.8025    100.0907    242.0990   1.3107366363e+02   1.0643374755e+01    0.3193949    0.2611637  22.15 0.0006920724    1.611    0.379
       557 -13.3191     95.5069    237.6119   1.3148108577e+02   1.2273280137e+01     0.863192     0.314322  45.86  0.003633002    2.312    0.567
       558 -11.1420    102.1874    234.0935   1.2967863878e+02   1.1905258385e+01    0.2376212    0.2141363 -72.36 0.0006043609    1.247    0.198
       559 -11.1237     88.5224    230.7836   1.3211987811e+02   1.4780801758e+01    0.3503947    0.3308388 -64.61  0.002288995    1.324    0.245
       560 -12.4617     65.4732    240.6830   1.3778821785e+02   1.6180473006e+01     0.369064    0.2703699 -38.24  0.001213816    2.306    0.566
       561 -10.0189     55.3866    242.4751   1.3987573096e+02   1.7212171954e+01    0.1220662   0.09449121  73.64 0.0001301357    1.026    0.025
       562 -11.8387    203.3766    240.4804   1.0967007029e+02  -6.6758410463e+00    0.3907149    0.1934976  38.89 0.0009541103    1.795    0.443
       563 -11.3652    191.0818    240.9342   1.1220065189e+02  -4.7084890916e+00    0.2748364    0.1758312  24.09  0.001293538    1.542    0.351
       564 -10.6655    173.1169    234.8053   1.1487149830e+02  -5.8188581897e-01    0.3651676    0.2225247  15.16  0.001523633    2.350    0.574
