#   1 NUMBER                 Running object number                                     
#   2 MAG_AUTO               Kron-like elliptical aperture magnitude                    [mag]
#   3 X_IMAGE                Object position along x                                    [pixel]
#   4 Y_IMAGE                Object position along y                                    [pixel]
#   5 X_WORLD                Barycenter position along world x axis                     [deg]
#   6 Y_WORLD                Barycenter position along world y axis                     [deg]
#   7 A_WORLD                Profile RMS along major axis (world units)                 [deg]
#   8 B_WORLD                Profile RMS along minor axis (world units)                 [deg]
#   9 THETA_WORLD            Position angle (CCW/world-x)                               [deg]
#  10 FWHM_WORLD             FWHM assuming a gaussian core                              [deg]
#  11 ELONGATION             A_IMAGE/B_IMAGE                                           
#  12 ELLIPTICITY            1 - B_IMAGE/A_IMAGE                                       
         1 -14.7078    163.4563     38.0689   2.9021159210e+02   6.3381324316e+00   0.05858613   0.03925243 -49.38  0.003967045    1.473    0.321
         2 -14.0707    177.5782      6.6646   2.8985516207e+02   6.6108829119e+00   0.04257247   0.03379225 -18.18  0.004585427    1.430    0.301
         3 -12.8063    173.4364      3.3799   2.8988217986e+02   6.6733093085e+00   0.02390833   0.01821822  -7.21  0.002612008    1.551    0.355
         4 -10.7515    115.9956    243.7012   2.9202422598e+02   4.2755038339e+00   0.01887152  0.005133085  40.13  0.001267554    3.623    0.724
         5 -19.8750     74.0662    170.1038   2.9205072843e+02   5.3681405278e+00    0.9414014    0.3745457 -64.19   0.07503548    2.643    0.622
         6 -10.3533     15.8966    237.9819   2.9313316236e+02   4.9404975013e+00   0.01669151    0.0110348  12.09  0.001685969    1.752    0.429
         7 -12.1730    157.9399    193.1444   2.9123361769e+02   4.6011016237e+00   0.01310802   0.01064569  78.95 0.0003406132    1.419    0.295
         8 -12.0715     24.1413    231.2881   2.9299785641e+02   4.9677302771e+00   0.01987477   0.01638221  75.46   0.00228524    1.379    0.275
         9 -13.4383    101.5984    191.9795   2.9187050195e+02   4.9529547601e+00   0.02619238   0.01317231  49.00  0.001382018    2.327    0.570
        10 -13.9196     97.1174    182.0003   2.9186028667e+02   5.0938901940e+00   0.04752531   0.03157422 -44.15  0.004965832    1.538    0.350
        11 -13.9717    210.8072    179.2533   2.9054398814e+02   4.4414726384e+00   0.04962551   0.02730815 -38.08  0.003880858    2.109    0.526
        12 -10.7801    125.0000    250.1134   2.9196079517e+02   4.1481920401e+00    0.0101127  0.003717194 -61.70  0.000385755    2.702    0.630
        13 -10.1851    114.0345    250.1285   2.9208614590e+02   4.2138343930e+00  0.007849597   0.00544605 -60.51            0    1.425    0.298
        14 -11.0819     42.2832    193.0431   2.9255552826e+02   5.2963885770e+00   0.01706432   0.01101822 -66.03  0.001745813    1.595    0.373
        15 -11.5806     30.2858    184.0098   2.9263728438e+02   5.4714574895e+00   0.02103627   0.01107943  46.10  0.001473968    2.068    0.516
        16 -11.7183     15.5789    219.7059   2.9302472593e+02   5.1513362058e+00   0.01254901  0.009849032 -57.48  0.001042831    1.253    0.202
        17 -13.1411    206.5055    181.5198   2.9060710587e+02   4.4415126068e+00   0.01979946    0.0162856 -10.93  0.002276307    1.360    0.264
        18 -10.8191     28.5259    179.4641   2.9262948472e+02   5.5339497455e+00   0.01448121  0.008572062  16.93  0.001377233    1.928    0.481
        19  99.0000     14.3501    216.3203   2.9301801037e+02   5.1973880087e+00    0.0143109   0.01095612   9.60  0.001514731    1.442    0.307
        20  -9.8387      5.5859    179.6970   2.9289347544e+02   5.6684611792e+00  0.007223627  0.004859313 -22.21 0.0006972162    1.875    0.467
        21 -13.1583    198.0447    175.8265   2.9066856460e+02   4.5574841351e+00   0.02229162   0.01762713 -84.11  0.001191473    1.422    0.297
        22 -12.3385    178.5280    173.4874   2.9087706955e+02   4.7017250058e+00   0.01353681   0.00838569 -56.51  0.001106392    1.567    0.362
        23 -11.2055      9.6276    175.0333   2.9281856299e+02   5.6976187168e+00   0.01160552  0.009212526  30.14 0.0007597569    1.261    0.207
        24 -13.7531    145.9596    170.4200   2.9123036421e+02   4.9327378346e+00   0.03371403   0.02082967  65.62  0.003110247    2.254    0.556
        25 -13.1645    138.2917    172.1346   2.9132860924e+02   4.9592613331e+00   0.02641231   0.01604313  61.15  0.002446431    2.190    0.543
        26 -12.8862    203.5817    167.8703   2.9055617509e+02   4.6149674102e+00   0.03182102   0.02446113  55.30  0.002741886    1.425    0.298
        27 -11.3513    123.7978    166.8577   2.9146179707e+02   5.1066711829e+00   0.01197738  0.009263218  48.59  0.000607027    1.357    0.263
        28 -11.2995    224.9844    165.9231   2.9029975174e+02   4.5081971168e+00    0.0109082  0.007761868  64.34  0.000972034    1.707    0.414
        29 -10.2710      2.0181    165.2925   2.9284582433e+02   5.8544457178e+00  0.008800677  0.007753401  16.20 0.0003660485    1.166    0.142
        30 -10.8417     14.9551    164.2202   2.9269111448e+02   5.7893739982e+00   0.01401571  0.009180616  -2.32  0.001238393    2.032    0.508
        31 -12.4980     31.4747    158.4575   2.9246653848e+02   5.7564181743e+00   0.02423411   0.01488448  15.75  0.001711918    1.863    0.463
        32 -12.9704     35.3878    156.8139   2.9241162324e+02   5.7517807455e+00   0.03908699   0.02858525 -42.93  0.004292397    1.395    0.283
        33 -11.1510     23.2269    155.4459   2.9254244435e+02   5.8401926792e+00   0.01415785   0.01164742 -58.34 0.0009615235    1.199    0.166
        34 -13.8788    133.9960    145.6745   2.9121443824e+02   5.2873500976e+00    0.0553617   0.01711034 -69.41  0.003120579    5.508    0.818
        35 -10.7162    174.8564    149.0890   2.9076832722e+02   5.0024509497e+00   0.01038249   0.00887921  63.04 0.0006477836    1.270    0.212
        36 -13.5223    143.8910    144.7935   2.9109582617e+02   5.2378954434e+00   0.03295571   0.01859967  81.00  0.002567747    3.294    0.696
        37 -12.5216    153.0126    145.6132   2.9099657785e+02   5.1736469964e+00   0.01673261   0.01078782  46.73  0.001701915    1.649    0.393
        38  -9.9366    140.3178    218.6343   2.9159207483e+02   4.4158469252e+00   0.01062102  0.006414769 -70.68 0.0007661986    1.828    0.453
        39 -11.2219      6.1145    137.1988   2.9262616529e+02   6.1510711225e+00   0.01444628   0.01099809 -16.51  0.001284162    1.539    0.350
        40 -13.1908    135.3418    122.2892   2.9105460479e+02   5.5463421167e+00   0.02881387   0.01121121 -69.01  0.002094752    3.274    0.695
        41 -10.2555    138.5970    215.4839   2.9159233266e+02   4.4621787231e+00   0.01075666   0.00645131 -77.48 0.0005338487    2.060    0.515
        42 -10.4137    125.2324    242.8647   2.9191356069e+02   4.2296155340e+00  0.008503688  0.005260621 -56.13 0.0002879082    1.568    0.362
        43 -10.7894     20.5558    217.4343   2.9295386973e+02   5.1475511627e+00   0.01203272  0.005128852 -49.24 0.0009557086    2.304    0.566
        44 -10.2419      9.2419    212.7273   2.9305439667e+02   5.2689965214e+00   0.01261757  0.006693962 -41.45 0.0008362061    2.076    0.518
        45 -11.4167    112.4422    211.0915   2.9186419913e+02   4.6694586372e+00   0.01218823   0.01008494 -10.11  0.001142199    1.346    0.257
        46 -10.8736    205.3763    110.1524   2.9017871997e+02   5.2629721228e+00   0.01125941   0.00916617   9.55 0.0007001336    1.323    0.244
        47 -10.6006    157.8452    207.2108   2.9132143060e+02   4.4409906801e+00   0.00927412  0.007556971 -22.74  0.000406891    1.351    0.260
        48 -10.4793    157.1675    106.0578   2.9070456635e+02   5.6002919654e+00   0.01329982   0.00751138  51.99  0.000960126    2.105    0.525
        49 -11.0863      7.5132    101.9662   2.9239320251e+02   6.5452886923e+00   0.01342158  0.009971025  28.19  0.001482172    1.351    0.260
        50 -10.7411    140.0051    249.5179   2.9178575337e+02   4.0648966244e+00   0.01192343   0.00936094 -88.00 0.0008842097    1.462    0.316
        51 -11.5711    135.8207    196.5151   2.9150718755e+02   4.6955808171e+00   0.02136859   0.01267323  75.10  0.001807022    2.751    0.636
        52 -10.5949     13.6584     59.9662   2.9206371636e+02   6.9881895099e+00  0.009294641  0.008296629 -64.28 0.0004369364    1.122    0.109
        53 -14.3785    152.0923     53.3647   2.9043645729e+02   6.2321886970e+00   0.05242068   0.03603077 -21.60  0.003615537    1.813    0.448
        54 -11.9887     13.5081    244.6966   2.9320161881e+02   4.8780100396e+00   0.02141178  0.006534836 -53.38  0.001576083    2.954    0.661
        55 -12.7618    167.0484     30.1905   2.9012163024e+02   6.4062944791e+00   0.01886157   0.01448494 -50.53 0.0008503883    1.283    0.220
        56 -10.6069      7.3026    246.0051   2.9328056966e+02   4.9001320719e+00  0.008166216  0.007198851  32.98 0.0006038935    1.138    0.121
