#   1 NUMBER                 Running object number                                     
#   2 MAG_AUTO               Kron-like elliptical aperture magnitude                    [mag]
#   3 X_IMAGE                Object position along x                                    [pixel]
#   4 Y_IMAGE                Object position along y                                    [pixel]
#   5 X_WORLD                Barycenter position along world x axis                     [deg]
#   6 Y_WORLD                Barycenter position along world y axis                     [deg]
#   7 A_WORLD                Profile RMS along major axis (world units)                 [deg]
#   8 B_WORLD                Profile RMS along minor axis (world units)                 [deg]
#   9 THETA_WORLD            Position angle (CCW/world-x)                               [deg]
#  10 FWHM_WORLD             FWHM assuming a gaussian core                              [deg]
#  11 ELONGATION             A_IMAGE/B_IMAGE                                           
#  12 ELLIPTICITY            1 - B_IMAGE/A_IMAGE                                       
         1 -15.4888      6.1734     69.1182   1.1222249331e+02   6.1217406523e+01     2.058004     1.001473 -63.30  0.008333192    1.606    0.377
         2 -14.6485     24.9605     94.4727   1.1035931594e+02   5.4216335038e+01     1.340655     1.068406   0.10  0.008440164    1.515    0.340
         3 -14.6241    119.5577     54.7190   6.6744932229e+01   4.7878277758e+01     1.038409    0.7225848  31.78  0.003585386    1.506    0.336
         4 -13.3919    131.9322     32.7408   5.5936448644e+01   4.8112745804e+01    0.6824905     0.497192 -22.94  0.002880863    1.469    0.319
         5 -14.6298    120.6878     37.6959   6.0358459816e+01   5.0159977714e+01     1.475002    0.6093853  50.63  0.005789401    2.192    0.544
         6 -15.0380    218.2359     17.1131   3.8533148071e+01   2.8464809756e+01     1.956872     1.533507 -33.02   0.01183471    1.365    0.268
         7 -13.8769    189.1780     26.2835   4.4135959833e+01   3.4475665555e+01      1.57499    0.7158687 -56.24  0.006176154    2.714    0.632
         8 -13.8002    187.4395     11.3452   4.0263037925e+01   3.6536243119e+01     1.170147    0.6581669 -52.84  0.005735274    1.845    0.458
         9 -12.7652      7.8711      2.6668   8.9143755888e+01   7.3714424712e+01    0.4192348    0.3933296  48.79  0.002348398    2.039    0.509
        10 -13.3467      2.6844     10.7169   9.6128165635e+01   7.2855290520e+01    0.8536797    0.3329484 -51.08   0.00447382    2.371    0.578
        11 -16.0026     13.7887     20.6368   9.4236766728e+01   7.0401775901e+01     1.923072    0.9574747 -29.95   0.01016282    1.700    0.412
        12 -14.5068     24.1965     13.9706   8.5700111449e+01   7.0507741229e+01    0.7840188    0.4694853  25.91  0.003518907    1.720    0.419
        13 -14.5712    166.7528     29.8929   4.8424626159e+01   3.9719346577e+01     1.129826     0.953141  63.91  0.003741301    1.101    0.092
        14 -14.8852    147.3079     29.6193   5.1727369200e+01   4.4680085010e+01     1.473419    0.9183845  57.86  0.005167561    1.459    0.314
        15 -13.4361    139.5210     22.1722   5.0701932841e+01   4.7475748739e+01    0.8325202    0.3195069  59.20  0.001704362    2.254    0.556
        16 -13.2201    120.1284     26.5766   5.6395615279e+01   5.1697060927e+01    0.7874805     0.472501  36.24  0.003724384    1.680    0.405
        17 -12.4424     71.5129     17.5945   6.6752493701e+01   6.3092445447e+01    0.4370632    0.2895513 -33.97  0.001642681    1.648    0.393
        18 -12.1615     46.9481     20.9528   7.8092389299e+01   6.6673333659e+01    0.3951755    0.2863244  -4.61  0.001561536    1.212    0.175
        19 -15.4899     97.6941     12.3769   5.6394071515e+01   5.8344698237e+01      1.70737    0.7668515  51.03  0.004796767    1.905    0.475
        20 -12.0745     59.9986     17.2298   7.0884017933e+01   6.5159496119e+01    0.3464531    0.1761079 -29.47  0.001762011    1.897    0.473
        21 -14.4339     42.1765      6.7160   7.3183557241e+01   6.9229356658e+01      1.05968    0.6653822 -11.92  0.004517293    1.443    0.307
        22 -11.6071    153.3250      8.6327   4.3900266418e+01   4.5361050655e+01    0.2513128    0.2101936  51.42  0.000559499    1.133    0.117
        23 -10.8007     59.9616      7.5265   6.6188577535e+01   6.6298113774e+01    0.1905558    0.1094105  42.68  0.001045352    1.632    0.387
        24 -11.5405     68.3078      5.1412   6.1993771284e+01   6.5035394477e+01    0.2597758    0.1761349 -43.02  0.001454288    2.055    0.513
        25 -12.3157    118.6518      2.9533   4.7848149971e+01   5.4365882321e+01    0.5185889    0.2953837  84.56  0.002348183    2.376    0.579
        26 -11.2839    112.2959      1.5827   4.8601236378e+01   5.5971235584e+01    0.2603647    0.1739637  62.09  0.001429828    1.355    0.262
        27 -11.9898     78.2084      2.5914   5.7583281241e+01   6.3346459027e+01    0.3477184    0.2235232  44.28  0.001385659    1.335    0.251
        28 -11.2489     82.9915      1.2378   5.5558107955e+01   6.2484797466e+01     0.280349    0.1119739  56.52  0.001242912    2.299    0.565
        29 -11.7450    232.8558      2.0392   3.3851457334e+01   2.6734386985e+01    0.2771062    0.1961248  75.87  0.001378032    1.341    0.254
        30 -12.0110     61.6516      2.0085   6.2792474994e+01   6.6556345679e+01    0.3113623    0.1989521  48.45  0.001161701    1.582    0.368
        31 -14.6680    212.3401     41.1254   4.5132955626e+01   2.6926979107e+01     2.446944    0.7726377  72.31   0.00769047    4.165    0.760
        32 -12.1803     51.6229    248.8989   1.2114862232e+02   1.6955903573e+01    0.3749979    0.2770714  72.19  0.002754886    1.107    0.097
        33 -12.4790     57.0769    246.9901   1.2004502814e+02   1.6622704924e+01     0.476615    0.1735729  39.24  0.002425178    2.306    0.566
        34 -13.7041     28.3078    246.0843   1.2501388073e+02   2.0159479478e+01    0.6723978    0.3208729  77.08  0.004039097    1.930    0.482
        35 -12.0911      2.7825    249.6637   1.2936024316e+02   2.2134730413e+01    0.3077518    0.1663181  57.61  0.001756547    1.330    0.248
        36 -13.8884      8.9427    245.5426   1.2820554937e+02   2.2267484361e+01    0.7500052    0.3450885  58.74  0.003454731    1.602    0.376
        37 -12.6046    124.6079    167.8106   9.5640615281e+01   2.2627022549e+01    0.6004902    0.2667634 -48.83  0.002319794    2.314    0.568
        38 -12.0075     77.3456    156.9439   1.0571090854e+02   3.3069056103e+01    0.4435799    0.2926687  35.57  0.001478086    1.602    0.376
        39 -13.1007     73.9907    153.2399   1.0598979248e+02   3.4446935018e+01    0.6525762    0.5194563  30.97   0.00276687    1.406    0.289
        40 -10.7537     56.2923    156.3204   1.1108044273e+02   3.6053777447e+01    0.1320213   0.09744487 -41.66 0.0007012738    1.607    0.378
        41 -11.6221     85.8812    152.8926   1.0278482254e+02   3.2759168877e+01    0.4568214    0.1937938 -53.98  0.001799622    2.230    0.552
        42 -10.8236    133.0432    152.7324   9.0530967036e+01   2.4412322324e+01    0.2079835    0.1947536  39.65 0.0002202818    1.057    0.054
        43 -11.6673    103.1747    150.1661   9.7699951831e+01   3.0565298956e+01    0.4166237    0.2704579 -34.65  0.001829967    1.931    0.482
        44 -11.6150     24.3427    150.3026   1.1849321881e+02   4.0885188489e+01    0.3159726    0.2130313 -60.65  0.001879037    1.372    0.271
        45 -12.5063    208.8825    154.7670   7.3972820663e+01   8.5299978552e+00    0.5939545    0.3824419  42.20  0.002835821    1.589    0.370
        46 -12.5855    163.8153    194.2443   9.1499966628e+01   9.8549173523e+00    0.5030603    0.2660865 -56.99  0.002099098    2.569    0.611
        47 -11.2863     88.6626    140.0681   9.9644262718e+01   3.5425419495e+01    0.2147043    0.1871721 -58.78 0.0007251098    1.096    0.088
        48 -12.1131     45.5479    134.7114   1.1081443867e+02   4.2563572472e+01    0.3758188    0.2741749 -70.28  0.002120453    1.192    0.161
        49 -12.6304    246.0902    133.3761   6.2541462510e+01   5.0634536220e+00     0.480926    0.2934955 -39.72   0.00241009    1.489    0.328
        50 -14.2332    230.4621    129.4798   6.4234677710e+01   8.7156399658e+00     1.217812     0.989198  55.07  0.006669209    1.434    0.303
        51 -13.4144    120.2745    102.4194   8.1631340459e+01   3.8434904912e+01    0.6896542    0.3490593  40.25  0.002361171    2.050    0.512
        52 -14.3283    105.2356    121.9845   9.1011956782e+01   3.6915492009e+01     1.677349     1.107367  36.65  0.007579745    1.590    0.371
        53 -15.1008    106.5282    105.7953   8.6517421232e+01   4.0439621289e+01     1.836039     1.419433  20.87  0.007170727    1.487    0.328
        54 -10.9601     59.6661    125.4499   1.0515508092e+02   4.3181424669e+01    0.1762306    0.1396957   9.05 0.0009470629    1.585    0.369
        55 -12.8775     28.7653    122.4320   1.1378988275e+02   4.7202212983e+01    0.3681366    0.2658749 -65.79  0.002182812    1.147    0.128
        56 -11.7156    181.9930    121.9185   7.1676972424e+01   2.0511151954e+01    0.5181487    0.3311296  83.32  0.001763334    3.350    0.701
        57 -12.4376     76.9723    117.0993   9.8229215671e+01   4.2835616071e+01    0.5343296    0.4128552 -89.95  0.002684427    1.561    0.359
        58 -13.0447     85.1777    115.3619   9.5338075314e+01   4.1975989001e+01    0.7353097    0.4026937  27.57  0.002450326    2.200    0.546
        59 -12.2937     88.2375    109.5640   9.3003289481e+01   4.2854676231e+01    0.3902588    0.3220402 -54.64  0.001538108    1.154    0.133
        60 -11.8752      4.5020    119.8017   1.2042235977e+02   4.9603503648e+01    0.4902337    0.2001206  13.89  0.002322405    3.408    0.707
        61 -14.0597     17.9513    110.9730   1.1534972787e+02   5.0818812408e+01    0.8368155    0.5762492 -47.33  0.003831954    1.385    0.278
        62 -13.5154      2.1856     97.2041   1.1832184426e+02   5.5026233326e+01    0.8438943    0.2204395 -72.83  0.003228453    3.185    0.686
        63 -11.8263    109.4111    249.1204   1.1052663116e+02   9.0436433939e+00    0.2595402    0.1457571  46.88  0.001493387    1.424    0.298
        64 -14.2128     11.1378    102.7677   1.1626935852e+02   5.3221697622e+01    0.7592286    0.6991471 -77.83  0.004882063    1.164    0.141
        65 -13.6370    171.0906    243.2788   9.7886978560e+01   3.8153165824e-01    0.8253408    0.4671701  29.05  0.004477912    1.603    0.376
        66 -11.3103     62.4766    111.1278   1.0141477499e+02   4.6318512875e+01    0.2359497    0.1958203  62.79  0.001302089    1.381    0.276
        67 -11.6129     45.3454    110.1805   1.0665350864e+02   4.8579357054e+01    0.3471713    0.2761927 -84.42  0.001991444    1.310    0.236
        68 -11.8969     32.7931    110.4147   1.1066198198e+02   4.9755352389e+01    0.2613408    0.1934109  85.75  0.001487843    1.476    0.323
        69 -10.5298     64.0000    133.9613   1.0544691122e+02   4.0530858404e+01    0.2431609   0.07335351 -61.44 0.0008110043    3.002    0.667
        70 -12.5451     32.2774    104.3105   1.0974772955e+02   5.1269924161e+01    0.4185846    0.2754512  52.37  0.002265769    1.850    0.459
        71 -12.4067    136.1363    103.3565   7.7586154975e+01   3.4801364775e+01    0.7211242     0.293109  47.91  0.002438787    2.534    0.605
        72 -12.2645     62.6399     99.5462   9.8721498393e+01   4.9070673955e+01    0.8736268    0.5170016  70.12  0.003306241    3.377    0.704
        73 -11.8517     43.0852     91.1329   1.0340581943e+02   5.3359402379e+01    0.8771973    0.3469702 -72.58  0.002669741    4.761    0.790
        74 -12.6944     53.0762     97.8194   1.0151296796e+02   5.0677276293e+01    0.8524077    0.4808131  -4.00  0.003398278    3.201    0.688
        75 -12.5236     49.5492     94.5647   1.0195971778e+02   5.1853346308e+01    0.4291657    0.3553607  62.57  0.001899237    1.474    0.322
        76 -12.3332    249.2628     98.7816   5.4224493799e+01   1.0071114109e+01    0.4729617    0.1679172 -34.30    0.0017977    2.515    0.602
        77 -11.2802    163.1876     97.3752   6.9281832158e+01   2.9757486686e+01    0.2301572    0.1514067  61.27 0.0009566058    1.730    0.422
        78 -12.7238    137.0074     95.6575   7.5163714067e+01   3.6223690606e+01    0.4977019    0.3772962  63.94  0.001509164    1.542    0.352
        79 -11.8487    125.2947     92.4206   7.7353650934e+01   3.9508112416e+01    0.3908554    0.2380899 -67.31  0.001387469    2.805    0.643
        80 -10.9823     25.7408    127.2370   1.1533726457e+02   4.6298712695e+01    0.1804281    0.1298126 -50.98  0.001064654    1.352    0.260
        81 -11.9078     90.2191     88.4142   8.6655588504e+01   4.7356215482e+01    0.4401431    0.3380335  44.63  0.002214876    1.413    0.292
        82 -13.2557    135.7555     80.0756   7.0813267700e+01   3.9620357482e+01     1.343922    0.6404454  32.41  0.002504658    3.092    0.677
        83 -11.3138     34.5532     86.6664   1.0541066402e+02   5.5230789364e+01    0.2711115    0.1851255 -30.85 0.0009716967    1.515    0.340
        84 -12.9272    242.4448     84.1246   5.1759033641e+01   1.3780893935e+01    0.4557389    0.2568108  59.75  0.002179843    1.993    0.498
        85 -12.8640    237.3716     80.2962   5.1538531536e+01   1.5456863882e+01    0.4882316    0.3279426  80.40  0.002419668    1.880    0.468
        86 -13.1170    188.4189     84.2814   6.0401754570e+01   2.6094033040e+01    0.8061299    0.3681644  41.56  0.002633468    2.632    0.620
        87 -14.5796    163.0802     70.6262   6.1524119674e+01   3.4713487029e+01     2.437017     1.183749  67.76  0.008322157    2.878    0.653
        88 -13.6421    160.8158     80.8934   6.5069719554e+01   3.3457337645e+01    0.8901684    0.6211966  27.38  0.003088061    1.769    0.435
        89 -14.0215    169.4152     77.3518   6.2190738765e+01   3.1975814479e+01    0.7352396    0.6012862  44.18  0.002179469    1.244    0.196
        90 -13.3295     65.8390     48.9822   8.2098193775e+01   5.9340798960e+01    0.5794302    0.5148641 -29.24  0.003548616    1.163    0.140
        91 -13.6326     60.2885     60.6563   8.8416541156e+01   5.7950869560e+01     1.971433     1.022334 -14.10  0.006759934    4.034    0.752
        92 -13.3550     55.1404     81.6424   9.6737883033e+01   5.4165691836e+01    0.7635626    0.5174412 -50.59  0.002716432    1.301    0.232
        93 -14.0576     60.9653     75.7171   9.2937903949e+01   5.4718223598e+01     0.802986    0.5459597 -51.45  0.002036124    1.376    0.273
        94 -13.0734    213.1535     78.6226   5.4650191970e+01   2.1154080109e+01     1.022266    0.6044132  84.12  0.004072054    2.620    0.618
        95 -12.7422    216.4498     73.3812   5.2808023208e+01   2.1230439874e+01     0.720558    0.4294659 -65.33   0.00305184    2.210    0.547
        96 -12.5520    149.6066     85.1085   6.8902262384e+01   3.5384134935e+01    0.6245847    0.3724318  33.67  0.002468726    2.010    0.502
        97 -12.0921    114.0847     80.2430   7.6811577069e+01   4.4421949983e+01    0.3969829    0.3506013 -51.42 0.0009679699    1.203    0.169
        98 -11.7178    176.7542    110.6252   6.9883414494e+01   2.3947774123e+01    0.4263488    0.2854276 -12.97  0.001715107    2.083    0.520
        99 -13.1515     91.7292     58.7269   7.6501455181e+01   5.3068656127e+01    0.6576139    0.4646273 -50.88  0.003124253    1.647    0.393
       100 -13.7246     86.3605     66.2676   8.0923593865e+01   5.2651303062e+01     1.240525    0.7003987  11.36  0.004312841    3.360    0.702
       101 -12.9509     70.0826     75.9714   8.9731776620e+01   5.3359484769e+01     0.496472    0.4044828 -31.99  0.001411517    1.122    0.109
       102 -12.4583     76.9724     73.8490   8.6646081725e+01   5.2730418809e+01    0.4272872    0.3239792  26.60  0.001190674    1.390    0.280
       103 -11.2652     42.1409     76.6521   1.0018800700e+02   5.6769115036e+01    0.2452656    0.2275472 -37.16   0.00101749    1.108    0.098
       104 -11.5660    121.3771    112.0149   8.3936868489e+01   3.6066495038e+01    0.2707323    0.2203956  57.14  0.000850889    1.343    0.255
       105 -13.7820    199.0372     69.7881   5.4589260093e+01   2.5946341322e+01     1.003503    0.6410671  38.78  0.003077374    1.881    0.468
       106 -12.0914    199.7674     62.4086   5.2484137202e+01   2.6927048955e+01    0.3683501    0.2639137 -44.11  0.001120194    1.343    0.255
       107 -12.0169     78.5920    111.0899   9.6352146608e+01   4.4038185971e+01    0.2777631    0.2257727  20.16  0.001456333    1.395    0.283
       108 -11.7022    242.0360     71.6134   4.8882015637e+01   1.5793131636e+01    0.3725313    0.2241908 -64.89   0.00167577    2.010    0.502
       109 -13.4537    133.6390     65.8765   6.6833789577e+01   4.2718181303e+01    0.8589241     0.713147   0.24  0.002504162    1.344    0.256
       110 -12.4509     38.4461     68.1379   9.9286752015e+01   5.9017574837e+01    0.6771865     0.341657  23.05  0.003301647    2.266    0.559
       111 -11.6534    100.2824     64.6659   7.5844616337e+01   5.0295055952e+01     0.442973    0.3168501 -23.56  0.002146698    1.457    0.314
       112 -13.9209    178.0662     57.6905   5.4785281984e+01   3.3045918049e+01    0.9220315    0.7175626 -42.07  0.002634022    1.284    0.221
       113 -12.4373     79.7857     61.1397   8.1414674733e+01   5.4800340147e+01    0.4691736    0.3975531  12.98  0.001794954    1.165    0.142
       114 -12.9803     81.1559     54.5625   7.8574320479e+01   5.5778311422e+01    0.6729886    0.4625717  26.80  0.003235974    1.500    0.333
       115 -11.9743     24.4418     59.9673   1.0266957796e+02   6.2024712200e+01    0.2936832    0.2000659 -44.02 0.0007853909    1.171    0.146
       116 -10.7876     38.6780     60.1050   9.6826944127e+01   6.0696571112e+01    0.2019768    0.1571332 -65.71  0.001182464    1.519    0.342
       117 -13.9730    101.2228     49.4743   7.0117084480e+01   5.2748804350e+01     0.785372    0.7388269  56.31  0.002356129    1.230    0.187
       118 -11.9251     40.4675    243.6292   1.2276798543e+02   1.9235260258e+01    0.3055916    0.1872298  77.97  0.002048519    1.413    0.292
       119 -13.9516     96.5993    238.9487   1.1193686919e+02   1.2698644225e+01     0.622323    0.4327757  52.72  0.002828046    1.181    0.153
       120 -12.8192    109.7531     42.2328   6.4927420230e+01   5.2021819922e+01      0.46725     0.246626  50.60  0.001292669    1.825    0.452
       121 -11.6591    147.4937    239.0359   1.0191453594e+02   4.8031125545e+00    0.1642913    0.1272462 -51.99 0.0007997975    1.578    0.366
       122 -11.7825    249.1311     49.1048   4.2909037101e+01   1.7519655033e+01    0.3746959    0.2716131 -52.44  0.001941142    1.194    0.162
       123 -10.4533     47.3352     56.6312   9.2176427212e+01   6.0439656677e+01    0.1249109     0.105525  87.15 0.0007029307    1.838    0.456
       124 -12.9194    135.6414     50.3152   6.1161840670e+01   4.4775581704e+01    0.5547817    0.3404906  31.50  0.002181106    1.918    0.479
       125 -13.3600      6.0801     43.8192   1.0618731687e+02   6.6581795488e+01    0.8290167     0.402085  22.46  0.004664716    2.412    0.585
       126 -11.8692     24.9030     48.0587   9.8914486900e+01   6.4436588667e+01    0.6021436    0.2220937 -32.27  0.002413192    3.151    0.683
       127 -13.3531    157.9104     44.2083   5.4421207821e+01   4.0118038149e+01    0.7921662    0.5541731  34.16  0.003376522    1.607    0.378
       128 -11.9991     24.4021    217.1208   1.2400723448e+02   2.6098237281e+01    0.6203461    0.4383321  60.01   0.00436941    1.165    0.142
       129 -11.4274     14.7094    224.3810   1.2620393590e+02   2.5647385524e+01    0.3361242    0.1895788  74.07  0.001311733    1.421    0.296
       130 -13.7683     25.7176    227.5000   1.2440502517e+02   2.3913152917e+01    0.6741477    0.3459527 -69.65  0.004139182    1.915    0.478
       131 -12.1486    247.7876     54.3085   4.4223675606e+01   1.7085236930e+01    0.5489397    0.3165846 -50.26  0.002821858    1.553    0.356
       132 -12.6777     75.8923     37.4252   7.3791745394e+01   5.9582166377e+01    0.3640605    0.2558999  40.20 0.0008924691    1.442    0.307
       133 -12.3386     69.6171     36.7266   7.5807038910e+01   6.0784810611e+01    0.4358044    0.2281517  31.07 0.0009818227    1.973    0.493
       134 -12.9538    241.4093     35.4559   4.0596072430e+01   2.0989921508e+01    0.6099932    0.3751642  69.77  0.002451022    1.660    0.398
       135 -13.2361     20.7531    225.2571   1.2516954478e+02   2.4867478585e+01    0.4150662    0.3494074  67.05  0.002468969    1.227    0.185
       136 -11.1791    160.3217    230.3244   9.8132191622e+01   4.1274920142e+00    0.1291432    0.0934728   8.30 0.0007046869    1.681    0.405
       137 -13.0765     66.3227    223.3932   1.1637930498e+02   1.9878918832e+01    0.6790802    0.5420671  37.27  0.004516029    1.383    0.277
       138 -13.8949     63.2400    214.5916   1.1618142306e+02   2.2055663078e+01    0.7252933    0.4221599  56.77  0.004103155    1.514    0.339
       139 -11.7457     58.5552     35.3735   7.9557327132e+01   6.2777395804e+01     0.460291    0.2207967  34.34  0.002175099    2.113    0.527
       140 -12.3264     46.0981     33.8534   8.4167874180e+01   6.4785970802e+01    0.4714856    0.3055155 -22.52   0.00267248    1.408    0.290
       141 -12.9890      9.0117    211.0756   1.2651756531e+02   2.8831064803e+01    0.6468594    0.4090778  40.53   0.00443296    1.615    0.381
       142 -11.1910    136.7175    211.3687   1.0020595816e+02   1.1434271067e+01    0.2227209    0.1679187 -70.97 0.0008494295    1.638    0.389
       143 -12.2949     41.9455    207.1136   1.1985628222e+02   2.6232250791e+01    0.3279092    0.1604419  73.72  0.001640507    2.172    0.540
       144 -11.6837     27.5058     32.9768   9.2340144693e+01   6.7052181704e+01    0.3464155      0.21207 -45.25  0.002035535    1.472    0.321
       145 -11.1019     31.4843     31.0188   8.9659866957e+01   6.6992774432e+01    0.2053709    0.1409284   5.33 0.0007006491    1.442    0.307
       146 -10.5181     36.3204     34.3206   8.8744449713e+01   6.5893953165e+01     0.132398   0.08052348 -16.98 0.0002673729    1.669    0.401
       147 -13.1046     95.2850    218.5847   1.0997517584e+02   1.6729549817e+01    0.5148111    0.2459241  38.62  0.002491507    1.885    0.469
       148 -10.4934     89.4428     30.4166   6.6324566732e+01   5.7999567019e+01    0.1368596    0.1195225  16.32 1.754243e-05    1.008    0.008
       149 -11.2495     38.1995     29.9945   8.6091381267e+01   6.6412872904e+01    0.1921718    0.1521525  -2.94            0    1.116    0.104
       150 -10.9748    150.7405    206.9747   9.6508677583e+01   9.8252788674e+00    0.2665699    0.1653281  27.72  0.001289388    1.691    0.409
       151 -12.9523     56.3139     27.5099   7.7087011509e+01   6.4336107259e+01    0.6505956    0.3075826  41.68  0.002087967    2.260    0.558
       152 -12.8377     68.0126     24.6422   7.1214648075e+01   6.2823411104e+01    0.7099966    0.3132984  39.71  0.003244757    2.157    0.536
       153 -11.0052     97.9267     27.1643   6.2426962011e+01   5.6649202877e+01    0.2015852    0.1907582  62.87  0.001226847    1.266    0.210
       154 -11.0932     37.3000     25.8393   8.4711051273e+01   6.7196850356e+01    0.1861732    0.1542086  17.71 0.0003141678    1.305    0.233
       155 -11.7306    185.5146    213.5333   9.0364608439e+01   2.6216305654e+00    0.2191455    0.1287535 -53.70  0.001039749    2.388    0.581
       156 -11.2113     54.2519     19.9849   7.4508762419e+01   6.5723834005e+01    0.2418274    0.1575684  22.52 0.0006998277    1.443    0.307
       157 -12.3762     57.3257    203.2159   1.1631744305e+02   2.5198179215e+01    0.4729342    0.2334661 -86.42  0.002253774    2.295    0.564
       158 -12.5470     17.0173    195.0453   1.2399083050e+02   3.1415465142e+01    0.8544878    0.2693456 -73.79  0.003950925    2.650    0.623
       159 -13.4467     30.0022    169.2208   1.1905957290e+02   3.5914240585e+01    0.7430224    0.4356245 -46.16  0.003022079    2.144    0.534
       160 -13.3786     22.3863    181.1143   1.2183056533e+02   3.3951216467e+01    0.6325741    0.3652398 -61.79  0.002605668    1.696    0.411
       161 -14.7018      8.2614    183.5727   1.2500580963e+02   3.4682055378e+01     1.063845    0.8729271  79.89  0.007847464    1.108    0.098
       162 -14.6849     16.1247    175.6756   1.2276052487e+02   3.5746522717e+01     2.153556    0.9886608  65.28   0.01058581    2.203    0.546
       163 -12.8046     40.5804    195.3750   1.1913742168e+02   2.8900338265e+01    0.4436523    0.1922754  85.20  0.001896475    2.906    0.656
       164 -12.1213    200.9728    191.9430   8.3302523592e+01   3.4952142312e+00    0.3413452     0.265388  -3.52  0.001284862    1.301    0.232
       165 -11.6750     49.1036    181.5342   1.1591118174e+02   3.1000189027e+01    0.3577584    0.2330336 -54.80  0.002003072    1.666    0.400
       166 -13.0569    197.6099    180.2894   8.1673235313e+01   6.1187055171e+00    0.6296006     0.427392 -70.30  0.002616075    3.004    0.667
       167 -12.1098     85.2390    180.1164   1.0726260465e+02   2.6453858938e+01    0.2885148    0.1557153  59.76  0.001261728    2.130    0.530
       168 -11.5744    169.5527     43.6523   5.2125512280e+01   3.7239126783e+01    0.2931073    0.1802795  65.36 0.0009273537    1.592    0.372
       169 -11.8730    130.7628    173.5907   9.5234235066e+01   2.0210776008e+01    0.2195243    0.1303851  49.12 0.0009611111    1.685    0.406
       170 -10.4208     55.5140     41.0781   8.3122443614e+01   6.2273325840e+01     0.184056    0.1158548 -35.99 0.0003358135    1.439    0.305
