#   1 NUMBER                 Running object number                                     
#   2 MAG_AUTO               Kron-like elliptical aperture magnitude                    [mag]
#   3 X_IMAGE                Object position along x                                    [pixel]
#   4 Y_IMAGE                Object position along y                                    [pixel]
#   5 X_WORLD                Barycenter position along world x axis                     [deg]
#   6 Y_WORLD                Barycenter position along world y axis                     [deg]
#   7 A_WORLD                Profile RMS along major axis (world units)                 [deg]
#   8 B_WORLD                Profile RMS along minor axis (world units)                 [deg]
#   9 THETA_WORLD            Position angle (CCW/world-x)                               [deg]
#  10 FWHM_WORLD             FWHM assuming a gaussian core                              [deg]
#  11 ELONGATION             A_IMAGE/B_IMAGE                                           
#  12 ELLIPTICITY            1 - B_IMAGE/A_IMAGE                                       
         1 -14.8486    168.3636     40.6095   3.8579913057e+00   3.7080589813e+01     2.522779     1.505467  80.67   0.01210787    1.760    0.432
         2 -12.6133     63.8873     50.4809   3.3659028643e+01   6.0939580610e+01    0.9959354    0.4115316 -50.71  0.003571371    2.798    0.643
         3 -13.9625    137.3714     34.9850   6.6816682368e+00   4.5597459450e+01     1.258604    0.7127478 -88.62  0.005245063    2.200    0.545
         4 -14.0383    159.9061     61.4299   1.1154681122e+01   3.6141657950e+01     2.535843      1.14416 -49.88  0.009885726    2.329    0.571
         5 -10.5267      5.1407     22.1669   5.7343033324e+01   7.5230496771e+01    0.2082971    0.1521084 -28.00  0.001243636    1.233    0.189
         6 -11.2085    110.7287     60.2211   2.1291586368e+01   4.8474990575e+01    0.4768017    0.3019806 -22.63  0.001984297    2.078    0.519
         7 -11.6038    183.3850    223.2546   4.1577369131e+01   4.2217921381e+00    0.3594478    0.2597848  27.22  0.002395896    1.285    0.222
         8 -11.6511    192.6413    238.5762   4.2082010372e+01   1.0689401298e+00    0.5921429    0.4083464  21.66  0.004163253    1.221    0.181
         9 -11.0159    185.4837    228.9578   4.2020531060e+01   3.1761656163e+00    0.2844929    0.2002371 -25.88   0.00155825    1.414    0.293
        10 -10.0386    154.0741    241.8371   4.9831120586e+01   5.2309567637e+00    0.1783341    0.1366151  31.43 0.0007699433    1.259    0.206
        11 -11.5838    188.1230    232.6952   4.2070901581e+01   2.3581108069e+00    0.4963396     0.206888  32.72  0.002633619    2.096    0.523
        12  -9.1557    146.9952    239.0000   5.0896644664e+01   6.5266236561e+00    0.2018349   0.05534673  31.24   0.00080176    2.938    0.660
        13  -9.2930    129.4863    237.4807   5.4346249238e+01   8.9850978610e+00    0.1232984   0.09722802  22.95 0.0008102193    1.001    0.001
        14  -9.2544     77.4935    233.5145   6.5428370893e+01   1.6247350167e+01    0.1255346    0.1003631  35.66 0.0001012356    1.017    0.017
        15  -9.7033    133.3384    232.6591   5.2942974885e+01   9.2554438740e+00    0.1221755     0.085099  51.40 0.0007050147    1.766    0.434
        16  -9.3594    139.4066    230.7709   5.1420357452e+01   8.7638308605e+00    0.1609198    0.1085126 -30.96 0.0009614031    1.688    0.408
        17  -9.0735    151.7133    229.3367   4.8673823963e+01   7.3814871085e+00    0.1112537    0.0892845  50.17 0.0007017024    1.631    0.387
        18  -9.5502    126.9508    226.6926   5.3574490119e+01   1.1076798497e+01    0.1877981    0.1391873  28.30  0.001163649    1.103    0.093
        19  -9.6731    114.3811    222.7805   5.5885950054e+01   1.3440072348e+01     0.167306    0.1145766 -39.16 0.0009589146    1.728    0.421
        20 -10.1242    173.7330    221.0912   4.3103122459e+01   5.7590412196e+00    0.2278949    0.1474838 -16.20  0.001356018    1.610    0.379
        21  -9.8064    148.0206    222.5057   4.8506216390e+01   8.9374730430e+00    0.2014478     0.103713  29.98  0.001046039    1.629    0.386
        22  -9.3730    167.5120    221.5280   4.4389277954e+01   6.5029445404e+00    0.1230454   0.09786101  10.68 0.0002701618    1.011    0.011
        23  -9.5739    123.4915    221.4711   5.3677325540e+01   1.2435410691e+01    0.1287873    0.1058321  24.36 0.0008099187    1.002    0.002
        24 -10.2976    199.0168    215.5121   3.7531935773e+01   3.3509687255e+00    0.1908852    0.1629741 -35.31  0.001328379    1.535    0.349
        25 -11.9407    198.3134    203.9797   3.5819235152e+01   5.0483821005e+00    0.3223307     0.253277  -3.05  0.001574486    1.038    0.037
        26 -12.7935    201.1752    208.2054   3.5991759577e+01   4.0875980049e+00    0.6932417     0.347746  -5.62  0.003044808    3.259    0.693
        27 -12.8297    184.8340    194.1955   3.6689433559e+01   8.3282858463e+00    0.7062086    0.3968326  -9.56  0.003341238    2.453    0.592
        28 -13.0058    191.6108    207.0817   3.7544407704e+01   5.4754829235e+00    0.5763704    0.4011346  30.44  0.003664427    1.395    0.283
        29 -13.3061    185.2543    202.5736   3.8004118704e+01   6.9881013599e+00    0.7985253    0.4837406  44.73  0.004366749    2.069    0.517
        30 -11.3409    171.2421    213.9390   4.2519005648e+01   7.1555670161e+00    0.2510714    0.1966029  -2.58  0.001641944    1.143    0.125
        31 -10.1470    185.4943    213.5137   3.9702035006e+01   5.3406996173e+00    0.2232888    0.1106329 -39.46  0.001097337    2.103    0.524
        32 -10.1201     77.7514    213.4949   6.3475945175e+01   2.0070156377e+01    0.3383202    0.1367387  41.26  0.001496524    2.032    0.508
        33 -10.3787    205.9555    212.7293   3.5870887267e+01   2.8773065089e+00    0.1658566    0.1251509  10.27 0.0006171406    1.104    0.094
        34 -10.1219     42.4212    214.8467   7.2251496298e+01   2.4008514819e+01    0.2758636    0.1557835  50.66   0.00149566    1.503    0.335
        35 -11.9529     86.0319    208.4204   6.0901049764e+01   2.0007587783e+01    0.5255371    0.3036511  71.65  0.002376076    2.618    0.618
        36 -11.5861    178.0803    208.3240   4.0306391027e+01   7.0897372197e+00    0.3132999    0.2017784  -6.58  0.001774441    1.677    0.404
        37 -13.4823     89.0227    197.0172   5.8800478560e+01   2.1957663453e+01    0.8138511    0.4561533  55.45  0.003747497    2.038    0.509
        38 -12.7552     78.5268    190.1797   6.0685570054e+01   2.4899133106e+01    0.6591098    0.4875309 -54.40   0.00360935    1.517    0.341
        39 -13.1762     86.0710    185.3432   5.8063556547e+01   2.4906903767e+01    0.8069101    0.4796585  72.13  0.003455411    2.490    0.598
        40  -9.8598     26.3345    205.3084   7.5633516511e+01   2.7719581823e+01    0.1169152   0.09511794 -28.02  0.000466284    1.674    0.402
        41 -10.0789     34.8044    202.9776   7.3348065146e+01   2.7369301335e+01    0.2274946    0.1131159  62.18  0.001087588    1.995    0.499
        42 -11.7604    125.1035    196.8838   4.9905964669e+01   1.6700286929e+01     0.523822    0.3428097 -55.51  0.002753278    1.797    0.444
        43 -11.5872    216.4297    195.6101   3.1287532838e+01   3.9005016052e+00    0.2339006    0.1953883  -7.92  0.001272444    1.146    0.127
        44 -10.4789    140.5943    198.0627   4.6524743751e+01   1.4155717124e+01    0.2843349    0.2346303 -26.45  0.001693239    1.275    0.216
        45 -10.5360    248.5505    193.5167   2.5962941004e+01   3.7064163371e-01    0.2936313       0.1685 -28.37  0.001745441    1.420    0.296
        46 -11.9304    226.6068    192.2285   2.9060703363e+01   3.0920664618e+00    0.5182272    0.2358332 -26.49  0.002752154    2.063    0.515
        47 -13.0732    102.8390    191.0308   5.4491243516e+01   2.1215691762e+01    0.5449882    0.4415326 -43.08  0.003106675    1.386    0.278
        48 -12.4927     96.3779    188.9999   5.5858082440e+01   2.2603731467e+01     0.483507    0.2823752  39.52  0.002335503    1.510    0.338
        49 -12.4875    130.6188    189.0966   4.7399776233e+01   1.7357081433e+01    0.6138074     0.429525 -61.63  0.003213272    1.808    0.447
        50 -10.4032    161.3605    191.5385   4.0947103469e+01   1.2187145902e+01    0.2539389    0.1571777 -37.33  0.001347431    1.666    0.400
        51 -10.5878     20.8782    190.2202   7.6173455524e+01   3.1632222462e+01    0.3026309    0.1540403  73.37  0.001463974    1.973    0.493
        52  -9.4653      6.6184    190.2253   7.9924970697e+01   3.2878881173e+01    0.1696733    0.1059547 -73.16 0.0009499986    1.667    0.400
        53 -10.9179    209.5959    195.2826   3.2387523145e+01   4.8177957475e+00    0.2146884    0.1027961 -39.55  0.001130903    2.084    0.520
        54 -11.4287    191.8456    185.0164   3.3778637032e+01   8.7568588731e+00    0.2943859    0.1992013 -18.05  0.001399258    1.435    0.303
        55 -11.0357     12.3350    183.9852   7.8122836521e+01   3.3848109004e+01    0.4091289    0.1961843  75.52   0.00194081    2.052    0.513
        56 -13.0662     96.4638    182.2484   5.4876913694e+01   2.4053206096e+01    0.9071625    0.4011964  37.65  0.003772131    1.971    0.493
        57 -10.1560    203.4057    181.7839   3.1116324941e+01   7.6094117226e+00    0.1812061    0.1007843 -26.25 0.0009603319    1.733    0.423
        58 -11.2277    237.5335    179.7369   2.5229664020e+01   3.4028406792e+00    0.3237066    0.2262212  13.65  0.002212298    1.391    0.281
        59 -12.4093    166.5769    183.7581   3.8516789127e+01   1.2731841323e+01    0.4750426    0.3554831 -41.22  0.002258276    1.423    0.297
        60 -12.3191    146.6709    177.1549   4.1661071941e+01   1.7088537223e+01    0.5448056    0.3025547 -63.81  0.002189912    3.123    0.680
        61 -11.0580    118.4987    177.3976   4.8438462453e+01   2.1636449010e+01    0.2824283    0.2180207 -72.67  0.001471732    1.642    0.391
        62 -11.6531     56.4927    168.1377   6.4186224685e+01   3.3005202928e+01    0.5247438    0.4788094 -33.05  0.003027085    1.283    0.221
        63 -12.0094     59.7828    174.8011   6.4015842460e+01   3.0965041311e+01    0.5065641    0.4449843 -48.97   0.00292929    1.297    0.229
        64 -10.1612    137.5102    176.5099   4.3661442022e+01   1.8712309126e+01    0.1396347    0.1268571  17.92 0.0008105147    1.007    0.007
        65 -11.6111     77.9921    171.9848   5.8455508574e+01   2.9134393350e+01    0.4098095     0.276002  55.39  0.001997276    1.522    0.343
        66 -10.0548      2.5948    171.8029   8.0232484001e+01   3.7525522924e+01    0.1929738    0.1022448  77.44  0.000960861    1.737    0.424
        67 -12.5011    150.3777    167.9559   3.9136491570e+01   1.8226667396e+01    0.6015639    0.3049914 -51.69  0.002596383    2.272    0.560
        68 -13.6761    172.1698    161.3958   3.3197320733e+01   1.5757105239e+01     1.065469    0.5256438 -35.79  0.004776663    2.043    0.510
        69 -11.4355     66.3983    169.1095   6.1398162005e+01   3.1456743024e+01    0.3693917    0.1978878  29.88  0.001628002    1.757    0.431
        70 -12.6941    132.8947    167.4722   4.3137466757e+01   2.1297548086e+01     0.599108    0.3464652  33.74  0.002753109    1.641    0.390
        71 -10.9138    220.4879    165.4671   2.5274722828e+01   7.6186781002e+00    0.2585306    0.1849714  -6.72  0.001239834    1.340    0.253
        72 -12.6139    213.6472    160.5527   2.5449801834e+01   9.3287682181e+00    0.4892029    0.3931223  -1.86   0.00212206    1.149    0.129
        73 -12.0520     85.5691    159.9360   5.4459173384e+01   3.0855704986e+01    0.5524111    0.2853954 -35.54  0.002038574    2.901    0.655
        74 -11.1016     91.2332    157.8683   5.2476363984e+01   3.0446891629e+01    0.2941371    0.2553352  11.65   0.00148445    1.250    0.200
        75 -10.3245    197.1870    154.1119   2.6993828796e+01   1.2873184100e+01    0.2050512    0.1609518  -5.32  0.001049775    1.256    0.204
        76 -11.0460    246.9383    151.2323   1.8761915337e+01   6.0021137435e+00    0.3730689     0.305816   8.13  0.002742038    1.261    0.207
        77 -11.5939    223.5682    160.1080   2.3787696343e+01   7.9613260040e+00    0.3148585    0.2021495  21.68  0.001858276    1.714    0.416
        78 -10.6518    123.0270    150.5153   4.2354725751e+01   2.6630115805e+01    0.2383654    0.1409332  38.05  0.001041693    1.618    0.382
        79 -14.4552    187.2209    125.4326   2.2716155743e+01   1.9419849783e+01      1.97033     1.526577 -78.93   0.01030507    1.899    0.473
        80 -10.8181    108.7077    143.3241   4.4763995958e+01   3.0857954362e+01    0.2834264    0.1933439 -65.98   0.00127032    1.722    0.419
        81 -11.2479    139.7735    142.6794   3.6518354240e+01   2.5185656628e+01    0.3060527    0.2068755 -55.75  0.001423664    1.663    0.399
        82 -10.4003    240.0983    140.9585   1.7739957865e+01   8.3399382557e+00    0.3147373    0.2019338 -26.53   0.00195438    1.292    0.226
        83 -14.3876    170.9079    126.4964   2.6031740146e+01   2.2339840628e+01     1.411343     1.210828 -75.91  0.007774309    1.451    0.311
        84 -13.6755    193.2926    140.2725   2.4852419752e+01   1.5807815269e+01    0.9819135    0.7607483  80.25  0.005208743    2.118    0.528
        85 -10.1353     48.5188    137.3399   6.2643286383e+01   4.1883354319e+01    0.2989705    0.2469179 -48.17  0.001572394    1.305    0.234
        86 -13.8527    154.0013    131.3508   3.0700338744e+01   2.4727011271e+01    0.9506202    0.8285273 -77.32  0.005114633    1.394    0.283
        87 -10.1764     96.1273    133.5501   4.6399347782e+01   3.5456590970e+01    0.2989161    0.1991282 -19.44  0.001188805    2.318    0.569
        88 -10.1712    227.3990    132.1410   1.7755811308e+01   1.1482597734e+01    0.3195511    0.1930201   5.83    0.0015379    2.693    0.629
        89 -10.4733     39.0190    131.9875   6.5197166648e+01   4.4435587225e+01     0.237967    0.1687667 -35.00  0.001002609    1.691    0.409
        90 -12.9592    189.7445    145.9421   2.6673990331e+01   1.5462188055e+01    0.6144561    0.4420222  51.17  0.003033773    1.664    0.399
        91 -12.6546    130.9193    113.6065   3.1918001212e+01   3.3106444127e+01    0.6664402    0.5887054   9.10  0.003434296    1.277    0.217
        92 -13.0735    126.7430    107.1444   3.1322013684e+01   3.5378037065e+01     1.047648    0.6839338  37.83  0.004602722    1.617    0.381
        93 -11.7120    128.3931     99.7146   2.8894345452e+01   3.6578691344e+01     0.558193    0.4441274 -60.25  0.002674041    1.343    0.255
        94 -11.8908     74.3825    101.6645   4.6212641659e+01   4.7267486726e+01    0.4130572    0.3842309 -43.78  0.001971875    1.106    0.096
        95 -11.2166     78.1227    110.4536   4.7055494343e+01   4.4404376320e+01    0.3227667     0.282165  67.86  0.001631115    1.198    0.165
        96 -12.0003     78.2474    105.5859   4.5816372317e+01   4.5597816043e+01    0.4464811    0.3820568 -17.54  0.001756737    1.370    0.270
        97 -13.4062     95.8981     96.0620   3.7252998859e+01   4.4445471564e+01    0.9274102    0.7909814 -20.89  0.004556069    1.361    0.265
        98 -11.2626    201.5315     93.6241   1.3074445757e+01   2.1911401787e+01    0.4416661     0.226873 -40.55  0.002095923    1.698    0.411
        99 -11.4702     34.6605     87.9310   5.9254053677e+01   5.6689273031e+01    0.6341711    0.4439716 -70.35  0.003109506    1.415    0.293
       100 -13.1026    117.4738     70.5821   2.3001138426e+01   4.4931737364e+01    0.9376045    0.6275009  59.75  0.004210193    1.518    0.341
       101 -13.4361    127.5764     85.3398   2.4997313989e+01   3.9680612248e+01     1.274456     1.036241  16.99  0.006133023    1.554    0.356
       102 -13.6240    118.9634     80.5773   2.5784050961e+01   4.2640790146e+01     1.402042    0.9708725  -3.28  0.005526223    2.500    0.600
       103 -13.0026    130.8035     71.0952   1.9868152742e+01   4.1606148389e+01     1.094558    0.7431771  62.18  0.005023267    1.503    0.335
       104 -14.5303     89.3253     80.5756   3.4785348271e+01   4.9327153077e+01     1.882714     1.400884 -21.14  0.008445464    1.734    0.423
       105 -14.6962    105.3350     77.2950   2.8595076587e+01   4.6473507485e+01     1.866444     1.463956 -70.90  0.008806562    1.492    0.330
       106  -9.9758      4.3665     88.6510   7.3531822690e+01   5.9004260762e+01    0.3088228     0.181604 -56.56  0.001527521    1.539    0.350
       107 -12.4792    123.1983     62.2347   1.8802415085e+01   4.5046795363e+01    0.6302895    0.5369567  88.72  0.002782596    1.231    0.188
       108 -10.7738     50.3187     84.9673   5.1472419869e+01   5.5406842502e+01    0.2225315    0.1963052 -58.53  0.001176836    1.114    0.102
       109 -11.2079     46.6089     81.7289   5.2257902459e+01   5.6759449193e+01    0.2789031    0.1981237 -72.40  0.001314122    1.539    0.350
       110 -13.1236     72.2581     78.3781   4.0350602692e+01   5.3280621226e+01     1.069617    0.5770026  34.05   0.00426888    1.961    0.490
       111  -9.7140    156.2792    247.5891   5.0116674162e+01   4.1526185754e+00    0.2237966   0.08546742  33.61  0.000872253    2.100    0.524
       112  -9.5295     93.5086    247.4998   6.3125533354e+01   1.1855208413e+01    0.1220363   0.09354059  33.17 0.0003948775    1.016    0.016
       113 -12.9131     73.3959     55.3906   3.1713952088e+01   5.8012074055e+01    0.9130514    0.4907768 -35.45   0.00370955    2.095    0.523
       114 -11.1056     38.0850     59.6319   4.9753457897e+01   6.3333160160e+01    0.3004868    0.2029281 -47.89  0.001477084    1.424    0.298
       115 -13.4608    123.1076     38.2298   1.0466143364e+01   4.8845733470e+01     1.023404    0.6492814  51.56  0.004788022    1.559    0.359
       116 -11.3083     43.8357     49.4348   4.2895899857e+01   6.4774841590e+01    0.3730389    0.3254124  70.64  0.002055258    1.409    0.290
       117 -11.5699     25.5992     48.2551   5.2904961835e+01   6.7538049812e+01    0.7468082    0.4079353   5.50   0.00318241    2.412    0.585
       118 -12.3113     67.7254     61.1671   3.6238208299e+01   5.7986219109e+01    0.5276447    0.4509436  57.42  0.002751809    1.241    0.194
       119 -10.7811     38.9523     36.2239   3.9797752505e+01   6.8271376125e+01    0.3363504    0.2436505  14.41  0.001743749    1.503    0.335
       120 -10.3389    161.8076    242.2935   4.8366006779e+01   4.2201130858e+00    0.2913121    0.2267906  62.44  0.001835924    2.326    0.570
       121 -11.6269     62.2524     71.3052   4.2148412251e+01   5.6770271611e+01    0.5348257    0.2571357 -48.96  0.002094675    2.068    0.516
       122 -10.0137    169.9941    242.9958   4.6878515302e+01   3.1387243173e+00    0.2446212    0.1298729  26.39  0.001449868    1.512    0.338
       123 -11.2499     27.5233     29.0034   4.3382781479e+01   7.1403704770e+01    0.6138442    0.2962938 -34.56  0.002645251    2.329    0.571
       124 -11.3186     13.0760     26.2031   5.2602157364e+01   7.3692675462e+01    0.5025698    0.1764039 -55.62  0.002059678    2.665    0.625
       125 -11.6252    132.4315     62.1377   1.6650948086e+01   4.2773091285e+01    0.4234031    0.3617907  -8.27  0.002144767    1.430    0.301
       126 -12.0291    191.8721    228.1174   4.0724705444e+01   2.5192835987e+00    0.3441774    0.2031806 -47.38  0.002022868    2.363    0.577
       127 -11.4406     49.7609     63.7314   4.5251208316e+01   6.0642400655e+01    0.4100496    0.1864346 -47.57  0.001607326    2.158    0.537
       128 -10.2756     20.8200     17.6133   4.1915265181e+01   7.4466723098e+01    0.2614321    0.1848439 -15.83  0.001094569    1.480    0.324
       129 -10.2863     43.1431     70.1955   5.0575473133e+01   6.0106975210e+01    0.3583255    0.2453803 -56.10  0.001730564    1.426    0.299
       130 -11.2328    133.4146     55.9052   1.4413335624e+01   4.3555476898e+01    0.5071789    0.3037545 -59.70  0.002133386    1.985    0.496
