#   1 NUMBER                 Running object number                                     
#   2 MAG_AUTO               Kron-like elliptical aperture magnitude                    [mag]
#   3 X_IMAGE                Object position along x                                    [pixel]
#   4 Y_IMAGE                Object position along y                                    [pixel]
#   5 X_WORLD                Barycenter position along world x axis                     [deg]
#   6 Y_WORLD                Barycenter position along world y axis                     [deg]
#   7 A_WORLD                Profile RMS along major axis (world units)                 [deg]
#   8 B_WORLD                Profile RMS along minor axis (world units)                 [deg]
#   9 THETA_WORLD            Position angle (CCW/world-x)                               [deg]
#  10 FWHM_WORLD             FWHM assuming a gaussian core                              [deg]
#  11 ELONGATION             A_IMAGE/B_IMAGE                                           
#  12 ELLIPTICITY            1 - B_IMAGE/A_IMAGE                                       
         1 -13.2440     57.9973    131.1639   9.9704463169e+01   4.2291585240e+01     3.696493     1.087493 -71.16  0.007142025    9.769    0.898
         2 -13.6771    229.3777     21.5761   3.4496938161e+01   2.6572147977e+01    0.8446234    0.7798989 -89.51  0.002632756    1.296    0.228
         3 -13.8289    203.3537     43.3479   4.1982203927e+01   2.9477131862e+01     1.286162     1.043369  34.82   0.00477773    1.711    0.415
         4 -13.8535    211.8213     37.4025   3.9625230339e+01   2.8375071229e+01     1.663205     1.171918 -23.67   0.00846645    1.847    0.459
         5 -11.8032    248.7707      3.1124   2.9481283523e+01   2.4753882654e+01     0.384303    0.2447257 -69.15  0.001871124    1.215    0.177
         6 -14.8829     38.1830    249.0830   1.1790930968e+02   1.7147093803e+01     3.413708    0.8729665  29.06   0.01079873    6.351    0.843
         7 -13.7499     45.6466    217.4315   1.1400883653e+02   2.2830083772e+01     1.528934        1.067  32.99  0.005837703    1.551    0.355
         8 -13.5706      6.2522    187.1206   1.2033205981e+02   3.3873746440e+01     1.713817      0.89684  82.85  0.009180976    1.707    0.414
         9 -15.1287    110.5620    229.7870   1.0116174737e+02   1.1062630283e+01     6.363793     1.229351  34.70   0.01757947    5.324    0.812
        10 -16.0649     36.7240    189.5774   1.1347661381e+02   3.0275074961e+01     10.63343     4.107668  78.96   0.03258048    5.044    0.802
        11 -14.9347      7.0406    246.0456   1.2350674837e+02   2.1135688627e+01     1.923982     1.398895  32.02   0.01369077    1.666    0.400
        12 -12.5869     84.8777    220.3381   1.0566931348e+02   1.6904974231e+01    0.6898677    0.4323596  60.10   0.00135873    1.573    0.364
        13 -13.2539     29.8954    202.9543   1.1623981363e+02   2.7906315466e+01    0.5254281    0.4731307 -31.91  0.001072138    1.559    0.359
        14  -9.3280    107.5730    203.7939   9.8315980996e+01   1.7005410529e+01     0.186141    0.1333553 -78.89 0.0007320526    1.599    0.374
        15 -11.3847    194.9983    198.5107   7.8111992625e+01   3.1543045368e+00    0.4390241    0.2886876 -70.50  0.001879157    3.045    0.672
        16 -10.4108    207.9057    194.6525   7.4871873894e+01   1.7279404711e+00    0.1846258    0.1657709  17.46  0.001140532    1.114    0.102
        17 -10.0715     57.2393    194.4078   1.0908733312e+02   2.6634855769e+01    0.2467674    0.1845721  80.05 0.0003885406    1.250    0.200
        18  -9.8116     81.0658    182.8456   1.0172401225e+02   2.6055056745e+01    0.2578204    0.2240684  59.89  0.001317326    1.084    0.077
        19  -9.4003     99.4705    180.9880   9.6788557158e+01   2.3585731067e+01    0.2190333    0.1897386  47.16 0.0004613423    1.122    0.108
        20 -12.0515     58.7051    176.4931   1.0655330914e+02   3.0774459412e+01    0.4304638    0.3154417 -29.43  0.001175108    1.927    0.481
        21 -11.9874     64.0482    171.2382   1.0445255950e+02   3.1358755271e+01    0.3237765    0.2756494 -35.70 0.0006872583    1.431    0.301
        22 -13.9310     11.4323    232.8011   1.2203490384e+02   2.3349238407e+01    0.9563363    0.5614311  82.68  0.004359923    1.424    0.298
        23  -8.4719     86.6817    176.6801   9.9363425933e+01   2.6686809743e+01     0.142902    0.1134997 -26.22 0.0005968438    1.663    0.399
        24 -10.9379    113.2545    173.7725   9.2074391894e+01   2.2942893754e+01    0.3857089    0.1846442  37.48  0.001518906    2.069    0.517
        25 -13.5288     61.2529    157.7305   1.0322453845e+02   3.5126020778e+01    0.5582747    0.3541976 -41.90  0.001464404    1.859    0.462
        26 -15.1937      9.8232    208.2939   1.2094458038e+02   2.8742530274e+01     1.887501     1.300402  81.80   0.01224075    1.164    0.141
        27 -12.8331     81.2242    155.7875   9.7363311199e+01   3.2720213398e+01     1.027381    0.8195293 -52.51  0.001235286    1.260    0.206
        28 -13.9870     68.4154    144.6534   9.9032763977e+01   3.7447861447e+01     3.859033     1.750488  66.19  0.002760154    6.413    0.844
        29  -9.5174    230.3276    166.6624   6.5360436717e+01   2.9729283222e+00    0.1285168    0.1038901 -69.63 0.0007051784    1.728    0.421
        30 -11.6231     32.5889    156.8697   1.1098954563e+02   3.8735535056e+01    0.5166703    0.3323807  62.68  0.001852109    1.611    0.379
        31  -9.4224    174.8743    149.1460   7.2358417880e+01   1.6590771843e+01    0.2308401     0.205386 -82.28 0.0007744264    1.287    0.223
        32 -10.3941    133.6231    144.9174   8.1094642439e+01   2.5920577105e+01    0.9122351    0.2044612 -54.25  0.001952255    6.582    0.848
        33 -10.1077     48.0646    170.1623   1.0850225521e+02   3.3685083754e+01    0.3272955    0.2182728  10.29  0.001363658    2.181    0.541
        34 -10.4332     29.2507    143.3730   1.1022776421e+02   4.2453473317e+01    0.3483722    0.2659634   5.99   0.00197487    1.708    0.414
        35 -10.7781     97.8915    140.5633   8.9750487979e+01   3.3757747531e+01    0.6223487    0.3972009 -18.79  0.002327984    2.812    0.644
        36 -12.3581     84.6219    140.2113   9.3480700502e+01   3.6093867616e+01    0.3252833    0.2773919 -56.13 0.0005236163    1.132    0.117
        37 -11.9261     69.3729    130.8577   9.6156197207e+01   4.0795621002e+01    0.8537022    0.5253503 -85.31  0.002604708    2.212    0.548
        38 -10.8931    107.0373    130.8889   8.5045001445e+01   3.4456176107e+01    0.4734754     0.348699  34.39    0.0016141    1.440    0.306
        39  -9.4976    136.0000    129.9610   7.7054596815e+01   2.8889608116e+01     0.264455   0.08798278 -47.81  0.000805337    2.963    0.662
        40 -10.1946     19.8573    131.5974   1.1144257356e+02   4.6239376478e+01    0.2770924    0.1578464 -64.94  0.001075189    1.458    0.314
        41 -10.2412     95.3099    126.7964   8.7486780936e+01   3.7599273875e+01    0.2932433    0.2490574  -5.84 0.0007906585    1.435    0.303
        42  -9.4486    115.0104    125.1708   8.1476765105e+01   3.4282954730e+01    0.2488612    0.1846544   5.78 0.0007060032    1.949    0.487
        43  -9.7690    105.9019    119.2868   8.2624531952e+01   3.7446999819e+01    0.2338381    0.2071703 -47.24  0.000349249    1.111    0.100
        44  -8.8118    230.5151    113.4932   5.4238130349e+01   1.2362963633e+01    0.1373817     0.119818 -46.29 3.715664e-05    1.014    0.013
        45  -8.8859    167.5380    112.5161   6.5351538997e+01   2.5815529912e+01    0.1536005    0.1447964 -69.09 0.0001123151    1.038    0.037
        46 -10.4393     35.2921    111.6505   1.0339447085e+02   4.9784823268e+01    0.3562151    0.1920183  47.08  0.001647984    2.199    0.545
        47 -10.0498    205.3878    110.4722   5.7584008118e+01   1.7961412859e+01    0.2759898    0.2372567  51.35 0.0009693468    1.270    0.212
        48  -9.5214    134.4781    105.5242   7.1288785856e+01   3.4653280583e+01    0.2842259    0.1465436 -34.66  0.001003652    2.314    0.568
        49 -11.3380    245.5011     98.8247   4.9038146458e+01   1.2027681826e+01    0.2181972    0.1694802  38.96  0.001279282    1.682    0.405
        50 -10.9876     53.0693     91.7905   9.2842162309e+01   5.2510527401e+01    0.4064533    0.1947315 -52.81  0.001772735    1.867    0.464
        51 -10.3296     41.5960     92.1134   9.7099555856e+01   5.3805913746e+01    0.2280704     0.192622  -4.30 0.0004784558    1.291    0.225
        52  -9.9902    248.3236     87.6714   4.6369877322e+01   1.3311395437e+01    0.1364116   0.08539685 -64.44 0.0003630006    1.696    0.410
        53  -9.8163    161.1908     83.1569   5.9064736299e+01   3.3004704757e+01    0.2124573    0.1740207 -78.87 0.0005519689    1.328    0.247
        54  -9.9203    243.4956     77.5476   4.4829987788e+01   1.5836433779e+01    0.1293159    0.1090173 -56.28 4.074972e-05    1.038    0.036
        55 -11.9827     74.1717    161.9930   1.0034611820e+02   3.2230977001e+01    0.4383961    0.4023576 -68.84 0.0004174338    1.084    0.077
        56  -9.2766     33.8013     62.5674   9.2373688345e+01   6.1116987002e+01    0.2197445    0.1546049  37.54   0.00101089    1.658    0.397
        57  -9.8974     29.4452     60.1154   9.3507099058e+01   6.2058549297e+01    0.3026537     0.159079  40.29  0.001337303    2.366    0.577
        58 -11.5390     12.8155     59.8487   1.0072799926e+02   6.3505890035e+01    0.3852369    0.2635232  50.45 0.0008931064    2.078    0.519
        59  -9.6356    173.5131    244.4735   9.0034597303e+01  -1.3180668715e+00     0.216096    0.1661829 -52.14 0.0008358312    1.628    0.386
        60  -9.9048    171.3432    239.8545   8.9785974152e+01  -2.4607508960e-01    0.2818052    0.2142058 -69.95  0.001622125    2.004    0.501
        61 -13.2476     57.3946    240.2166   1.1348086697e+02   1.6540811847e+01    0.6876415    0.4285004  53.88 0.0009164793    1.324    0.245
        62 -12.4330    219.7254     30.5177   3.7273914779e+01   2.7530131562e+01    0.4454734    0.4026511  40.33  0.001196614    1.544    0.352
        63 -10.0059     35.2040     56.0243   8.9749885318e+01   6.2274929000e+01    0.1958741    0.1703628   9.79  0.000486234    1.184    0.156
        64 -11.3406     11.3321     52.5072   9.9418625152e+01   6.5109438413e+01    0.2377345    0.2110828  34.14 0.0009187526    1.424    0.298
        65  -9.6966      3.0425     49.4588   1.0246686392e+02   6.6238422034e+01    0.1587533    0.1090687   8.36 0.0007409964    1.580    0.367
        66  -9.8225    131.9212     39.2218   5.2315651015e+01   4.7027733905e+01    0.3081974    0.2023051 -76.46  0.001053248    2.154    0.536
        67  -9.1083    131.7939     31.1823   4.9783666361e+01   4.8088542522e+01     0.174989    0.1449658  39.57  0.000286914    1.248    0.199
        68  -9.8437    189.2915     15.6406   3.6928381728e+01   3.6165428008e+01    0.1983712    0.1728042 -56.68 0.0006674989    1.190    0.160
