#   1 NUMBER                 Running object number                                     
#   2 MAG_AUTO               Kron-like elliptical aperture magnitude                    [mag]
#   3 X_IMAGE                Object position along x                                    [pixel]
#   4 Y_IMAGE                Object position along y                                    [pixel]
#   5 X_WORLD                Barycenter position along world x axis                     [deg]
#   6 Y_WORLD                Barycenter position along world y axis                     [deg]
#   7 A_WORLD                Profile RMS along major axis (world units)                 [deg]
#   8 B_WORLD                Profile RMS along minor axis (world units)                 [deg]
#   9 THETA_WORLD            Position angle (CCW/world-x)                               [deg]
#  10 FWHM_WORLD             FWHM assuming a gaussian core                              [deg]
#  11 ELONGATION             A_IMAGE/B_IMAGE                                           
#  12 ELLIPTICITY            1 - B_IMAGE/A_IMAGE                                       
         1  99.0000    164.8474    190.5295   2.9100883354e+02   4.6213913964e+00     0.253242    0.0566421  35.68   0.01686583    3.870    0.742
         2 -14.4283      6.7666     24.5223   2.9186704047e+02   7.3406834486e+00   0.07329848   0.04684812 -49.44  0.007094462    1.518    0.341
         3 -12.1109     83.3576     22.6265   2.9097032686e+02   6.9504318748e+00   0.01924718   0.01691141 -88.16  0.001807399    1.272    0.214
         4 -12.1192    104.3938      5.3728   2.9062640522e+02   7.0309764679e+00   0.02976684    0.0219403  73.35  0.003213491    1.733    0.423
         5 -12.5590     73.6237      2.1246   2.9096310417e+02   7.2333189655e+00   0.02483432   0.01717768 -88.39 0.0006813848    1.868    0.465
         6 -12.1799     75.6040     13.4061   2.9100610531e+02   7.0958498405e+00   0.01773053   0.01445117  20.08  0.001111699    1.222    0.181
         7 -13.2747     85.8501     11.9295   2.9087903978e+02   7.0572585661e+00   0.05269408   0.02839465  21.95  0.004286495    1.891    0.471
         8 -13.1809     84.4739      5.3888   2.9085673409e+02   7.1381906004e+00    0.0357944    0.0225356   9.85   0.00362293    1.783    0.439
         9 -12.6698     96.3262      3.5537   2.9070900847e+02   7.0949291497e+00    0.0267932   0.02081033  -1.72  0.001861789    1.386    0.279
        10 -11.8719     90.4908      1.7246   2.9076576735e+02   7.1469439095e+00   0.02251116   0.01269573  27.56  0.001460856    1.735    0.424
        11 -12.2233    124.0562      9.9941   2.9042625098e+02   6.8729213381e+00   0.01353223   0.01274156 -74.25 0.0003730768    1.124    0.110
        12 -11.0708    138.0823      5.8695   2.9024012792e+02   6.8434944131e+00   0.01396701  0.009040612  31.95  0.001256775    1.520    0.342
        13 -11.9018    112.0540      4.8183   2.9053464823e+02   6.9958760891e+00   0.01789135   0.01134733 -14.06  0.001742209    2.008    0.502
        14 -10.8585     33.6536      4.1265   2.9143707076e+02   7.4257643148e+00   0.01155051  0.008578341  35.46 0.0008790823    1.354    0.261
        15 -11.0481    135.4064    212.5444   2.9147597994e+02   4.5321761498e+00   0.01391828   0.01108087  67.47  0.001585481    1.492    0.330
        16 -10.5632     91.9390    152.6059   2.9162866884e+02   5.4413097548e+00   0.01297652  0.008899164  86.17  0.001309534    1.959    0.489
        17 -11.2990     53.3323    201.2257   2.9235622251e+02   5.1010611620e+00   0.01363127   0.01188353 -82.71  0.001223706    1.264    0.209
        18 -13.6915     77.5910    143.0121   2.9173842091e+02   5.6265514391e+00   0.05237788    0.0296982  89.85  0.004408869    2.922    0.658
        19 -14.2156     91.6809    144.2436   2.9158301370e+02   5.5368824646e+00   0.07431434   0.02854874 -35.75  0.005009648    4.054    0.753
        20 -14.7227     88.5710    134.2145   2.9156055286e+02   5.6665679209e+00   0.06356478   0.04048669 -29.91   0.00171357    1.788    0.441
        21 -12.2456    116.0324    139.9855   2.9127732201e+02   5.4537086702e+00   0.01773787   0.01064419 -78.98  0.001683857    2.129    0.530
        22 -11.8145    155.2321    219.0517   2.9128544576e+02   4.3520717191e+00    0.0242914   0.01542787  25.46  0.002545396    1.558    0.358
        23 -10.5348    142.0943    207.3477   2.9136873842e+02   4.5546724598e+00  0.009287248  0.008411902  24.45 0.0006951435    1.102    0.093
        24 -10.9406    131.6576    130.6819   2.9104292323e+02   5.4742397390e+00  0.007041424  0.004697965 -26.19 0.0007049209    1.716    0.417
        25 -11.4118     48.4183    129.6485   2.9199744291e+02   5.9338476219e+00   0.01295165  0.008216951  19.41  0.001108538    1.615    0.381
        26 -11.3207     10.4469    130.0091   2.9243795667e+02   6.1334750188e+00   0.01569988  0.008471313  33.91  0.001516008    1.812    0.448
        27 -11.9289     59.1842    146.1028   2.9196879514e+02   5.6906785879e+00   0.02617216   0.01630516  49.16  0.002636719    1.832    0.454
        28 -11.3208     51.1769    143.8061   2.9204786400e+02   5.7595597768e+00    0.0134186  0.008291148  38.12 0.0008680323    1.637    0.389
        29 -11.5712     40.6866    144.0196   2.9217018331e+02   5.8134749148e+00    0.0116102  0.009250564  20.75  0.000239987    1.251    0.201
        30 -11.7871     54.1913    125.3539   2.9190583143e+02   5.9512108180e+00   0.01161184  0.008471986 -47.69 0.0008554537    1.339    0.253
        31  -9.6963     47.6943    125.2790   2.9198040525e+02   5.9869510761e+00  0.006492613  0.004867695  57.42 0.0001848658    1.553    0.356
        32 -12.7653    140.0238    228.7634   2.9151700825e+02   4.3246436424e+00   0.01868824   0.01414931  55.10  0.002091815    1.506    0.336
        33 -11.4804     57.0224    119.9576   2.9184176924e+02   5.9967761458e+00  0.009416111  0.009041713 -22.87  0.001199158    1.008    0.008
        34 -10.4346      3.2964    110.8790   2.9240947833e+02   6.3872645687e+00  0.008597874   0.00774395 -43.36 0.0002103871    1.086    0.079
        35 -11.0560    120.3291    104.6565   2.9102195151e+02   5.8282981958e+00  0.006882231  0.004862102  61.18 0.0007050929    1.748    0.428
        36 -13.3604     17.3577    100.8972   2.9218904923e+02   6.4243267978e+00   0.02616695   0.02130772  21.16   0.00213515    1.222    0.182
        37 -10.9560    188.7118     94.2754   2.9017272034e+02   5.5758160743e+00   0.01105225  0.009741503  55.20 0.0005334798    1.235    0.190
        38  -9.8109    164.6603     92.2585   2.9043823717e+02   5.7285314800e+00  0.006599413  0.004768784  53.38 0.0003520594    1.583    0.368
        39 -11.1824     58.8634     98.7069   2.9169687663e+02   6.2261798240e+00   0.01445326  0.009368798 -39.01  0.001502364    1.598    0.374
        40 -12.4957     55.1412     94.9452   2.9171797227e+02   6.2885364482e+00   0.02416928   0.01560192 -33.09  0.002485832    1.698    0.411
        41 -10.2501    129.1568     83.2007   2.9079495687e+02   6.0221528461e+00  0.008408509  0.007346946  59.99 0.0002342924    1.269    0.212
        42 -10.6008     67.7005     81.2864   2.9149337144e+02   6.3747794227e+00   0.01187989  0.007030354  36.07 0.0007085063    1.681    0.405
        43 -10.6398     77.4700     78.4570   2.9136404361e+02   6.3540663629e+00  0.006444464  0.006186554 -17.35  9.29471e-05    1.006    0.006
        44 -12.4979     96.5432     72.1257   2.9110685661e+02   6.3226169617e+00   0.02166739   0.01457297  -5.73 0.0008053236    1.783    0.439
        45 -10.0214    144.7065     73.7015   2.9056007760e+02   6.0450870574e+00  0.006716902  0.004722245 -27.68 0.0002656588    1.565    0.361
        46 -10.9965     83.1850     68.3614   2.9123918478e+02   6.4369193275e+00   0.01043097  0.008413534 -46.81 0.0004703174    1.213    0.175
        47 -10.1247    130.4343     65.4932   2.9067686706e+02   6.2144793776e+00  0.006506649  0.006105178 -25.87 6.948113e-05    1.038    0.037
        48 -12.5088    125.6221     57.6074   2.9068637882e+02   6.3291546524e+00   0.01359038   0.01213424   4.82 0.0005361774    1.119    0.106
        49 -11.8142     68.4371     55.2982   2.9133340014e+02   6.6632801554e+00   0.01786294   0.01362731  58.55   0.00136365    1.527    0.345
        50  -9.8646    174.5391     56.6107   2.9011607808e+02   6.0760537922e+00  0.006401921   0.00608877  -6.53 0.0001573837    1.026    0.026
        51 -11.3151    210.6663     54.5255   2.8968736298e+02   5.9039164263e+00   0.01042091  0.009764379 -15.51  0.000166636    1.045    0.043
        52 -10.7659    132.8859     53.8333   2.9058048343e+02   6.3323939993e+00  0.009897199  0.008325176 -19.01 0.0004875567    1.228    0.185
        53 -12.9064      3.2284     47.4368   2.9204141144e+02   7.1018621754e+00   0.02889683   0.02018676 -81.49 0.0008707694    1.727    0.421
        54  -9.5026     39.3278    189.3089   2.9244863578e+02   5.3104956038e+00  0.006927526  0.004713577 -26.43 0.0007039371    1.659    0.397
        55 -11.1651    145.3826     50.9650   2.9041948415e+02   6.2971565351e+00   0.01082465  0.008857412  37.65 0.0006457929    1.246    0.197
        56 -13.2171     42.2383     45.8903   2.9158135462e+02   6.9099736223e+00   0.03376497   0.02168112 -61.10  0.003560463    1.555    0.357
        57 -10.6448    176.8443     45.4995   2.9002453175e+02   6.1884969180e+00  0.009433831  0.006312635  23.94 0.0005738562    1.487    0.327
        58 -11.5450    157.0103     43.8060   2.9024345822e+02   6.3148093150e+00   0.01037954  0.009008065 -50.15 0.0005004545    1.133    0.118
        59 -10.2803     95.3484     42.7324   2.9094915895e+02   6.6597298884e+00  0.006675909  0.004769054  54.02 0.0003768904    1.617    0.382
        60 -11.8338     78.7701     30.6008   2.9106990350e+02   6.8854719024e+00   0.01700269   0.01340129  80.42  0.001883779    1.545    0.353
        61 -10.9103    176.3036     33.1941   2.8995880398e+02   6.3297303254e+00  0.009790065  0.008410635  -6.89 0.0002548229    1.196    0.164
        62 -11.1001     41.4320     33.0214   2.9151565704e+02   7.0590712076e+00   0.01244436  0.008886218  -1.15 0.0006908321    1.580    0.367
        63 -12.2591     19.8494    187.5688   2.9266321767e+02   5.4345487102e+00    0.0111038   0.00810786 -69.30  0.001222953    1.455    0.313
        64 -10.4088    139.7892     20.6602   2.9030692228e+02   6.6680653995e+00  0.009538833  0.005517322  34.71 0.0009406381    1.703    0.413
        65 -11.6069     64.2584     18.0478   2.9116437433e+02   7.1047347660e+00   0.01416744  0.009250099  22.70 0.0006842474    1.532    0.347
        66 -12.5173     83.0085    172.8924   2.9184958092e+02   5.2608376113e+00   0.03676973   0.01786997 -61.55  0.003376807    2.041    0.510
        67 -15.3159    173.5163    220.8973   2.9108564540e+02   4.2327176789e+00    0.1595721   0.08350974  -2.11   0.01284634    3.030    0.670
        68 -11.0515    202.3584    225.6476   2.9078130899e+02   4.0236492995e+00   0.01576616   0.01122849  72.57  0.001646099    1.841    0.457
        69 -13.9685     66.7640    187.6011   2.9212231824e+02   5.1824418392e+00   0.06594884   0.04937561 -46.97   0.00751905    1.307    0.235
        70 -12.9555     76.3677    160.2903   2.9185296377e+02   5.4385071554e+00   0.04702918   0.02753727  83.49  0.004015017    2.878    0.653
        71 -15.1961     80.6699    209.1035   2.9208675041e+02   4.8654591473e+00    0.0867808   0.08303991  80.98   0.01036782    1.129    0.115
        72 -13.8847     81.3466    199.7290   2.9202455896e+02   4.9674371844e+00   0.04130063   0.02941957  56.23  0.004250515    1.654    0.395
        73 -13.7811    182.1933    227.2751   2.9102284376e+02   4.1141182553e+00   0.04525308   0.03250822  32.80   0.00443114    1.383    0.277
        74 -13.4449     14.0640    202.3332   2.9281544282e+02   5.2991669929e+00   0.02629467   0.01551118  37.02  0.002658434    1.697    0.411
        75 -12.7587    145.7808    220.9502   2.9140532171e+02   4.3816224003e+00   0.02760748   0.01776396  19.58  0.002890781    1.588    0.370
