#   1 NUMBER                 Running object number                                     
#   2 MAG_AUTO               Kron-like elliptical aperture magnitude                    [mag]
#   3 X_IMAGE                Object position along x                                    [pixel]
#   4 Y_IMAGE                Object position along y                                    [pixel]
#   5 X_WORLD                Barycenter position along world x axis                     [deg]
#   6 Y_WORLD                Barycenter position along world y axis                     [deg]
#   7 A_WORLD                Profile RMS along major axis (world units)                 [deg]
#   8 B_WORLD                Profile RMS along minor axis (world units)                 [deg]
#   9 THETA_WORLD            Position angle (CCW/world-x)                               [deg]
#  10 FWHM_WORLD             FWHM assuming a gaussian core                              [deg]
#  11 ELONGATION             A_IMAGE/B_IMAGE                                           
#  12 ELLIPTICITY            1 - B_IMAGE/A_IMAGE                                       
         1 -18.9619     77.1462    187.8502   1.1227756844e+02   2.5748816670e+01     6.660977      5.92876  63.50    0.0386176    1.097    0.088
         2 -14.5484    249.4053     58.1965   4.6997777991e+01   1.5881403858e+01      1.32949    0.2100612 -36.57  0.003950262    4.341    0.770
         3 -16.5666    167.4838      6.9462   4.3460615654e+01   4.2049320284e+01     3.498304     1.105345  72.05   0.01219648    3.125    0.680
         4 -13.6749    242.0463     10.8646   3.6887474487e+01   2.3561009939e+01    0.3243709    0.2333977 -72.75  0.001231235    1.227    0.185
         5 -11.9726     64.8305     11.0494   6.8791865540e+01   6.5116323265e+01    0.2788109    0.1669124 -21.57  0.001079527    1.592    0.372
         6 -12.3025     98.6567      8.5597   5.7001476391e+01   5.8650010524e+01    0.2054269    0.1533332 -42.41 0.0007507529    1.657    0.396
         7 -13.0909     85.2200      7.2012   6.0149446048e+01   6.1636856981e+01    0.2994916     0.256851  57.56  0.001548982    1.356    0.262
         8 -13.1238    113.5132      1.8925   5.0758448432e+01   5.5851355305e+01    0.3917944    0.1576407  60.50   0.00134376    2.149    0.535
         9 -11.4389     33.9536     14.0177   8.3587988760e+01   6.9299462050e+01    0.1846519    0.1431168 -11.96 0.0004307496    1.026    0.025
        10 -14.0351    160.1881    230.4950   1.0051125564e+02   4.1381887960e+00    0.8044525    0.4814477  28.27  0.001878537    1.656    0.396
        11 -16.1961    166.6754    214.0398   9.6702813766e+01   5.7385092849e+00     1.936771     1.331491 -59.40   0.00757762    1.945    0.486
        12 -16.2139    170.3450    203.7126   9.4229248885e+01   6.8664243204e+00     1.343463     1.105508 -41.59  0.003907819    1.362    0.266
        13 -14.6175    168.8292    243.3843   1.0065806728e+02   7.7545584118e-01    0.7778131    0.6628633  89.48  0.003989164    1.703    0.413
        14 -13.6965    200.2663    246.9321   9.5295237116e+01  -4.6146671970e+00     0.446165    0.3869621  10.29 0.0007731924    1.173    0.147
        15 -17.2309    186.2907    242.1298   9.7179787920e+01  -1.8145736424e+00     3.970644     2.557962 -29.81   0.02381788    1.849    0.459
        16 -11.0935    136.7712    249.4429   1.0749659137e+02   4.9215469086e+00    0.2572911    0.1249128 -41.65  0.001109382    2.916    0.657
        17 -12.6563    134.1500    239.9497   1.0685831417e+02   6.8367084720e+00    0.4006577    0.1385512  33.86  0.001564264    3.119    0.679
        18 -11.2760    129.5356    239.4455   1.0768767016e+02   7.6476521374e+00    0.2102444    0.1175084  48.15  0.000460993    1.507    0.337
        19  99.0000    129.9860    234.7255   1.0702479275e+02   8.3645831119e+00     0.543388    0.3195457  87.75  0.002398712    3.466    0.711
        20  99.0000    125.8969    242.2369   1.0871583778e+02   7.7571321142e+00    0.3218578    0.2184995  56.31  0.001729911    1.365    0.268
        21 -12.4174    155.1824    240.5027   1.0287440334e+02   3.3896198046e+00    0.2664852    0.1915015  48.19   0.00082829    1.261    0.207
        22 -10.9845    112.0439    243.0000   1.1143642504e+02   9.7536174489e+00    0.2015098   0.05669844  39.61 0.0007970972    2.906    0.656
        23 -12.0143    159.9687    241.3328   1.0206720369e+02   2.4949874807e+00    0.1768387    0.1287279  37.39 0.0002167556    1.110    0.099
        24 -11.4184    116.7815    237.0558   1.0987354519e+02   1.0040556169e+01    0.1960299    0.1858541  85.65  0.001408305    1.222    0.182
        25 -11.7334    119.5856    233.5660   1.0892248020e+02   1.0207027056e+01    0.1632171    0.1389368 -18.66 0.0009476442    1.656    0.396
        26 -13.2958    147.9358    232.8133   1.0324944708e+02   5.7811884599e+00    0.5151923    0.3045442  43.64  0.002839984    1.411    0.291
        27 -11.5731    146.3802    228.0921   1.0291072587e+02   6.8171252129e+00     0.234871    0.1743728  59.49 0.0007634899    1.438    0.305
        28 -15.3067    146.7362    195.6865   9.7889195478e+01   1.2606212094e+01     1.958263    0.7731044 -49.95  0.007720021    2.802    0.643
        29  99.0000    124.1329    216.5589   1.0585970664e+02   1.2539518391e+01     1.690384     1.028297 -35.82  0.008346712    2.409    0.585
        30 -15.6517    128.4964    180.0860   9.9323006097e+01   1.9084706948e+01     1.965479     1.349447 -79.40  0.009225961    1.947    0.486
        31 -15.6680    109.7876    199.1775   1.0652921481e+02   1.8305660286e+01     1.638435    0.8235056 -53.07  0.007642271    2.159    0.537
        32 -15.3516    125.4272    196.2577   1.0265881022e+02   1.6269162677e+01     1.395624    0.7455611  48.49  0.006455202    1.757    0.431
        33 -11.7340    156.8274    249.0877   1.0368516796e+02   1.8427597251e+00    0.1787049    0.1362517  47.86 0.0003043683    1.203    0.168
        34 -12.3135    140.0239    173.9928   9.5553664879e+01   1.8241988606e+01    0.2131145    0.2032349  48.04            0    1.007    0.007
        35 -12.4802    144.9532    170.0166   9.3650532605e+01   1.8138632009e+01    0.2266953    0.2157205  49.78 0.0005473959    1.026    0.025
        36 -11.0855    146.8970    220.1405   1.0167796316e+02   8.0876099761e+00    0.1577757     0.140198  12.05 0.0002731132    1.240    0.194
        37 -13.1486    156.9167    212.4321   9.8451378366e+01   7.7128929139e+00     0.320124    0.3009844 -14.04 0.0008801569    1.185    0.156
        38 -11.7513    152.9719    211.3187   9.9094800966e+01   8.5966552244e+00    0.1935754    0.1628645  52.63 0.0003221368    1.177    0.150
        39 -13.3521    153.7573    163.4844   9.0299142939e+01   1.7782400993e+01    0.4796595    0.3587563 -73.25   0.00119425    1.775    0.437
        40 -11.8963    150.7667    158.7631   9.0014100588e+01   1.9380268465e+01    0.2075104     0.180074  85.55  0.001055676    1.363    0.266
        41 -10.9545     18.6018    162.5348   1.2286264237e+02   3.8287048622e+01    0.1211345   0.09402931 -86.61 0.0001396478    1.035    0.034
        42 -13.0506    142.6920    160.6137   9.2308847917e+01   2.0591963525e+01    0.2836066    0.2518592  64.57 0.0005462837    1.184    0.155
        43 -12.3609    135.4880    230.8540   1.0544909209e+02   8.1359835932e+00    0.3615866    0.2134702  58.28  0.001879396    1.870    0.465
        44 -11.0169      1.4736    158.3273   1.2636601112e+02   4.0605677992e+01    0.1104692      0.08817  89.65 0.0002066058    1.078    0.072
        45 -11.8387    242.9611    157.2989   7.0793099872e+01   1.4254651001e+00    0.1862793    0.1641426   8.25 0.0004300609    1.105    0.095
        46 -11.9870    157.5084    154.9663   8.7625418565e+01   1.8813480873e+01    0.2751766     0.217171  40.20 -2.34391e-05    1.236    0.191
        47 -11.9597      7.6640    155.5024   1.2476160404e+02   4.0785579969e+01    0.1275164    0.1124131  56.45 0.0008221726    1.307    0.235
        48 -12.3682    144.4193    153.4043   9.0387552400e+01   2.1817138701e+01    0.2619427    0.1890982  41.52 0.0008671252    1.358    0.263
        49 -11.4779     22.9504    151.3461   1.2079162580e+02   4.0490911148e+01    0.1550564      0.13637  73.41 0.0002312083    1.172    0.147
        50 -11.6212    140.8779    228.7194   1.0409433102e+02   7.6184445725e+00    0.2356876    0.1778805 -57.58  0.001010545    1.593    0.372
        51 -11.6478    147.9188    224.7190   1.0212904241e+02   7.1297728464e+00    0.4078467    0.1858405  54.58  0.001684042    2.779    0.640
        52 -14.0026    248.7757    148.6656   6.7934721817e+01   1.7610635963e+00    0.7503647    0.1707516 -41.10  0.002242377    4.417    0.774
        53 -11.0951     25.1071    146.9756   1.1980596378e+02   4.1326370413e+01    0.2978646    0.1131944  54.59  0.001245888    3.107    0.678
        54  99.0000    105.5242    225.5247   1.1076747315e+02   1.3833360984e+01    0.1228926    0.1075127  48.33 0.0005268125    1.129    0.115
        55 -11.3120      2.6740    201.9896   1.2878347462e+02   3.1156632855e+01    0.2588517    0.1638765 -65.02  0.001769889    1.707    0.414
        56 -15.9224     77.9139    171.1945   1.0989605020e+02   2.9403529990e+01     1.386589      0.70953  35.16  0.006382624    2.051    0.512
        57 -11.5955      2.6901    193.4359   1.2832432377e+02   3.2909655243e+01     0.266273    0.1659401 -47.99  0.001665122    2.353    0.575
        58 -14.0542    249.0738    128.1434   6.3313814302e+01   5.0004260644e+00    0.4778615    0.2933042 -36.98  0.002392119    1.443    0.307
        59 -12.4636    138.9429    222.7875   1.0367282170e+02   8.9603089372e+00    0.2640481    0.2473803 -42.14 0.0008297646    1.264    0.209
        60 -14.2735     50.2572    122.4578   1.0959860981e+02   4.4728578694e+01    0.4558849    0.3749141  26.36  0.001784649    1.437    0.304
        61 -11.5637    139.3357    193.0721   9.9075834990e+01   1.4453661361e+01    0.2283593    0.1793121  32.45 0.0005420346    1.249    0.199
        62 -10.6530    141.1314    251.0000   1.0686369107e+02   4.0081631138e+00    0.2050044   0.05522222  39.88 0.0003719262    2.929    0.659
        63 -14.0371    248.4543    115.2226   6.0452963663e+01   7.2176043211e+00    0.5749201    0.2882678 -46.98  0.002484743    2.072    0.517
        64 -11.3631    145.7830    116.1386   8.1178129137e+01   2.9734807497e+01    0.2220514    0.2099396 -74.76 0.0002980958    1.130    0.115
        65 -13.6497     58.3485    114.3459   1.0567690395e+02   4.5755292127e+01     0.437273     0.314812  65.69  0.002268709    1.679    0.404
        66 -14.1243     63.0491    109.1202   1.0314759173e+02   4.6429272647e+01     0.581558    0.3755635 -20.87  0.002648549    2.234    0.552
        67 -13.2971    175.9567    183.5378   8.9366118445e+01   9.4697805311e+00    0.2960091    0.2102625 -59.29 0.0004183922    1.831    0.454
        68 -13.0253    164.3275    182.6514   9.1709201755e+01   1.1854542362e+01     0.243717    0.2293045 -48.48 0.0004707083    1.169    0.145
        69 -13.3823    249.8345    100.3187   5.6791102617e+01   9.3502028619e+00    0.3943957    0.1665773 -31.80  0.001587349    2.199    0.545
        70 -12.6404    154.9473    181.6126   9.3584790266e+01   1.3844520598e+01     0.222425    0.1973296 -21.46 0.0005293649    1.229    0.186
        71 -11.7574      1.7450    105.0607   1.2133659244e+02   5.2873591338e+01    0.2255584    0.1184916 -58.12  0.001285707    1.509    0.337
        72 -12.2364    134.3562    221.7137   1.0445808096e+02   9.9115955171e+00    0.3802707    0.2062955  37.12  0.001590096    1.646    0.393
        73 -11.5644    102.2947    100.2986   8.8862208501e+01   4.2293735999e+01    0.1519386    0.1180154 -13.91 0.0001827384    1.568    0.362
        74 -11.3006     13.4826    181.4779   1.2544965100e+02   3.4515505513e+01    0.1164559   0.08988948  86.54 0.0007472453    1.044    0.042
        75  99.0000      4.8849    177.9843   1.2697494883e+02   3.6006059926e+01    0.2436368    0.1870134 -45.79   0.00169591    1.799    0.444
        76 -14.2782    248.8682     85.6065   5.3480639740e+01   1.1876383259e+01    0.6934311    0.2454599 -33.92  0.002618363    2.519    0.603
        77 -11.9822     89.5982     85.5798   8.8621479410e+01   4.7892362860e+01    0.3100088    0.2124683 -43.62  0.001312604    1.359    0.264
        78 -12.1504     15.1027     88.3410   1.1468828001e+02   5.5998100432e+01    0.2370829    0.1313141 -56.72  0.001318235    1.391    0.281
        79 -14.9122     43.4860     82.2314   1.0350363720e+02   5.5064926257e+01    0.8283168    0.3715695  39.97  0.003671342    2.688    0.628
        80 -10.9333     56.3410     74.2845   9.6737916403e+01   5.5384128698e+01    0.1410895   0.09563819 -22.87 0.0004373748    1.636    0.389
        81 -13.9769     36.9771     72.1254   1.0334718090e+02   5.7992442163e+01    0.3547326    0.2526062 -17.15  0.001145424    1.556    0.357
        82 -14.0923     23.7557     66.2431   1.0693528071e+02   6.0415118835e+01    0.3790041    0.2920363 -26.05   0.00243091    1.286    0.222
        83 -11.8672    143.6473    246.9912   1.0590711387e+02   4.2261201583e+00    0.1599683    0.1355719  52.10 0.0004331138    1.142    0.124
        84 -11.3193     99.3197     61.6682   7.7767371388e+01   5.0966406704e+01    0.2258232    0.1843925 -78.28  0.001108994    1.781    0.439
        85 -11.9627      3.0872    174.0887   1.2709332147e+02   3.6996654499e+01     0.226062    0.1827343  26.32  0.001653277    1.671    0.401
        86 -12.9906      3.4937     58.8285   1.1325358271e+02   6.3256372773e+01    0.3297576     0.180595 -88.29   0.00165285    2.628    0.619
        87 -11.9478     55.5000     45.9769   8.7717302729e+01   6.1258616427e+01    0.2498654    0.1900487  21.29  0.000690585    1.362    0.266
        88 -12.6865    125.9882     40.1195   6.2432207274e+01   4.8640959725e+01    0.5179343    0.2691124  45.06  0.001905505    1.832    0.454
        89 -11.2931     40.4830     36.4720   9.0405785784e+01   6.4871287473e+01    0.1289546    0.1024455 -21.65 0.0001460494    1.017    0.017
        90 -11.7793    239.0021     24.9803   4.0347609192e+01   2.2598554833e+01    0.1571786    0.1338733 -67.95 0.0003316053    1.012    0.012
        91 -11.4258    133.3177     24.3068   5.5028544737e+01   4.8895783717e+01    0.1504108   0.09902413  31.11 0.0003162166    1.632    0.387
        92 -13.0716    145.0685     16.4060   4.9973597361e+01   4.6824054719e+01    0.2532675    0.2072904 -35.07  0.000669849    1.328    0.247
        93 -11.6031    151.2712    247.6837   1.0455274348e+02   2.9232336913e+00    0.1447867    0.1244162 -56.67 0.0003626044    1.480    0.324
        94 -11.9690    147.7913    246.7625   1.0509468289e+02   3.6096501453e+00    0.2626128     0.136678  49.15 0.0008990858    1.740    0.425
        95 -11.7847    132.2380    246.6700   1.0802598446e+02   6.0575907701e+00    0.2203293    0.1459363 -78.54  0.001270597    2.196    0.545
        96 -12.3799    144.4556    239.3228   1.0478872203e+02   5.2960435060e+00    0.2674338    0.1898023  45.98  0.001426998    1.182    0.154
        97  99.0000    137.6042    243.5200   1.0663121982e+02   5.7175264677e+00    0.2000992      0.17806  85.01 0.0009828962    1.323    0.244
        98 -13.1023    165.6803    177.8185   9.0482400306e+01   1.2532187101e+01    0.3344723    0.1942108  42.80  0.001502763    1.626    0.385
        99 -13.1005    155.8075    176.0524   9.2337121383e+01   1.4793329083e+01    0.3305738     0.265637  64.21 0.0005393202    1.432    0.302
       100 -12.1222    140.5273    242.1285   1.0590045370e+02   5.4763849880e+00    0.1893856    0.1605251  68.93  0.001278129    1.308    0.235
