#   1 NUMBER                 Running object number                                     
#   2 MAG_AUTO               Kron-like elliptical aperture magnitude                    [mag]
#   3 X_IMAGE                Object position along x                                    [pixel]
#   4 Y_IMAGE                Object position along y                                    [pixel]
#   5 X_WORLD                Barycenter position along world x axis                     [deg]
#   6 Y_WORLD                Barycenter position along world y axis                     [deg]
#   7 A_WORLD                Profile RMS along major axis (world units)                 [deg]
#   8 B_WORLD                Profile RMS along minor axis (world units)                 [deg]
#   9 THETA_WORLD            Position angle (CCW/world-x)                               [deg]
#  10 FWHM_WORLD             FWHM assuming a gaussian core                              [deg]
#  11 ELONGATION             A_IMAGE/B_IMAGE                                           
#  12 ELLIPTICITY            1 - B_IMAGE/A_IMAGE                                       
         1 -13.2324     37.1371     49.9355   8.6679368675e+01   6.3078774288e+01    0.8998861    0.6998052   7.63  0.005616375    1.240    0.193
         2 -11.7592     59.2395     22.5445   6.6540147437e+01   6.4261219628e+01    0.5258652    0.3506227  32.79  0.002044694    1.336    0.252
         3 -12.0845      8.5200      8.7010   8.4817972057e+01   7.2784206955e+01    0.4391837    0.2248395  28.80  0.002199937    2.021    0.505
         4 -11.4021     12.1394      2.1033   7.9406754014e+01   7.3341797556e+01    0.3082416    0.1762784   9.04  0.001941227    1.638    0.390
         5 -10.1670     14.9906     13.9539   8.3530716934e+01   7.1415664602e+01    0.2274904    0.1645174 -38.00 0.0006336592    1.438    0.305
         6 -10.6181     15.9186      6.6405   7.9524897156e+01   7.2349434153e+01    0.4832957    0.2455866 -40.21   0.00286029    2.006    0.502
         7 -11.9365     21.6931      5.2078   7.5610500082e+01   7.1886061340e+01    0.5213394    0.3571243 -44.45  0.003372481    2.034    0.508
         8 -11.0404     26.4544      2.5713   7.1744184116e+01   7.1612212205e+01     0.269732    0.1801414  36.44  0.001013279    1.584    0.369
         9 -10.9606     11.5129     23.8034   8.9660809470e+01   7.0187481630e+01    0.8226666    0.3247292   7.21  0.003486283    3.714    0.731
        10 -12.0749      4.3526     17.8330   9.1287050534e+01   7.1718582742e+01     0.453659    0.3988395 -38.90  0.002198159    1.408    0.290
        11 -10.9557      9.6425     15.9722   8.7455794790e+01   7.1597812316e+01    0.2657035    0.1587231 -17.77  0.001022633    1.484    0.326
        12 -11.3846     20.2659     17.4529   8.2225457514e+01   7.0365188952e+01    0.3929045    0.2813317   9.73  0.002679605    1.234    0.190
        13 -10.4636     22.5829     13.2501   7.9062899744e+01   7.0717142187e+01    0.1949428    0.1128759 -29.26  0.001187716    1.556    0.357
        14 -12.4621    129.2317     19.1501   4.5866782154e+01   4.9990342943e+01    0.2603525    0.2466259   2.23 0.0004378762    1.206    0.170
        15 -12.3866    128.7260     11.5605   4.3526119894e+01   5.0861851638e+01    0.3787198    0.2730919  83.49  0.002166546    1.430    0.301
        16 -11.8116    238.1418     17.9964   3.2376923785e+01   2.5301744146e+01    0.2378514    0.1824749 -60.62 0.0002640008    1.099    0.090
        17 -11.5980    233.7358     11.8317   3.1486160722e+01   2.6901491936e+01    0.4958485    0.1430458 -33.39   0.00210734    3.460    0.711
        18 -11.5065     48.2545     15.5269   6.7882213889e+01   6.6934574497e+01    0.5661275     0.393648  16.10  0.003214192    1.305    0.234
        19 -10.5646     43.5207      8.6626   6.6697975320e+01   6.8481474169e+01    0.2996396    0.2054385 -27.57 0.0009097132    1.523    0.344
        20 -10.9983     39.7221     11.0256   6.9526642828e+01   6.8776403305e+01    0.2273981    0.1920439  -4.67 0.0006289235    1.167    0.143
        21 -11.2821     40.0730     15.5898   7.1513400516e+01   6.8156418650e+01    0.3094161    0.2280596  13.13 0.0007646313    1.156    0.135
        22 -10.9246    157.4251     11.7945   3.9135262761e+01   4.4043860342e+01    0.3033249    0.1847717 -60.73  0.001007956    1.820    0.450
        23 -10.2324     70.5666     13.5074   5.8571808846e+01   6.3275897778e+01    0.2528999    0.1734933  22.74  0.001000186    1.399    0.285
        24 -11.5912     77.5834     11.0975   5.5320824231e+01   6.2157043798e+01    0.5768752    0.2250202  50.55  0.000767609    2.150    0.535
        25 -10.2450    117.9089     12.1445   4.5753711426e+01   5.3320565418e+01    0.4101727    0.2224469 -15.26  0.002012679    2.362    0.577
        26 -10.4013    100.0825     12.3524   4.9729154909e+01   5.7314756351e+01    0.2555425    0.1830743  23.64 0.0008475769    1.494    0.331
        27  -9.9615    138.6870     11.6133   4.1856085927e+01   4.8510084712e+01     0.217133    0.1382146 -51.83  0.001163319    1.786    0.440
        28  -9.5464     65.4437     11.8341   5.9591721657e+01   6.4411412049e+01    0.1585622    0.1061149  -0.22  0.000391349    1.616    0.381
        29 -11.1827    164.1670      8.1542   3.7272930822e+01   4.2801672365e+01    0.3550224    0.2266405 -12.73  0.001126997    2.186    0.542
        30 -11.3971    146.1549      7.2933   3.9430607135e+01   4.7144113224e+01    0.4525344    0.2879457  43.47  0.002259722    1.683    0.406
        31 -10.6331    148.5021      1.9222   3.7556328883e+01   4.7063629736e+01    0.2383453    0.1930683 -63.41 0.0009108774    1.294    0.227
        32 -12.5435    213.6948      5.6358   3.1751116448e+01   3.1786012990e+01    0.7529738    0.3818088 -72.41  0.003981515    1.941    0.485
        33 -11.1170    195.1988      2.6508   3.2653609924e+01   3.6165053984e+01    0.3434753    0.1946046 -80.94  0.001255405    1.681    0.405
        34 -10.4393     90.5145      7.4420   5.0227630785e+01   5.9835408561e+01    0.3202903    0.1694759  57.61  0.001662174    1.658    0.397
        35 -10.7593    230.9026      6.4020   3.0612916991e+01   2.8078032446e+01    0.1904528    0.1257458 -59.03 0.0004962216    1.251    0.201
        36 -11.4806     98.1568      4.4827   4.7237243551e+01   5.8442377720e+01    0.3321851    0.2473889  22.99  0.002045581    1.409    0.290
        37 -12.3185    179.0576      4.3199   3.4603763325e+01   3.9686855490e+01    0.2943195    0.2167528 -88.94 0.0003203603    1.169    0.144
        38  -9.5635    156.4345      6.4559   3.7788514031e+01   4.4787749401e+01    0.1264351    0.1071605  76.93 0.0001489147    1.021    0.021
        39 -10.2892     81.3606      5.3802   5.1847262484e+01   6.1928695005e+01    0.2088773     0.175363 -44.47  0.001171669    1.516    0.340
        40 -11.5029    236.8034      3.8136   2.9701757586e+01   2.7155064121e+01    0.2891467    0.2290645  38.40  0.001951941    2.043    0.510
        41 -11.0638    203.6074      3.4448   3.2103478775e+01   3.4213048835e+01    0.3172109    0.2855569 -39.60  0.002271743    1.365    0.268
        42 -10.4909    126.4415      3.1199   4.1211438556e+01   5.2141578266e+01    0.2623871     0.194919 -10.04 0.0008052039    1.662    0.398
        43 -11.1966    190.7610      6.6167   3.3985421021e+01   3.6775953509e+01    0.3571887    0.3306143 -47.91  0.001886213    1.285    0.221
        44 -10.6755    169.7098      2.7482   3.5208959461e+01   4.2006760995e+01    0.2758981    0.1398279 -60.97  0.001048745    2.191    0.544
        45 -11.8126     67.8546      3.6958   5.5183407147e+01   6.4753454380e+01    0.2095529    0.1708503  33.89 0.0003133428    1.032    0.031
        46 -10.5679    243.0220      2.9669   2.9139779592e+01   2.6006738459e+01    0.1737204    0.1343398 -70.83 0.0005365958    1.050    0.048
        47  -9.1565    118.5507      3.5736   4.2738811747e+01   5.3930335329e+01    0.1279485    0.1041943  54.63 0.0004857759    1.063    0.059
        48 -10.0557     74.3319      2.3965   5.2612182766e+01   6.3604942938e+01    0.2174945     0.170167 -75.10  0.001216822    2.022    0.505
        49 -10.7503    230.7434      1.6672   2.9688139428e+01   2.8611996059e+01     0.179847    0.1288949  76.21 0.0003635377    1.353    0.261
        50 -10.8306    108.1151      1.6221   4.4057113256e+01   5.6463657796e+01    0.2067093    0.1421903  53.89 0.0005096904    1.203    0.169
        51  -9.7654     93.4962      4.5106   4.8344912525e+01   5.9451987480e+01      0.16555    0.1150928   5.32 0.0001967393    1.670    0.401
        52  -9.8654     33.3318      1.4796   6.7766018776e+01   7.0793465754e+01    0.2106939    0.1246123  42.16  0.001024449    1.752    0.429
        53  -9.4246     82.4780      1.4053   4.9904582292e+01   6.2035742412e+01    0.1233202    0.0997695  42.33 7.445672e-05    1.017    0.017
        54 -12.3447     36.2675    165.5892   1.1073380519e+02   3.6072285986e+01    0.8473219     0.482124 -73.67  0.004227377    1.586    0.370
        55 -10.6578    250.1165    246.8580   7.5416686925e+01  -1.1500410277e+01    0.1821409    0.1342661  -3.56  0.001315125    1.019    0.018
        56 -12.4531    226.1848    245.6559   7.9412309759e+01  -8.4791233840e+00    0.6688142    0.3458621  -4.37  0.003183117    2.779    0.640
        57 -10.6768    238.1829    246.4161   7.7399698940e+01  -1.0053498759e+01    0.2222244   0.09670933  34.19 0.0006139828    2.208    0.547
        58 -12.1801    232.6181    244.9481   7.8146720607e+01  -9.1844442934e+00    0.4594752    0.1802935 -30.57  0.002237483    2.598    0.615
        59 -11.3811     89.0475    249.6138   1.0747387038e+02   1.0486092453e+01    0.2951449    0.2205169  37.84 0.0008540684    1.204    0.169
        60 -10.1536     72.6335    250.0042   1.1085935954e+02   1.2645372105e+01    0.2038033    0.1770554 -27.10  0.001356752    1.653    0.395
        61 -12.9352     19.1597    237.9257   1.2056730269e+02   2.1404343898e+01    0.6762177    0.3742459  50.51  0.004167881    1.459    0.315
        62 -12.0504     28.9548    248.1509   1.1929626675e+02   1.8325087539e+01    0.5278004    0.2900614  77.86  0.003149929    1.691    0.409
        63 -11.8374      5.1044    235.9505   1.2312618133e+02   2.3196470068e+01    0.5824844    0.3028247  46.09  0.002984013    1.589    0.371
        64 -13.3211      5.6883    245.2016   1.2345108872e+02   2.1306893725e+01    0.9364151    0.4996584  38.44  0.005017554    1.718    0.418
        65 -12.2236     22.1581    249.0578   1.2062271024e+02   1.8884217453e+01    0.4510247    0.2419699  40.50  0.001466559    1.614    0.380
        66 -11.0253     17.4819    247.4820   1.2140488174e+02   1.9681547456e+01    0.1949186    0.1621412  80.93 0.0006524052    1.196    0.164
        67 -12.6096     49.5539    161.7720   1.0666897985e+02   3.5538799519e+01    0.6440609    0.4435044  36.34  0.001566081    1.514    0.340
        68  -9.6120      4.6825    168.7038   1.1910749664e+02   3.8157151802e+01    0.1201708   0.08279154 -50.62  0.000371598    1.609    0.379
        69  -9.8599     99.1591    164.9138   9.3612609104e+01   2.7605532914e+01    0.2223751     0.193001  75.80 0.0003635175    1.201    0.167
        70 -10.5471     10.2471    162.8366   1.1723222675e+02   3.9137123418e+01     0.309657    0.1515801  37.54 0.0009510675    2.083    0.520
        71  -8.8869    200.3163    162.6495   6.9196631108e+01   9.2553232526e+00    0.1401927    0.1140019 -78.46 0.0007047236    1.732    0.423
        72 -11.5965     19.0226    158.0722   1.1449397703e+02   3.9578235618e+01    0.3518296    0.2165603 -79.64 0.0003645192    1.413    0.292
        73 -12.2139     22.8372    156.8482   1.1334395630e+02   3.9545868210e+01    0.5483965    0.4633301  73.51  0.002750122    1.132    0.117
        74  -9.3669    216.3978    155.2164   6.4608152502e+01   7.7561977665e+00    0.1875401    0.1214105 -48.25 0.0003686506    1.550    0.355
        75  -9.5959    157.5195    154.9816   7.6778933074e+01   1.9044533291e+01    0.2271254    0.1280311 -26.01 0.0008102456    2.675    0.626
        76 -10.1644     11.2286    153.7462   1.1613873211e+02   4.1273858704e+01    0.2247803    0.1832286   2.84  0.001414768    1.600    0.375
        77  -9.9427    177.1678    150.7560   7.1435040235e+01   1.6043595499e+01    0.2405227    0.1951683  67.25  0.001196204    1.504    0.335
        78  -9.3374      5.6013    149.8211   1.1727130809e+02   4.2644935726e+01    0.1607699    0.1010429 -89.24 0.0002231249    1.406    0.289
        79 -10.8221     33.1326    148.1083   1.0944639483e+02   4.0758290426e+01    0.2095835    0.1865493 -75.42 0.0003065548    1.038    0.037
        80 -10.3718     17.5058    147.1259   1.1374273635e+02   4.2407490522e+01    0.2468391    0.1681621 -16.95  0.001330258    2.042    0.510
        81 -10.2435    207.0435    146.5089   6.4491077866e+01   1.1094307996e+01    0.2015193    0.1416577  44.21 0.0005493427    1.538    0.350
        82  -9.3424     41.2047    146.3594   1.0688229979e+02   4.0365874492e+01     0.175933    0.1201961  43.35 0.0002729965    1.537    0.349
        83  -9.9667    220.2874    143.9836   6.1561105711e+01   9.1176162898e+00    0.1998259    0.1623655 -37.27 0.0005688894    1.104    0.094
        84 -10.1366     10.5597    144.3213   1.1537857760e+02   4.3635311319e+01    0.2024356    0.1437142 -28.12   0.00071382    1.784    0.439
        85  -9.7168     82.2240    139.8204   9.3636281749e+01   3.6589635111e+01    0.2072415    0.1717092 -33.52 0.0008505246    1.323    0.244
        86 -10.0737     55.3014    138.6218   1.0148601785e+02   4.0688770669e+01    0.3775137    0.2356358  46.00  0.001807061    1.710    0.415
        87 -10.6579      2.4975    136.7436   1.1687267292e+02   4.6035136597e+01    0.3259735   0.09592708 -71.55  0.001310352    2.615    0.618
        88  -9.7303      9.4957    136.5018   1.1484577697e+02   4.5632713776e+01    0.1287811    0.1067882 -76.86 -0.0002116288    1.000    0.000
        89  -9.6476    123.1303    135.1909   8.1002390336e+01   3.0410381040e+01    0.2147973    0.1852922  83.52 0.0004478134    1.326    0.246
        90  -9.4857     40.0550    135.1921   1.0556171418e+02   4.3305637119e+01    0.1647843    0.1095121  24.62 0.0003458182    1.709    0.415
        91  -9.6306     20.6807    135.2421   1.1141645830e+02   4.5099297837e+01    0.1939702   0.09759712 -63.20 0.0009323264    1.647    0.393
        92 -10.0621    249.2923    133.9772   5.4859064608e+01   5.8283986837e+00     0.191361    0.1448156 -37.40 0.0007837957    1.111    0.100
        93  -9.2270     48.9581    134.3134   1.0268999365e+02   4.2541603919e+01    0.2355247   0.07374401  47.33  0.000704473    4.363    0.771
        94 -10.7037    111.8952    132.6990   8.3519235063e+01   3.3174050215e+01    0.2850106    0.2046333 -42.79   0.00130539    1.413    0.292
        95 -10.9157     55.0124    132.6287   1.0052695614e+02   4.2238466609e+01    0.3440674    0.2292565  51.47  0.001181207    1.668    0.401
        96 -10.1813    127.9944    132.3374   7.9038997558e+01   3.0107287389e+01    0.2099945     0.201683  50.51  0.001102614    1.051    0.048
        97 -11.6044     36.8362    129.4807   1.0565882125e+02   4.5072324060e+01    0.6233556     0.254621 -49.50  0.002562746    2.292    0.564
        98 -11.5525     73.7358    129.3368   9.4084125071e+01   4.0508491125e+01    0.3891199    0.3091199  49.46  0.001226173    1.338    0.252
        99 -10.5959     24.2311    126.0260   1.0908091728e+02   4.7096903230e+01     0.191555    0.1898806 -68.82 0.0004595451    1.154    0.133
       100 -11.7920     13.1171    125.0419   1.1240472975e+02   4.8197269312e+01    0.6168039    0.3148717  44.68 0.0009730809    2.218    0.549
       101 -10.2048      2.8773    122.8436   1.1528104963e+02   4.9391809570e+01    0.1862794    0.1389593 -52.66 0.0003708633    1.248    0.199
       102 -10.6634     72.8435    117.9370   9.1921554496e+01   4.3458202670e+01    0.4619734    0.2690042 -80.09  0.001743712    2.743    0.635
       103 -11.2999     21.5706    121.3271   1.0923889002e+02   4.8478405996e+01    0.3246644    0.2195268 -24.17 0.0008239031    1.794    0.443
       104  -9.7417      1.3882    119.0508   1.1530290749e+02   5.0394289306e+01    0.1884252    0.1009425 -73.94 0.0003203093    1.537    0.350
       105 -10.7949     86.0934    116.5713   8.7401205301e+01   4.1683734875e+01    0.2767104    0.2088718 -48.34 0.0003577177    1.274    0.215
       106  -9.3033     56.2766    117.3170   9.7186613164e+01   4.5904773879e+01     0.145721    0.1010669 -34.26 0.0002385769    1.570    0.363
       107 -10.0625    220.0443    124.4883   5.7413555387e+01   1.2716123711e+01    0.1900852    0.1396064  50.02 0.0004537729    1.519    0.342
       108  -9.9599    213.9748    115.6608   5.6473651906e+01   1.5507908502e+01    0.1853683    0.1773728  58.03 0.0004912985    1.149    0.130
       109 -10.2720     16.6471    115.3428   1.0995221179e+02   5.0323412060e+01     0.249653     0.136176 -22.19  0.001167199    2.481    0.597
       110  -9.0943    185.6781    114.6545   6.1369616069e+01   2.1593403532e+01    0.1512126      0.11852   0.76 0.0007049852    1.734    0.423
       111 -11.1671    249.1989    112.1224   5.0431078961e+01   9.4910450478e+00    0.2478282    0.1971178 -54.51  0.000411074    1.169    0.145
       112 -10.1094     94.8869    112.3577   8.3645663537e+01   4.1155529903e+01    0.2617316    0.2105669 -62.68 0.0008970021    1.304    0.233
       113 -11.7499     55.2882    109.6256   9.5891803391e+01   4.7913059303e+01    0.4773085    0.2512308 -50.72  0.001461838    1.710    0.415
       114 -11.4683     36.6485    109.8465   1.0231242837e+02   4.9959237390e+01    0.3785524    0.2680283  70.14  0.001096504    1.794    0.443
       115 -10.1920      5.6810    106.6449   1.1233921702e+02   5.3137909699e+01    0.2053793    0.1116941 -45.03 0.0007426566    1.694    0.410
       116 -10.4116      1.3253    108.8343   1.1407752760e+02   5.2852767940e+01    0.3061926    0.1445986 -89.57 0.0005336225    2.428    0.588
       117 -10.1580      2.5043    105.4950   1.1324688128e+02   5.3587298510e+01    0.1981592    0.1744519 -51.71 0.0005169608    1.123    0.109
       118 -12.0470     14.6229    109.1560   1.0969851357e+02   5.1970861117e+01    0.4528722    0.3388539  18.64  0.002737728    1.569    0.363
       119  -9.7980     82.5036    108.9648   8.6696121946e+01   4.4093784814e+01    0.2303427    0.1426995 -53.54  0.001023196    1.564    0.361
       120 -10.1887     24.9776    107.3075   1.0586500989e+02   5.1636220692e+01    0.1775283    0.1665652 -62.30 0.0009649277    1.088    0.081
       121 -10.3125    243.8017    104.7965   4.9644333796e+01   1.1670433926e+01    0.1818229    0.1361278 -59.63 0.0005449025    1.311    0.237
       122  -8.9905    186.6230    104.2764   5.8684541449e+01   2.3380650494e+01     0.151506    0.1133473 -83.30 0.0007004677    1.700    0.412
       123 -11.1061    120.5086    100.6329   7.3040026146e+01   3.8772806686e+01    0.7294882    0.3013935 -32.11   0.00207651    4.123    0.757
       124 -10.1778     51.5534    104.3019   9.6005263505e+01   4.9660502098e+01    0.2346684    0.1670086 -12.47  0.001167394    1.728    0.421
       125 -10.8655     13.6109    103.2216   1.0911805092e+02   5.3467583040e+01    0.3388195     0.133513 -34.17  0.001344922    3.192    0.687
       126 -10.6235     36.2293    102.2223   1.0096243687e+02   5.1846250414e+01    0.3356159    0.2319719  22.74  0.001814263    1.613    0.380
       127 -11.0464      4.1027     98.8997   1.1176636759e+02   5.5065932401e+01    0.3411386    0.2465981 -68.98   0.00134128    1.166    0.143
       128  -9.6970      1.2133     96.0200   1.1235707745e+02   5.5891595738e+01    0.1881726    0.1069118 -69.38 0.0004388481    1.455    0.313
       129 -11.4885    143.6506     98.4127   6.6422286129e+01   3.4185758153e+01     0.565294    0.4072104  54.60  0.002499184    1.421    0.296
       130 -10.7934     61.9361     98.8484   9.1094048782e+01   4.9603052434e+01    0.3134435    0.2674043 -27.80 0.0008856242    1.165    0.142
       131 -10.5966     66.5613     98.1182   8.9301399547e+01   4.9115878244e+01    0.2515967    0.2282433 -17.90 0.0005573112    1.104    0.094
       132 -10.2997     50.5694     99.2690   9.5209250338e+01   5.0977869696e+01    0.2106272    0.2079712 -39.01 0.0003194098    1.098    0.089
       133 -11.6008    161.8845     98.1445   6.2161745240e+01   3.0110224265e+01    0.6113347    0.2561457 -41.77   0.00222168    2.350    0.574
       134 -12.6134    158.2823     89.7411   6.0725340112e+01   3.2548656038e+01    0.6787888    0.5445598 -53.27   0.00340839    1.258    0.205
       135 -12.9072    163.8027     83.5131   5.7894175066e+01   3.2421192624e+01      1.82689    0.8235446  49.01  0.007066145    2.229    0.551
       136  -9.5716    250.1653     95.8323   4.6974591368e+01   1.1971788960e+01    0.1614013    0.1424328 -26.49 0.0004339369    1.275    0.216
       137 -10.6065     37.8397     95.1580   9.8886449380e+01   5.3362997462e+01    0.3016841    0.1908084  31.28  0.001003939    1.733    0.423
       138 -11.4992     26.0833     91.3043   1.0242739926e+02   5.5355281670e+01    0.5892478    0.2755137 -71.67  0.002542758    2.389    0.581
       139 -11.2970     21.6347     87.7251   1.0337190012e+02   5.6543996240e+01    0.4697945    0.1940631 -60.15  0.002101061    1.999    0.500
       140 -10.0241     23.8434     99.2252   1.0480701480e+02   5.3671415671e+01    0.2050422    0.1596633  21.66 0.0004247712    1.462    0.316
       141  -9.0603    113.3084     93.3432   7.3046810200e+01   4.1823275114e+01    0.1564253     0.120436  -3.82 0.0003324051    1.695    0.410
       142  -9.6472    109.0000     93.0107   7.4204462043e+01   4.2776862208e+01    0.2577176    0.0854783 -45.47 0.0008121994    3.011    0.668
       143  -9.6018     31.4630     93.0275   1.0078070439e+02   5.4479871779e+01    0.1955711    0.1178858 -61.26 0.0003611739    1.489    0.328
       144  -9.5482    127.6789     92.7084   6.8902902869e+01   3.8890053728e+01    0.1527909    0.1212952   7.87 0.0002913175    1.607    0.378
       145  -9.4334     46.5516     92.5587   9.5083286413e+01   5.3023201379e+01    0.1355524    0.1240987 -45.33 6.951138e-05    1.042    0.040
       146 -11.2020     10.7631     90.5560   1.0801145413e+02   5.6639836728e+01    0.3431288    0.2784742 -56.42 0.0008831635    1.021    0.021
       147 -10.6954     57.6667     90.0974   9.0396488801e+01   5.2199404385e+01    0.4013305    0.2438114  20.42  0.001780411    1.876    0.467
       148 -10.5931     96.6174     89.5350   7.6970851223e+01   4.5952848791e+01    0.3628324    0.2161409  36.40  0.001585676    1.724    0.420
       149 -10.5058     83.0189     88.9280   8.1201948105e+01   4.8557678209e+01    0.2232825     0.202799 -20.01 0.0005675843    1.080    0.074
       150 -10.7646     78.4476     88.0842   8.2505768617e+01   4.9517449904e+01    0.3428794    0.2468729 -50.84  0.001710222    1.382    0.276
       151 -10.4231     65.1043     87.5186   8.7019609775e+01   5.1733957230e+01    0.3020261     0.249046 -37.95  0.001564401    1.135    0.119
       152 -10.0834     68.0504     83.7696   8.4914855760e+01   5.2115240709e+01    0.2434873    0.1665118 -18.77  0.001151447    1.768    0.434
       153 -11.1080     45.7126     86.4830   9.3901650155e+01   5.4511683947e+01    0.5358569     0.378755  88.27  0.002611909    2.162    0.537
       154 -11.6812      5.1869     84.1892   1.0898777017e+02   5.8426707818e+01    0.6021016    0.2165254 -43.45  0.001980881    2.389    0.581
       155  -9.9336    120.8883     85.4335   6.8650809260e+01   4.1830041485e+01    0.4975159   0.09533451 -40.69 0.0009861697    5.718    0.825
       156  -9.3324     51.3668     86.1359   9.1686222256e+01   5.3909468947e+01    0.1828415    0.1256217 -65.41 0.0006479188    1.617    0.381
       157 -10.1466    115.5666     84.0356   6.9717983049e+01   4.3250133129e+01    0.3173281    0.1474021  37.29 0.0008802247    2.421    0.587
       158 -11.5956     30.8319     81.5157   9.8424632034e+01   5.7181298278e+01    0.5795195    0.3175329 -16.40   0.00239314    2.434    0.589
       159 -10.7711     21.8353     73.3420   1.0009105004e+02   5.9768093551e+01    0.3989704       0.1693 -66.74  0.001701131    2.598    0.615
       160 -11.1380     21.6651     80.9922   1.0192444836e+02   5.8079135121e+01    0.5112851    0.2358315 -34.56  0.002325762    2.275    0.561
       161 -10.3065     18.3389     79.3109   1.0287759307e+02   5.8708221339e+01    0.1948427    0.1433785 -55.27 0.0007048856    1.161    0.139
       162 -12.2611     30.8578     63.8495   9.3791355397e+01   6.0999983871e+01       1.0545    0.7237796  67.92  0.005236855    2.679    0.627
       163 -11.5972     44.2038     38.4731   7.9364346720e+01   6.4216329542e+01     0.555481    0.3117802  49.38  0.002635411    2.749    0.636
       164 -10.9291     15.1925     59.5405   9.9461982327e+01   6.3211578683e+01    0.2560177    0.1738703 -28.63  0.000570512    1.324    0.245
       165 -12.7907     11.2765     75.0710   1.0481528950e+02   6.0131660847e+01    0.9125181    0.5505691  -6.11  0.005083437    1.905    0.475
       166 -13.9146     16.6209     67.5689   1.0087843078e+02   6.1414344666e+01     0.564403    0.3736613 -31.30  0.001869557    1.380    0.275
       167 -10.7202     26.7880     56.0873   9.3287352300e+01   6.2964000309e+01    0.2727897    0.1937143 -36.52 0.0004263677    1.195    0.163
       168 -11.7609     35.5240     42.5683   8.4806663128e+01   6.4602701148e+01     0.708886    0.3362109  13.32  0.003111976    2.831    0.647
       169 -12.1196     36.9934    243.9470   1.1748563566e+02   1.8250435096e+01    0.6339181    0.2912012 -86.82  0.002893836    2.314    0.568
       170  -9.7525     86.2355     80.6125   7.7694519524e+01   4.9747229715e+01    0.2088784    0.1353856  28.14 0.0009560342    1.671    0.402
       171 -11.4123     60.9523     78.2069   8.5907386054e+01   5.4359727987e+01    0.5042931    0.3572411 -82.37  0.001967917    2.343    0.573
       172 -11.4858     62.1218     71.6587   8.3508166528e+01   5.5554868485e+01     0.370696    0.2331762 -30.88 0.0003992363    1.652    0.395
       173  -9.3013    134.5924     78.4876   6.3065418438e+01   4.0107130798e+01     0.145485    0.1443007  33.47 1.710893e-05    1.028    0.028
       174 -12.7277     44.5907     75.1953   9.1343530178e+01   5.7135021454e+01     0.314981    0.2591772  44.94 0.0005425297    1.459    0.315
       175 -10.2387     74.3117     75.3781   8.0194314865e+01   5.2884996990e+01    0.3129072    0.1609389 -36.36 0.0007785585    2.051    0.512
       176 -10.6188     77.1482     64.1191   7.5593851601e+01   5.4604456451e+01    0.3748405    0.2701312 -49.15  0.001948496    1.507    0.336
       177 -10.0618     74.0195     71.4916   7.9088750720e+01   5.3716089365e+01    0.2670044    0.1888902 -19.36 0.0007943443    1.601    0.376
       178 -10.7476     77.4077     69.7272   7.7329476641e+01   5.3488485587e+01    0.3595969    0.2934074  70.15  0.001430252    1.694    0.410
       179 -10.6993     48.8096     60.3637   8.5172242134e+01   5.9660555619e+01    0.2071241     0.176608 -46.12 0.0004752575    1.239    0.193
       180 -10.3027     54.1189     74.1761   8.7322445749e+01   5.6158517955e+01    0.2311282    0.1872685 -45.19 0.0004141938    1.177    0.150
       181 -12.1132     50.2158     68.7489   8.7233939161e+01   5.7799273477e+01    0.4180935    0.3060461 -34.29 0.0002967411    1.256    0.204
       182 -10.7764     51.5239     63.0544   8.4936605418e+01   5.8774420530e+01    0.3196818    0.2202455 -35.64  0.001148136    1.344    0.256
       183 -10.9737    207.5426     73.3984   4.7765918940e+01   2.4167406508e+01    0.2264543    0.2235134 -44.26 0.0002015198    1.193    0.162
       184  -9.0958    202.3096     74.6999   4.8847334496e+01   2.5111453959e+01    0.1435856   0.09940011 -70.85 0.0001883016    1.601    0.375
       185 -11.0602     14.7531     97.4533   1.0775689204e+02   5.4764261792e+01    0.4497567    0.1867821 -74.22  0.001393589    2.508    0.601
       186 -10.4339     93.9780     74.0282   7.3147905231e+01   4.9613693130e+01    0.1740921    0.1653469  10.27 0.0003395879    1.011    0.010
       187  -9.3198    121.6268     76.2534   6.5736085842e+01   4.3433325214e+01    0.1487098    0.1166086  81.93 0.0006962273    1.643    0.391
       188 -11.2052      1.8800     71.8099   1.0799713481e+02   6.1370555469e+01    0.7131426    0.1815272 -68.32  0.002610745    3.665    0.727
       189 -11.5050      6.2181     42.1512   9.8804532173e+01   6.7278256406e+01    0.5346767    0.1640868 -45.32  0.001872994    2.381    0.580
       190 -11.7315      6.4038     51.8900   1.0145902921e+02   6.5347769457e+01    0.6749379    0.2412496 -38.88   0.00314183    2.370    0.578
       191 -11.1640     10.1815     63.3548   1.0263802403e+02   6.2744662831e+01     0.329034    0.2852917   8.96  0.001369902    1.303    0.233
       192 -11.4812     12.8618     51.6693   9.8371024018e+01   6.4978464506e+01    0.5292785    0.2311522 -55.62  0.001809143    1.966    0.491
       193 -10.6076     11.2090     44.8752   9.7164499054e+01   6.6427322853e+01    0.3040185    0.2014379 -53.72  0.001375014    1.411    0.291
       194 -12.0252      5.1688     58.8772   1.0378420115e+02   6.3980259736e+01    0.2443096    0.2349336   8.83 0.0003127825    1.286    0.222
       195 -12.1186      6.0985     67.9762   1.0544810004e+02   6.1991095924e+01    0.2386125     0.173908 -44.22 0.0003415769    1.110    0.099
       196 -12.4234      3.2290     62.9956   1.0559006007e+02   6.3213125265e+01    0.4406185     0.304461  88.68  0.001935375    1.962    0.490
       197 -10.8719    100.7980     72.2940   7.0475910919e+01   4.8594736575e+01    0.3773071      0.25849  71.47 0.0006043923    2.250    0.556
       198  -9.7877    128.9960     71.5051   6.2395845684e+01   4.2646913213e+01    0.2286258    0.1411079  49.36 0.0005198544    1.564    0.361
       199  -9.8560    194.5200     70.1159   4.8932565211e+01   2.7603011839e+01    0.2033159    0.1329342 -38.39 0.0008655014    1.515    0.340
       200  -9.5939    167.9296     69.7454   5.3390623215e+01   3.3841307773e+01    0.1965226    0.1731366  67.81  0.000342218    1.103    0.093
       201  -9.7301    123.2510     68.3823   6.2915483640e+01   4.4495621604e+01    0.2696353    0.1252851 -39.67  0.001056619    2.217    0.549
       202 -10.1077     42.7576     68.7102   9.0227798274e+01   5.8721545388e+01    0.2344621     0.205996 -43.58 0.0008827098    1.134    0.119
       203  -9.2887    103.6570     67.7017   6.8157138534e+01   4.8858304332e+01    0.1497193    0.1112707  11.64 0.0004030851    1.670    0.401
       204 -11.3649     93.7152     66.6752   7.0884957203e+01   5.1052806903e+01     0.342466    0.2580616  13.89 0.0007294518    1.532    0.347
       205  -9.5858     99.5651     65.2204   6.8590062304e+01   5.0146308923e+01    0.2093164    0.1774506  28.66  0.001135714    1.156    0.135
       206  -9.6331    127.6567     66.5222   6.1222893736e+01   4.3821852951e+01    0.1894206    0.1398637  62.76 0.0009199631    1.424    0.298
       207 -10.8206    106.6265     62.9043   6.5740486329e+01   4.9085137254e+01    0.3618084     0.179348  39.73  0.001480005    2.061    0.515
       208  -9.6297    201.9545     62.3020   4.5938511919e+01   2.7147161300e+01    0.1876457    0.1642951 -88.29  0.000755507    1.075    0.070
       209 -11.2527     84.7571     60.6972   7.1829800360e+01   5.3852463754e+01    0.5065936    0.3367457  -9.40  0.002333954    2.034    0.508
       210 -10.2689    119.7901     61.1300   6.1555608602e+01   4.6510958141e+01    0.2152961    0.1995613  77.38  0.000896547    1.158    0.136
       211  -8.7674    222.6679     62.3410   4.3230756854e+01   2.2623030654e+01    0.1430316   0.08732717 -66.94 0.0001226615    1.749    0.428
       212 -10.2838    155.0603     60.0558   5.3198379177e+01   3.8461071873e+01    0.2131374    0.1973378  86.29            0    1.042    0.041
       213  -9.4382     98.3606     60.2446   6.7320876932e+01   5.1266017374e+01    0.1823319    0.1320656 -46.09 0.0002499182    1.498    0.332
       214 -10.8651     59.3504     58.7152   8.0397833687e+01   5.8502656026e+01    0.2810222    0.2602587 -32.57  0.001236544    1.167    0.143
       215  -9.9334    147.0157     56.9516   5.3932282424e+01   4.0859498715e+01    0.2117035    0.2002976 -87.83 0.0003774488    1.049    0.047
       216 -10.0460    105.4348     56.5347   6.3991346776e+01   5.0412096936e+01    0.2515956    0.1938279  27.37 0.0005137114    1.355    0.262
       217 -12.1870    104.9683     52.6736   6.2831289704e+01   5.1133700181e+01    0.3540695    0.2443303  45.10 0.0002346932    1.361    0.265
       218 -10.5323     75.3283     56.2919   7.3581825504e+01   5.6344068375e+01     0.220555     0.206304 -11.27 0.0003555355    1.082    0.076
       219  -9.9895     68.4148     56.2597   7.6090660068e+01   5.7528147532e+01    0.1719123    0.1275744 -48.43 0.0002599423    1.495    0.331
       220 -12.0852     26.7964     49.8198   9.1320944503e+01   6.4188860149e+01     0.523968    0.3356831 -50.54  0.002363839    1.489    0.328
       221 -10.1747    131.9458     54.4308   5.6470095018e+01   4.4799880747e+01    0.3794651    0.2387389  29.12  0.001668805    2.097    0.523
       222 -11.3642     62.7693     51.4091   7.6523136064e+01   5.9300298322e+01     0.439362     0.245996 -41.97  0.002163074    1.781    0.439
       223 -10.1876    120.2182     52.3085   5.8625547098e+01   4.7824353705e+01    0.2524392    0.1996428  16.84 0.0006843491    1.483    0.326
       224 -11.5240     88.1839     51.3555   6.7476527076e+01   5.4788931671e+01      0.30358    0.2476162  18.16 0.0006714063    1.223    0.182
       225 -10.0039     56.5759     52.9247   7.9500516289e+01   5.9979082116e+01     0.193915    0.1197488 -37.48 0.0004889712    1.546    0.353
       226 -10.9632     53.5843     49.8960   7.9637031345e+01   6.0956550478e+01    0.2842585    0.1991353  15.94 0.0008834225    1.443    0.307
       227  -9.7312    237.3833     50.8072   3.9110852168e+01   2.1247946893e+01    0.1701326    0.1121516 -31.51 0.0009521717    1.697    0.411
       228 -10.7534    128.4810     50.5138   5.6050999530e+01   4.6198812561e+01    0.3078238     0.282954  54.64  0.001071556    1.018    0.018
       229 -11.0792    129.6912     47.3196   5.4765496609e+01   4.6385388290e+01    0.3002698    0.2696252  40.96  0.001011817    1.098    0.090
       230  -9.6206     70.5006     51.4871   7.3634284460e+01   5.8013395737e+01    0.2339529    0.1230527  49.92  0.001024876    2.309    0.567
       231 -10.4030    199.8926     49.7848   4.3225653259e+01   2.9456410363e+01    0.2271336    0.1753934 -89.79 0.0007495331    1.241    0.194
       232  -9.3930    181.3557     49.6578   4.5813737335e+01   3.3764238994e+01    0.1508102   0.09632056 -71.38 -0.0001541219    1.819    0.450
       233  -9.4618    119.9357     47.0992   5.7003706300e+01   4.8667414518e+01    0.1627163    0.1559258  47.84 0.0009641643    1.033    0.032
       234 -10.3721     77.9956     46.2052   6.9038654864e+01   5.7551802324e+01    0.3262479     0.203271 -54.62  0.001014027    2.293    0.564
       235 -10.4695    143.0611     45.5291   5.1354950084e+01   4.3483801926e+01    0.2813683    0.2077119 -74.64  0.001110513    1.630    0.386
       236 -10.0308    112.8226     45.7223   5.8348625400e+01   5.0470875420e+01    0.5106558    0.2009621  38.15  0.001756367    3.259    0.693
       237 -10.7338     98.7934     39.5440   6.0035163924e+01   5.4403772093e+01    0.4286085    0.1706432  41.17  0.001671763    2.524    0.604
       238 -10.7878     92.0993     43.7158   6.3519466030e+01   5.5194816738e+01    0.3750569    0.2820035 -57.14  0.001650208    1.757    0.431
       239 -10.4438     50.6574     44.8176   7.8997467465e+01   6.2259420541e+01    0.2063956    0.1544472 -54.68 0.0008090223    1.722    0.419
       240 -11.2318     52.8347     40.7199   7.6540895911e+01   6.2628873774e+01    0.3234879    0.2326461  26.20  0.001335533    1.321    0.243
       241 -12.3139     57.3665     34.2118   7.2129621008e+01   6.2949723656e+01    0.3787578     0.314749 -32.10  0.001392034    1.295    0.228
       242  -9.1251    236.2485     43.6519   3.7738254926e+01   2.2459694090e+01    0.1300339   0.07510541 -60.72 0.0003273172    1.583    0.368
       243 -10.2356    107.4940     42.6991   5.8729512986e+01   5.2083090649e+01    0.3346538    0.1975577  35.63  0.001049202    1.794    0.442
       244 -11.4378     66.3301     40.6010   7.1152125853e+01   6.0498928203e+01    0.3734708     0.271509  -3.67  0.001345884    1.471    0.320
       245  -9.5438     62.4349     40.4885   7.2597281250e+01   6.1167198523e+01    0.1833932    0.1152885  27.11 -0.0001076674    1.563    0.360
       246 -10.8665     71.4556     40.9682   6.9400101858e+01   5.9551359330e+01    0.2683899    0.2098617 -16.02  0.001101775    1.273    0.214
       247 -12.0282     73.7488     36.7406   6.6958968878e+01   5.9767572707e+01    0.7189349      0.37162  28.01  0.002217088    2.251    0.556
       248 -10.5768     18.1926     42.3819   9.2959104703e+01   6.6366078660e+01    0.4793772    0.1417114 -41.85  0.001814712    2.807    0.644
       249 -11.1565      8.3591     33.9886   9.5102016822e+01   6.8660991130e+01     0.412672    0.3380753 -39.14  0.002185545    1.188    0.158
       250 -10.9750     24.1211     41.9583   8.9942539049e+01   6.5914997426e+01    0.3848765    0.2912522  25.79  0.002302853    1.457    0.314
       251 -10.6175     22.2202     25.5647   8.4680417034e+01   6.8912623357e+01    0.3267654    0.2511112 -22.59  0.001629451    1.097    0.089
       252 -10.1929     29.9646     33.1548   8.3863138073e+01   6.6848334328e+01    0.3491902     0.231393  -7.02  0.001146044    1.487    0.328
       253 -11.8106     17.7548     31.6706   8.9390995144e+01   6.8325404444e+01    0.5378238    0.4752928 -81.33   0.00368682    1.845    0.458
       254 -12.1501     28.2522     37.9780   8.6527783470e+01   6.6212518217e+01    0.3740815    0.2071456  22.98  0.001213628    1.809    0.447
       255 -11.6542     24.1761     35.1014   8.7441269833e+01   6.7128684214e+01    0.2985432    0.2108308  -9.96 0.0007387465    1.289    0.224
       256 -10.3115    125.4426     42.6285   5.4240756207e+01   4.8035671164e+01    0.2818908    0.1282776  70.51 0.0009508249    3.490    0.713
       257 -10.9498    152.6063     39.1115   4.7655644292e+01   4.2069586882e+01    0.2437385    0.2267901  73.88 0.0004204542    1.035    0.034
       258  -9.8558    142.1802     40.6560   5.0063151047e+01   4.4360426568e+01    0.1955488     0.114189  52.50 0.0002967319    1.579    0.367
       259 -10.9721    224.9571     38.3380   3.7732691303e+01   2.5511084431e+01    0.2816075      0.18772  78.12 0.0005072609    1.449    0.310
       260  -9.7053    116.8999     39.5403   5.5247776474e+01   5.0418720083e+01    0.2104513    0.1264134  55.74 0.0007463566    1.539    0.350
       261 -11.0286     84.0270     35.7193   6.3106143798e+01   5.7957921425e+01    0.7387741    0.3397666  23.83  0.002185695    4.753    0.790
       262 -10.0079     81.5234     34.4200   6.3422921062e+01   5.8626885908e+01    0.4528247    0.2690192  -3.07  0.002026039    2.525    0.604
       263  -9.5699    160.4222     38.4419   4.6122110815e+01   4.0281647464e+01    0.1356068    0.1224055  83.54 6.019273e-05    1.013    0.013
       264 -10.3838     95.8524     42.8872   6.2087438671e+01   5.4544790378e+01    0.2262724    0.1830587  -1.00 0.0006701952    1.341    0.254
       265 -10.4670      1.9731     37.4229   9.9528516654e+01   6.8426467549e+01    0.2343159    0.1405393 -35.24 0.0008982685    1.322    0.244
       266  -9.6824    134.5209     35.5040   5.0011298514e+01   4.6851117341e+01    0.1369845    0.1244904  62.73 0.0001750281    1.003    0.003
       267 -10.1080    107.4522     34.8596   5.6018050993e+01   5.3156475419e+01    0.2336444    0.1624089  38.07 0.0005608638    1.385    0.278
       268 -10.3731     95.5753     34.7866   5.9239292124e+01   5.5730358562e+01    0.2207962    0.2049991 -51.56 0.0007045434    1.275    0.216
       269 -11.1814     97.3521     31.0903   5.7380536161e+01   5.5832254193e+01    0.3963274    0.2605951  55.83  0.002093701    1.469    0.319
       270 -11.3284    101.8208     28.5945   5.5258682477e+01   5.5177298608e+01    0.3781041    0.2854953  75.88 0.0007050483    1.619    0.382
       271  -9.8716    201.9404     34.2590   3.9294292372e+01   3.1082424996e+01    0.1797596    0.1490917  89.55 0.0003642233    1.075    0.070
       272 -11.2421    221.7295     32.1615   3.6723432827e+01   2.6994106877e+01    0.2199464    0.1740322 -71.96  0.000267294    1.055    0.052
       273 -10.1916    205.8522     32.5455   3.8456115041e+01   3.0420348820e+01    0.1897327    0.1662153 -43.39 0.0004600132    1.266    0.210
       274 -10.0862    166.4812     32.9990   4.3660431228e+01   3.9522853709e+01    0.1919575    0.1338112 -31.85  0.001029021    1.592    0.372
       275 -10.2084    245.5459     32.5889   3.4666915240e+01   2.2045353990e+01    0.2713365    0.1077895  78.74 0.0009877152    2.860    0.650
       276  -9.7679    145.6994     31.3897   4.6621918570e+01   4.4699683295e+01     0.239182    0.1521125 -46.42  0.001216858    1.696    0.410
       277  -9.1284     44.4803     31.5053   7.6465655460e+01   6.5287543339e+01    0.2103474    0.1122678  33.53 -2.058906e-05    1.808    0.447
       278 -11.3145     48.0594     31.8969   7.5063062959e+01   6.4718036296e+01    0.2219751    0.1723826   3.02            0    1.155    0.134
       279 -10.4284     50.1584     27.8439   7.2482761476e+01   6.5003449325e+01    0.2490157    0.1735793  12.40 0.0008780864    1.385    0.278
       280 -10.5777    236.1873     30.3334   3.5009577253e+01   2.4205114805e+01    0.2157955    0.1932975  67.16 0.0007983705    1.388    0.280
       281 -11.1906     69.7230     26.8199   6.4438886175e+01   6.1864730644e+01    0.3922007    0.2931895  21.87  0.001683391    1.238    0.192
       282 -10.0039    133.0239     27.5588   4.7813783883e+01   4.8170260175e+01    0.3171434    0.1953934 -77.80  0.001423526    2.409    0.585
       283 -10.8345    128.0322     26.8229   4.8571967919e+01   4.9430442750e+01    0.3747324    0.2162066  61.09  0.001004545    1.552    0.356
       284  -9.8326    111.5550     27.9564   5.2586674525e+01   5.3094586609e+01    0.1840105    0.1328789 -25.00 0.0003486499    1.544    0.352
       285 -10.2362     60.2249     27.0342   6.8057662233e+01   6.3503484751e+01    0.1900108    0.1556467 -30.88            0    1.340    0.254
       286 -12.9838     75.2429    238.9474   1.0930145329e+02   1.4460050207e+01    0.7336083    0.5634606 -71.40  0.004637712    1.410    0.291
       287  -9.9491    203.9914     25.9750   3.7146941778e+01   3.1646248521e+01    0.2131176    0.1252426 -65.14 0.0007249599    1.680    0.405
       288 -10.5253    169.0136     26.0185   4.1409937065e+01   3.9757973754e+01     0.195689    0.1715895  85.68            0    1.006    0.006
       289 -11.7380    164.9637     23.1269   4.1200367007e+01   4.1053370272e+01    0.2616343    0.2068556  68.37            0    1.136    0.120
       290  -9.8743    119.0588     25.6935   5.0093144860e+01   5.1646122437e+01    0.1852946    0.1489308  50.61 0.0003648863    1.107    0.097
       291 -10.7412    243.9263    237.3510   7.4934898924e+01  -9.5437992505e+00    0.1889777    0.1432518 -28.35 0.0008390528    1.358    0.264
       292 -10.5745      1.4772     25.9430   9.6014305555e+01   7.0542427361e+01    0.2493566    0.1068172 -42.64 0.0003829089    1.793    0.442
       293 -10.8373     31.9009     17.1424   7.6108100179e+01   6.9056650690e+01    0.4598789    0.1881517  22.26   0.00201327    3.047    0.672
       294 -10.7081     29.9506    233.0054   1.1814845718e+02   2.1260523356e+01    0.2759817    0.1588021  64.49  0.001620149    1.501    0.334
       295 -10.9765     25.1329     20.2803   8.0926062156e+01   6.9416967646e+01    0.2591182    0.1958312  -5.60 0.0007233841    1.081    0.075
       296 -10.0428    159.7379    235.9887   9.0907866098e+01   2.4187115743e+00    0.1519444    0.1130771 -43.64 0.0005476187    1.514    0.339
       297  -9.7116    177.3272    235.3264   8.7177575836e+01  -1.4520188487e-01    0.1331246   0.09102049   0.12 0.0007050073    1.699    0.411
       298  -9.9345    195.4173    238.7109   8.4098387681e+01  -3.3367527190e+00    0.2232121    0.1363263  13.10  0.001192688    1.735    0.424
       299 -10.0946     38.2328    232.8085   1.1646249804e+02   2.0371282816e+01    0.1783642     0.131042  67.70 0.0005819539    1.121    0.108
       300 -10.0761     23.9877    232.5028   1.1930302356e+02   2.2007221130e+01    0.1977815    0.1437378 -68.02 0.0006856812    1.505    0.336
       301 -10.3560    109.4710    242.7915   1.0246716963e+02   8.8383287712e+00    0.2463543    0.1607704  55.43 0.0006561927    1.519    0.341
       302 -11.7317     74.4806    233.4974   1.0893053907e+02   1.5668198836e+01    0.2866101    0.1924528  43.05 0.0009512054    1.292    0.226
       303  -9.5087    170.0051    229.0222   8.7700562401e+01   2.0401364305e+00    0.1565051    0.1406675   7.68 0.0005457118    1.059    0.056
       304 -10.7168    120.6339    226.5175   9.7994031505e+01   1.0289231812e+01    0.2124763    0.1295195 -57.93 0.0008663046    1.853    0.460
       305  -9.4406    214.2395     25.6112   3.6026910798e+01   2.9422449134e+01     0.165799    0.1033761  64.62 0.0006952446    1.591    0.371
       306  -9.3798     79.3060     24.9479   6.0436927028e+01   6.0287251194e+01    0.1982355   0.08761401 -49.43 0.0003337866    4.322    0.769
       307 -10.8992     89.2149     20.8386   5.5810570293e+01   5.8764154364e+01    0.2745547    0.1704614  35.48 0.0009438496    1.523    0.343
       308 -10.1277    106.4516     22.4982   5.1891434751e+01   5.4861845847e+01    0.2077433    0.1570098 -55.93 0.0005955606    1.665    0.399
       309 -10.5953     97.7740     23.6482   5.4516950738e+01   5.6634650530e+01     0.524204     0.169773  52.44  0.002056081    2.594    0.614
       310 -10.7651     94.0825     22.5070   5.5087165558e+01   5.7553625879e+01    0.3025312    0.2162895  38.09  0.001313641    1.263    0.208
       311  -9.6627     98.7155     20.6746   5.3164954110e+01   5.6762380339e+01    0.2037359    0.1935905  60.98 0.0003985937    1.154    0.133
       312 -10.8768    103.3173     19.4257   5.1546650544e+01   5.5889447644e+01    0.2763402    0.2356162  65.53  0.001089943    1.194    0.162
       313 -11.4635    108.4197     17.5937   4.9677553773e+01   5.4944149156e+01    0.3098629    0.2080425  40.19  0.001039202    1.402    0.287
       314 -10.3010    186.2216     22.9860   3.8418297588e+01   3.6058542734e+01    0.2182681    0.1644619  82.82 0.0005039488    1.175    0.149
       315 -10.4645     68.0589     21.8532   6.2973680096e+01   6.2793096273e+01    0.3757618    0.1665684  51.26  0.001387841    2.342    0.573
       316  -9.9055    226.3142     22.1268   3.4174180279e+01   2.7252614246e+01    0.1895008    0.1433408  73.61 0.0005727107    1.325    0.245
       317 -10.1164     65.9944    226.2428   1.1004930902e+02   1.8321335431e+01    0.2063632    0.1718776 -85.57 0.0006666598    1.198    0.165
       318 -11.1441      4.6210    226.5408   1.2275418429e+02   2.5166643075e+01    0.3049583    0.1473337  53.70  0.001776709    1.680    0.405
       319  -9.5069    190.4947    226.4763   8.3100117572e+01  -6.6502567132e-01     0.131054    0.1098026   7.75 -6.330957e-06    1.041    0.039
       320 -11.4038     21.1505    222.2400   1.1922192284e+02   2.4460745278e+01    0.2748806    0.1790458  82.84  0.001041953    1.322    0.244
       321  -9.9568    126.6372    221.8497   9.6007981855e+01   1.0269904224e+01    0.2417842    0.1774093 -89.62 0.0008739813    1.858    0.462
       322 -10.1041    123.6916    221.6816   9.6643385996e+01   1.0772479446e+01    0.2180336    0.1873699  -0.79   0.00112451    1.359    0.264
       323  -9.8038    142.6420    220.7039   9.2282131540e+01   7.9204306482e+00    0.1384184    0.1023057   1.27 0.0007033246    1.701    0.412
       324 -11.1424     41.9836     19.2412   7.2311633246e+01   6.7402733203e+01    0.3235489    0.1909256  31.87  0.001334133    1.555    0.357
       325  -9.9413     37.9817    217.6888   1.1536010273e+02   2.3625804942e+01    0.1745055    0.1407843  54.60 0.0007442811    1.133    0.117
       326  -9.4457    181.5135     19.5093   3.8111408338e+01   3.7548739174e+01     0.127801    0.1110412  81.80 0.0008093752    1.074    0.069
       327 -10.5994     89.6636     31.7926   5.9868642890e+01   5.7350647474e+01    0.2317673    0.1879372  44.96 0.0005998102    1.145    0.126
       328  -9.2473    151.3301     18.6448   4.1951268602e+01   4.4796786243e+01    0.1396186   0.09072215 -69.84 0.0007045164    1.782    0.439
       329 -11.5935      9.8441    217.2403   1.2121639578e+02   2.6645046502e+01    0.3142819    0.1946251  60.58  0.001876861    1.339    0.253
       330 -10.6046     74.6885     16.0065   5.8276528348e+01   6.2216979175e+01    0.5227294    0.1586516  50.96  0.002069565    2.897    0.655
       331 -11.2858     29.8778    215.8841   1.1695732731e+02   2.4919441604e+01    0.3427748    0.2654083  19.92  0.001881617    1.680    0.405
       332 -11.9409    237.8064    212.9971   7.1855963384e+01  -5.3099011817e+00    0.5752933    0.3565495   2.20  0.002266384    1.793    0.442
       333  -9.9363     61.8291     14.6684   6.2134101108e+01   6.4757652650e+01    0.2058068    0.1314578  29.89 0.0009478875    1.401    0.286
       334  -9.5444    137.6371    215.6797   9.2626995364e+01   9.7227640084e+00    0.1420876    0.1050542  -2.60 0.0007041327    1.776    0.437
       335  -9.7887     26.0778     14.4243   7.7783115481e+01   7.0149064505e+01    0.1517081   0.09577274  17.90 6.822588e-06    1.434    0.303
       336 -10.4678     88.8297    241.3076   1.0667364567e+02   1.2110540899e+01    0.2228839    0.1551686 -34.81  0.001219704    2.112    0.527
       337  -9.3069     96.5324     13.5090   5.1035780775e+01   5.7976427008e+01    0.1303508    0.1079391  39.92 0.0001149059    1.056    0.053
       338  -9.9864     30.9649     12.8735   7.4578767984e+01   6.9751629086e+01    0.1776227    0.1250067   0.97 0.0005333677    1.244    0.196
       339 -10.2243     21.7441    212.7045   1.1845899455e+02   2.6470084722e+01    0.3113189    0.1161817  51.62  0.001447136    2.356    0.575
       340  -9.8936    208.8563    211.9336   7.6995760070e+01  -1.0256111226e+00    0.2009755    0.1523363  -5.13 0.0005497547    1.266    0.210
       341  -9.4815     76.3206    212.3111   1.0625494057e+02   1.9940979585e+01    0.1258864    0.1047477 -23.22 0.0003805521    1.648    0.393
       342 -10.2564      1.5182    211.5204   1.2258413605e+02   2.8633158952e+01    0.2016122     0.153415  89.43  0.001076498    1.128    0.114
       343 -11.6923      5.5930    208.7536   1.2159464741e+02   2.8877700398e+01    0.4977137    0.1984598 -82.27  0.002457516    2.209    0.547
       344 -11.0923      2.5007    205.4937   1.2204915661e+02   2.9865114223e+01    0.2318767    0.1316498 -89.01 0.0009555051    1.476    0.322
       345 -10.2039    108.4830    210.4698   9.8537632018e+01   1.5525362960e+01    0.1394469     0.124666  53.94 0.0003566766    1.034    0.033
       346 -10.5346     10.8801    208.3390   1.2046609254e+02   2.8488606485e+01    0.2089839    0.1647216 -73.81 0.0005342148    1.296    0.229
       347  -9.2503    188.2574    205.3345   7.9922188800e+01   3.3346378990e+00    0.1360077   0.09732632  -9.45 0.0003387724    1.571    0.363
       348 -11.1612     20.4169    199.2939   1.1777699969e+02   2.9614347134e+01    0.4926774    0.2436862 -68.47  0.002579362    1.835    0.455
       349 -10.3200    175.4415    202.7852   8.2150688196e+01   5.9227927427e+00    0.2410564    0.1813799  34.78 0.0005233475    1.267    0.211
       350 -10.1496     23.6962    216.3283   1.1829841339e+02   2.5475242564e+01     0.201139    0.1476422  -7.58  0.001159495    2.351    0.575
       351  -9.4507    215.6646    194.6698   7.2551556890e+01   8.3549663288e-01    0.1399343   0.09390032  -4.66 0.0007052107    1.729    0.422
       352 -10.8690     16.8208    193.3791   1.1813999419e+02   3.1318442763e+01    0.2868171    0.2242354  20.58   0.00158219    1.625    0.385
       353  -9.4836      1.9905    187.9813   1.2110012598e+02   3.3850975276e+01    0.1485181    0.1171729  82.83 0.0006251601    1.001    0.001
       354 -11.2551     16.5237    184.6402   1.1752915062e+02   3.3385882994e+01    0.4264371    0.1935907 -78.59  0.001830652    1.937    0.484
       355 -10.0469     14.7062    180.6551   1.1763796176e+02   3.4490603665e+01    0.2159453    0.1661981 -48.92 0.0007337711    1.534    0.348
       356 -10.1138    168.4892    184.2293   8.0228911838e+01   1.0773421810e+01    0.3381187    0.2172179  70.47  0.001304146    3.046    0.672
       357  -9.9956     58.9471    182.2951   1.0685901927e+02   2.9298178719e+01    0.1935234     0.174063  61.70  0.001158015    1.080    0.074
       358  -9.3348      1.5433    180.5258   1.2070991606e+02   3.5610490779e+01    0.1224677   0.09715426  86.00 0.0001942501    1.006    0.006
       359  -9.9115    244.4657    178.4776   6.4374217543e+01  -8.2784954551e-01    0.2328207    0.1027102 -29.98  0.001022823    2.289    0.563
       360 -10.7922     46.4967    177.7694   1.0948750430e+02   3.1933233331e+01    0.3190538    0.2440718 -79.15  0.001278412    1.193    0.161
       361  -9.6638     69.5837    178.2124   1.0358375824e+02   2.8870941217e+01    0.1902451    0.1224429 -54.04 0.0005483429    1.580    0.367
       362  -9.3132    200.6839    176.3371   7.1908143477e+01   6.5919912589e+00    0.1337907     0.113389 -82.89 0.0005361803    1.698    0.411
       363 -10.9430     34.1697    174.1009   1.1222587590e+02   3.4196352704e+01    0.2603653    0.1887436 -62.24 0.0004874775    1.331    0.248
       364 -10.8108     18.1912    173.1786   1.1615480926e+02   3.5968555743e+01    0.3585762    0.1945327  63.06  0.001819439    1.869    0.465
