#   1 NUMBER                 Running object number                                     
#   2 MAG_AUTO               Kron-like elliptical aperture magnitude                    [mag]
#   3 X_IMAGE                Object position along x                                    [pixel]
#   4 Y_IMAGE                Object position along y                                    [pixel]
#   5 X_WORLD                Barycenter position along world x axis                     [deg]
#   6 Y_WORLD                Barycenter position along world y axis                     [deg]
#   7 A_WORLD                Profile RMS along major axis (world units)                 [deg]
#   8 B_WORLD                Profile RMS along minor axis (world units)                 [deg]
#   9 THETA_WORLD            Position angle (CCW/world-x)                               [deg]
#  10 FWHM_WORLD             FWHM assuming a gaussian core                              [deg]
#  11 ELONGATION             A_IMAGE/B_IMAGE                                           
#  12 ELLIPTICITY            1 - B_IMAGE/A_IMAGE                                       
         1 -14.4937    219.7234      5.3630   3.9496949788e+01   2.9023840034e+01     2.777588     1.622234  52.35  0.008200652    1.904    0.475
         2 -13.9839    178.9919     49.0834   5.6848697921e+01   3.4041173169e+01     1.857499     1.346174  35.08  0.004271563    1.585    0.369
         3 -13.9736    191.9342     37.4324   5.1332113345e+01   3.2295590013e+01     1.059774     0.924276 -80.67  0.003564875    1.126    0.112
         4 -14.1671    198.2185     30.4337   4.8466102110e+01   3.1572449563e+01     1.164292     1.035773  -3.71  0.001466999    1.328    0.247
         5 -11.2588    189.8291     14.8339   4.5103428830e+01   3.5543682555e+01    0.3056408    0.2421773 -43.56 0.0008141362    1.281    0.219
         6 -10.5544     53.9154    231.5272   1.2266676824e+02   2.0702816100e+01    0.2050564    0.1288057  85.64  0.001351944    1.437    0.304
         7 -16.8799     69.6507    146.1242   1.0998322701e+02   3.6833349523e+01     14.27552     6.792661  78.18   0.03211753    5.570    0.820
         8 -11.8807     38.4017    212.1486   1.2408409079e+02   2.6255323877e+01    0.2300971    0.1227416  52.95 0.0007052526    1.539    0.350
         9  -9.3247     43.1333    207.8210   1.2286965706e+02   2.6565456345e+01    0.4585284    0.2284864 -86.60  0.002542734    1.915    0.478
        10 -11.8445     67.2664    206.6097   1.1804944570e+02   2.3758858154e+01    0.3248417    0.2832166  20.28  0.002172729    1.662    0.398
        11  -9.9935     72.8336    204.2352   1.1669216237e+02   2.3475273034e+01    0.3615783    0.2554667  77.26  0.002225321    1.281    0.219
        12 -11.6258     33.2196    207.0339   1.2468858853e+02   2.7854436743e+01    0.4191706    0.1413015  58.10  0.001446792    2.765    0.638
        13 -12.2571    196.4112    198.0906   9.0317217798e+01   3.4835870491e+00     1.249797     1.052124  81.02   0.00713096    1.775    0.437
        14 -11.2046    207.4975    193.9103   8.7400851046e+01   2.1288476385e+00    0.3893202    0.1302829 -37.35   0.00147236    3.219    0.689
        15 -11.0264     97.7296    200.6036   1.1113216009e+02   2.0518437805e+01    0.3591717     0.297542   1.85 0.0009345291    1.889    0.471
        16  -9.5616     87.6419    202.7960   1.1350005120e+02   2.1624777599e+01    0.2044383    0.1673884  15.12 0.0009321233    1.798    0.444
        17 -17.9158     25.5860    243.7287   1.2820591852e+02   2.1833269103e+01     6.588351     3.635056  41.76   0.04551778    1.723    0.420
        18 -11.6641    152.2899    197.3531   9.9136829630e+01   1.1745167250e+01    0.3673981    0.2734512 -55.83  0.002023659    1.545    0.353
        19  -9.7716     44.1583    198.1812   1.2189076226e+02   2.8409646045e+01    0.1572095    0.1336496  84.73 0.0003019785    1.172    0.147
        20 -11.0974     35.1022    197.4659   1.2362149879e+02   2.9591929045e+01    0.1940032    0.1226688  55.31 0.0004970886    1.359    0.264
        21 -12.3692     30.5318    197.5543   1.2451969537e+02   3.0071882613e+01    0.1982878    0.1499443  73.44  0.000510057    1.040    0.038
        22 -10.0544     82.2820    195.0633   1.1371855575e+02   2.4011247037e+01    0.2467575    0.1674405  53.23  0.001219551    1.299    0.230
        23 -13.2094     66.3753    187.6405   1.1626605574e+02   2.7835345111e+01    0.7124187    0.6495265 -56.15  0.003432967    1.402    0.287
        24 -11.1269     97.0034    191.1226   1.1005996075e+02   2.2582496369e+01    0.2881883    0.2753659 -80.08  0.001124062    1.215    0.177
        25  -9.9967     72.9863    217.9249   1.1800859043e+02   2.0748314778e+01    0.1781579    0.1350794  69.73 0.0004176236    1.073    0.068
        26  -9.2623     47.4807    191.5797   1.2063993557e+02   2.9399004899e+01    0.1286548   0.08962169  71.30 0.0001728833    1.206    0.171
        27  -9.5568     50.0639    216.7883   1.2225856379e+02   2.3961532658e+01    0.2924256    0.2230279  -0.33  0.001720318    2.827    0.646
        28  -9.8979     55.0463    210.3938   1.2079228634e+02   2.4597818556e+01    0.5219326    0.2702239  72.59  0.002811403    1.936    0.483
        29 -12.2275    146.4057    183.1269   9.7972655892e+01   1.5547435623e+01    0.5411187    0.3371474  65.85  0.001854359    2.166    0.538
        30 -10.2373    153.9870    185.4261   9.6736281833e+01   1.3662919335e+01    0.2602429    0.2016032 -75.06  0.001355742    1.649    0.393
        31 -11.0199     99.4749    180.7547   1.0806481717e+02   2.4390185320e+01    0.2641552    0.2239114  46.41  0.000521443    1.184    0.155
        32 -10.5078    204.4692    176.3912   8.4565079752e+01   5.5135187627e+00    0.3875946    0.2739994 -48.20  0.001712282    1.677    0.404
        33  -9.5411    197.6478    177.1306   8.6061892938e+01   6.7048913136e+00    0.2422488    0.1846372  47.00  0.001162239    1.337    0.252
        34  -9.7244     59.3117    176.9066   1.1660694135e+02   3.1117395316e+01    0.1706027    0.1385513 -77.98 0.0004539922    1.160    0.138
        35  -9.4129     57.0214    192.9935   1.1880246015e+02   2.7920181972e+01    0.1531329    0.1398311 -56.80  0.001048407    1.454    0.312
        36 -10.0218     47.6855    173.6650   1.1883939145e+02   3.3274646477e+01    0.2401084    0.1597875 -59.32  0.001181702    1.567    0.362
        37 -11.4321     42.9652    172.3031   1.1974619813e+02   3.4125291451e+01    0.5506632    0.2338077  57.10  0.001934062    2.431    0.589
        38  -9.5847     62.3511    172.7133   1.1543150447e+02   3.1659189940e+01    0.1914204    0.1652111   2.58  0.001166672    1.728    0.421
        39  -9.5486    185.6640    169.2966   8.6905350094e+01   1.0456714786e+01    0.1407174    0.1160439  79.71  0.000703056    1.650    0.394
        40 -10.6928    230.2759    166.2817   7.7604383062e+01   2.2631617619e+00    0.2659342    0.1551619 -51.64 0.0009298522    2.475    0.596
        41  -9.8715    161.7804    166.1877   9.1386013274e+01   1.5886406813e+01    0.2150327    0.1964206  78.41 0.0006128729    1.215    0.177
        42 -13.4046     56.2482    201.0947   1.1973194801e+02   2.6327788108e+01    0.4155957    0.3223642 -70.88  0.001538162    1.358    0.264
        43 -10.4121    236.8653    158.1663   7.4698865768e+01   2.3094541485e+00    0.1941613    0.1485203   1.24 0.0003986922    1.314    0.239
        44  -9.3610    149.5093    156.0204   9.2070154062e+01   2.0465428508e+01    0.2127883    0.1327759 -72.82  0.000810494    2.593    0.614
        45 -12.4156     94.8294    153.2551   1.0478189617e+02   3.1332024699e+01    0.6672593    0.4844109 -29.51  0.003244376    1.957    0.489
        46 -11.5984    133.9755    145.7424   9.3584910850e+01   2.5843491219e+01     1.270516    0.3295515 -54.83  0.003068693    5.689    0.824
        47  -9.8971    113.1620    150.7665   9.9746815150e+01   2.8717192882e+01    0.2558465    0.1549049  80.09 0.0009502898    2.843    0.648
        48 -10.6062    174.3976    148.8661   8.4909506826e+01   1.6694124911e+01    0.3115748    0.2699314  81.00 0.0009225682    1.395    0.283
        49 -10.8458    143.9234    146.3162   9.1309917959e+01   2.3685169650e+01    0.3560402    0.2211489 -63.97  0.001467678    2.044    0.511
        50 -11.3582    106.5876    139.2844   9.9134779784e+01   3.2561426377e+01    0.5711723    0.3474103 -35.82  0.002415084    2.132    0.531
        51  -9.3720    111.0386    140.9868   9.8333696912e+01   3.1355453885e+01     0.234412    0.1744664  79.34 0.0005759467    1.620    0.383
        52 -12.5044     94.7564    138.9677   1.0216797899e+02   3.4692811980e+01    0.2974268    0.2806413  24.78 0.0004908486    1.222    0.182
        53  -9.2658    102.5473    133.4500   9.8987640650e+01   3.4649843050e+01    0.1480997    0.1371894 -87.02  0.000806288    1.041    0.039
        54 -11.0751    106.0212    130.8741   9.7511236990e+01   3.4629810490e+01    0.4018214    0.3447694 -56.35  0.001224841    1.130    0.115
        55 -11.0495    114.3853    129.9237   9.5081042225e+01   3.3290236522e+01    0.3385333    0.2705432 -37.53   0.00066336    1.356    0.262
        56 -11.0764    135.7902    127.9588   8.9100095353e+01   2.9421699107e+01     0.747632    0.1977706 -48.48  0.002073692    3.870    0.742
        57 -10.1037    160.8732    127.6771   8.2962812674e+01   2.3994623884e+01    0.3152781     0.234183 -52.37  0.001312332    1.417    0.294
        58 -11.1810    101.8216    125.8208   9.7535645796e+01   3.6573278904e+01    0.2945631     0.253379 -20.26 0.0008491665    1.402    0.287
        59 -11.2531    120.3841    122.9011   9.1862135178e+01   3.3732978593e+01    0.5933484    0.3590102 -19.38  0.002014649    3.344    0.701
        60 -10.1510    109.8741    118.9614   9.3747787618e+01   3.6690454800e+01    0.2201305    0.2106845 -68.56  0.000400906    1.005    0.005
        61 -10.2973    167.6462    112.4463   7.7511813252e+01   2.5573355554e+01    0.3734915    0.2801488 -88.35  0.001566464    1.890    0.471
        62 -11.4590    118.3862    110.4582   8.9293471159e+01   3.6964264261e+01    0.6357151    0.4307405  64.52  0.002730684    1.877    0.467
        63 -10.2482    205.4493    110.3263   6.9158189840e+01   1.7080167186e+01     0.317902    0.2497057  37.61 0.0008831549    1.342    0.255
        64 -10.1308    134.5803    105.8344   8.3744462826e+01   3.4554207959e+01    0.3922069    0.1502943 -46.36  0.001288671    2.602    0.616
        65 -10.0534     65.9665    100.1179   1.0219466525e+02   4.8329895738e+01    0.2753426    0.1830036  39.94  0.001333765    1.668    0.401
        66 -19.1989      7.1934    105.9188   1.2129219682e+02   5.2619961550e+01     16.01006    0.7555739 -71.77   0.02807689   15.366    0.935
        67  -9.2503    182.3079     82.6857   6.6150934465e+01   2.7693876907e+01    0.1608552    0.1213425 -70.53 0.0003103782    1.627    0.385
        68  -9.1169    155.2903     81.3096   7.1530415078e+01   3.4690608500e+01    0.1584725    0.1247051  11.55 0.0003731542    1.581    0.368
        69  -9.7000     67.4855     71.0843   9.3921332319e+01   5.4660111569e+01    0.1902967    0.1806458 -10.40 0.0005015358    1.104    0.094
        70 -12.6790    159.3379     60.9981   6.4334344969e+01   3.7270882811e+01     1.382122     1.019477  71.45  0.003684834    1.503    0.335
        71 -12.0036    248.2308    247.5883   8.9377969650e+01  -1.1152400915e+01    0.3769464    0.2696644  -7.84   0.00273574    1.314    0.239
        72 -10.5105    169.0268    236.0065   1.0168642583e+02   2.4635832370e+00    0.1771887    0.1699891   9.56 0.0003847574    1.221    0.181
        73  -9.9818     61.8555    220.2614   1.2033275616e+02   2.1796012246e+01    0.1815245    0.1198133  64.88  0.001162677    1.231    0.188
        74 -11.7197     61.2495    234.5103   1.2158548516e+02   1.9226692134e+01    0.1984242     0.143404  74.62 0.0002886567    1.133    0.118
        75  -9.5050    220.4655    228.4427   9.1074772944e+01  -4.8960315754e+00    0.1967408    0.1111597 -46.68  0.001029593    2.622    0.619
