#   1 NUMBER                 Running object number                                     
#   2 MAG_AUTO               Kron-like elliptical aperture magnitude                    [mag]
#   3 X_IMAGE                Object position along x                                    [pixel]
#   4 Y_IMAGE                Object position along y                                    [pixel]
#   5 X_WORLD                Barycenter position along world x axis                     [deg]
#   6 Y_WORLD                Barycenter position along world y axis                     [deg]
#   7 A_WORLD                Profile RMS along major axis (world units)                 [deg]
#   8 B_WORLD                Profile RMS along minor axis (world units)                 [deg]
#   9 THETA_WORLD            Position angle (CCW/world-x)                               [deg]
#  10 FWHM_WORLD             FWHM assuming a gaussian core                              [deg]
#  11 ELONGATION             A_IMAGE/B_IMAGE                                           
#  12 ELLIPTICITY            1 - B_IMAGE/A_IMAGE                                       
         1 -13.5744    245.1703      2.6572   3.6836405684e+01   2.3765065104e+01     1.398266    0.2734164  73.20  0.004623563    4.698    0.787
         2 -16.2553    221.0734     80.0117   5.8530827591e+01   1.8894917055e+01     8.305803     3.159635 -55.34   0.02166398    5.367    0.814
         3 -17.6362    245.7032     53.6063   4.8640213597e+01   1.7274813495e+01     6.642699     4.010568  45.60   0.03225205    2.068    0.516
         4 -16.7439    245.8967     30.3687   4.3111471379e+01   2.0362218861e+01     1.698759     1.365906 -76.05  0.009692297    1.151    0.131
         5 -12.0588    140.0996     33.3376   5.9143393747e+01   4.6408403305e+01     0.720633    0.2167277 -26.62   0.00189781    3.736    0.732
         6 -10.9528    200.7309     17.3233   4.4491372458e+01   3.2794996265e+01     1.081748    0.4364363 -54.43  0.004033791    2.929    0.659
         7 -12.0191    198.9002     24.3502   4.6646302427e+01   3.2442338597e+01    0.4789158    0.3115155 -10.98  0.001141747    2.019    0.505
         8 -15.9172    221.8750     23.3007   4.3760055331e+01   2.6859241529e+01     3.459385     1.849839 -10.74   0.01377804    3.068    0.674
         9  -9.9827    154.9991     14.4963   4.9877339857e+01   4.4841967666e+01    0.2473886    0.1931214  12.01 0.0006091752    1.503    0.335
        10 -10.3468    135.2107     12.6215   5.2705845103e+01   5.0025733196e+01    0.4037227    0.1666691 -26.79   0.00141079    2.507    0.601
        11  -9.7130    145.8609     12.6813   5.0792545240e+01   4.7352684274e+01    0.2189583    0.1816004   2.74 0.0004884862    1.347    0.258
        12 -11.0088    120.3110      8.8814   5.4294160478e+01   5.4009703466e+01    0.3353514     0.296591   3.60  0.001198231    1.164    0.141
        13 -10.5051    205.2001      7.8260   4.1459832862e+01   3.2700951083e+01     0.500071     0.217726  43.93  0.001944438    3.151    0.683
        14 -15.4590    234.4040     79.6537   5.6464002779e+01   1.5886445271e+01      2.28503     1.389655 -77.52  0.007008588    2.608    0.617
        15 -12.1980    239.3355    172.7367   7.7134772050e+01  -2.2906633482e-01    0.4548484    0.3306091  26.27  0.002585358    1.327    0.246
        16 -10.8949    228.0062    172.4968   7.9104346713e+01   1.8248911521e+00    0.2527407     0.129687  47.14  0.001141859    2.095    0.523
        17 -11.2302    215.8055    168.5804   8.0554406285e+01   4.7235884168e+00    0.4387259    0.2867959  63.75  0.001315424    2.417    0.586
        18 -10.6075    212.3535    166.6683   8.0810591256e+01   5.7044429957e+00    0.2960825    0.2247702  60.75  0.001380064    1.708    0.414
        19 -10.1039    230.9182    167.3497   7.7510419686e+01   2.1051963087e+00    0.2358292    0.1825056 -53.62  0.001271303    1.710    0.415
        20 -13.6225     19.6762    161.4646   1.2364546587e+02   3.8753370154e+01    0.7848614    0.5937404  86.12  0.003868435    1.032    0.031
        21 -12.7243    227.7095    245.7951   9.2279567921e+01  -8.0655984941e+00     1.931604    0.2520518  37.05  0.005264623    7.408    0.865
        22 -10.0518    118.1209    244.3269   1.1188022197e+02   9.1888584650e+00    0.1619812    0.1530999  68.27 0.0002812623    1.247    0.198
        23 -15.7035    238.4310     45.5763   4.7515674303e+01   2.0047877882e+01    0.9592222    0.7146627  89.61   0.00376093    1.400    0.286
        24 -13.7083    229.6118    233.1424   8.9956931366e+01  -6.8725183112e+00     3.165781    0.4543291  37.83  0.009083273    6.385    0.843
        25 -11.7712    153.2489    151.0527   8.9929814714e+01   2.0725088384e+01    0.9421887    0.5537852 -83.38  0.002569161    5.580    0.821
        26  -9.7864    244.0043    156.6506   7.2956490363e+01   1.4027244276e+00    0.1862624    0.1635084  18.38 0.0004748806    1.136    0.120
        27 -10.2951    192.4094    153.2413   8.1866207213e+01   1.2097038913e+01    0.2029096    0.1391248 -48.33 0.0006605228    1.582    0.368
        28  -9.4873    203.7956    152.5967   7.9433743357e+01   9.8651948810e+00    0.1940069    0.1387702  54.96 0.0003939197    1.587    0.370
        29 -12.1245     47.0591    149.5096   1.1593112173e+02   3.8737062649e+01     0.373027    0.3518056   7.66 0.0009232578    1.421    0.296
        30 -13.4936     55.4258    145.7021   1.1331651297e+02   3.8654271236e+01     1.558338     1.028563   8.41  0.007662938    2.546    0.607
        31 -13.6006     62.2684    142.9006   1.1114430401e+02   3.8463239772e+01      1.12982    0.7771467  50.62  0.004524178    1.493    0.330
        32 -10.0855    227.0000    148.9606   7.4248127318e+01   5.8404892020e+00    0.2359819   0.07605725 -36.52 0.0008035461    2.950    0.661
        33 -10.9091    133.6035    145.2588   9.3349673632e+01   2.5985805457e+01     1.016602    0.2483928 -54.62  0.002397982    5.895    0.830
        34  -9.8346    222.6207    145.1775   7.4194650230e+01   7.3480480688e+00    0.2144336    0.1911201  50.56 0.0004074172    1.267    0.211
        35 -11.6175    180.1260    143.6615   8.2284238176e+01   1.6542523940e+01    0.3183161    0.2609316 -48.28  0.001273066    1.270    0.213
        36  -9.4698    198.1897    144.1515   7.8644097093e+01   1.2581686156e+01    0.2000582    0.1811178 -80.46 0.0005088838    1.349    0.259
        37  -9.6832    191.9897    144.1527   7.9904664064e+01   1.3900674249e+01    0.2147084    0.1993504  86.68 0.0003874007    1.265    0.209
        38 -10.2806    158.9946    142.7080   8.6762343037e+01   2.1279661223e+01    0.2169529    0.2030674  50.92 0.0009149055    1.061    0.058
        39  -9.6333    228.3255    141.3248   7.2295959038e+01   6.8623537207e+00    0.1488231    0.1062781   5.08 0.0007048859    1.691    0.409
        40 -10.9490    186.0996    140.2016   8.0214648285e+01   1.5929299761e+01    0.2658343    0.2156022 -38.27 0.0005490696    1.229    0.186
        41 -10.7502    212.0188    137.7554   7.4464034203e+01   1.0827005652e+01    0.4279898    0.3077153 -72.12  0.001634226    2.218    0.549
        42  -9.8123    194.6732    134.3389   7.7059782456e+01   1.5187807817e+01     0.222728    0.1780239 -76.11 0.0005992857    1.680    0.405
        43 -10.9121    223.9666    129.0128   7.0221257093e+01   9.8600739332e+00    0.3525616    0.2508914  77.08  0.001597091    2.186    0.542
        44 -11.2418    136.1062    127.9190   8.8814116246e+01   2.9355966900e+01    0.5388698    0.1587981 -50.11  0.001552935    3.570    0.720
        45 -11.4062    160.4674    128.1365   8.2985523596e+01   2.4033241366e+01    0.3774112    0.2880359 -55.81  0.001764695    1.398    0.285
        46 -12.5294    184.4891    125.2199   7.6949167757e+01   1.9222335303e+01    0.5786937    0.3554077 -29.25  0.002415148    1.798    0.444
        47  -9.1379    212.5513    127.5179   7.1942053429e+01   1.2553143492e+01    0.1487775    0.1390713 -17.29 0.0001537588    1.007    0.007
        48 -11.8703    201.6969    125.2021   7.3452360061e+01   1.5359188885e+01     0.623367    0.4194046 -82.27  0.002146726    2.840    0.648
        49  -9.7050    192.9583    121.0151   7.4153015352e+01   1.8116084745e+01    0.1903258    0.1731837 -33.03 0.0004555744    1.069    0.065
        50 -11.6894    185.6425    118.6562   7.5060869352e+01   2.0246080041e+01    0.4548443    0.2881737 -61.68  0.001462133    2.158    0.537
        51  -9.2219    172.3161    120.3223   7.8348591039e+01   2.2976850097e+01    0.1604768     0.124697   5.32 0.0007042126    1.663    0.399
        52  -9.9726    215.1174    116.8678   6.8880196919e+01   1.3901895049e+01    0.2233458     0.198299 -59.84 0.0004466453    1.236    0.191
        53 -11.8857    167.3844    115.3637   7.8176981007e+01   2.5124251308e+01    0.5496163    0.3822724  30.56  0.002382504    1.680    0.405
        54 -11.8375    134.0505    101.3200   8.2482833059e+01   3.5672135305e+01    0.7548074    0.2666937 -49.45  0.001743201    3.067    0.674
        55 -11.6529    135.1003    110.3240   8.4649174378e+01   3.3481232243e+01    0.7943617    0.2153245 -42.26  0.002179077    3.823    0.738
        56  -9.7126    180.3555    110.6625   7.4109749236e+01   2.3042324101e+01    0.2452948    0.1889523 -74.41  0.001095028    1.679    0.404
        57 -12.6433    122.7102    103.1885   8.6012975180e+01   3.7696180492e+01     1.028914    0.6274298 -73.75  0.003629626    2.936    0.659
        58 -10.7225    229.6934    220.0272   8.7756428710e+01  -5.2584102687e+00    0.1714414    0.1372802   3.24 0.0004235393    1.102    0.092
        59 -10.2772    146.0049    104.9093   8.0439456100e+01   3.2226334532e+01    0.2407281     0.237191  24.26  0.000661175    1.036    0.035
        60 -11.2108    155.5828    100.6477   7.6947599561e+01   3.0899555805e+01    0.4735717    0.3005764  37.00  0.001961099    1.752    0.429
        61 -11.1147    196.6260     96.9366   6.7197921733e+01   2.1779304170e+01    0.4020204    0.2701374 -41.77  0.001186306    1.434    0.303
        62 -12.1156    169.5391     94.7076   7.2109093340e+01   2.8751732342e+01     0.643361    0.5639797   0.93  0.002663895    1.292    0.226
        63 -11.0573    139.8085     95.3772   7.9324819848e+01   3.5644326084e+01    0.3652834    0.2950652  69.20 0.0007162282    1.423    0.297
        64  -9.6333    197.3230    159.6543   8.2267612887e+01   9.9066217230e+00    0.2139196    0.1766903 -88.48 0.0009855317    1.734    0.423
        65 -10.9471    176.5608     91.0982   6.9594076610e+01   2.7732686483e+01    0.2815057    0.2685845  40.75 0.0003247552    1.074    0.069
        66 -11.4533    153.1771     92.0166   7.5071195363e+01   3.3217158356e+01    0.3059919    0.2552513 -33.20 0.0003399699    1.208    0.172
        67 -11.5052    147.2914    143.5682   8.9687925187e+01   2.3564621187e+01    0.3218209    0.2605419 -76.59 0.0006646687    1.454    0.312
        68 -10.9178    126.9035     75.9244   7.6836737078e+01   4.2517816404e+01    0.3802139    0.2151166 -51.39  0.001513464    1.983    0.496
        69 -11.7591    151.2055     71.6909   6.9423623997e+01   3.7586137658e+01    0.3773254    0.3126999 -39.99 0.0005016776    1.202    0.168
        70 -10.0940    112.1375     72.0425   7.9715582394e+01   4.6488061592e+01    0.2182567    0.2037554 -12.38 0.0003691693    1.053    0.051
        71 -10.1565    144.5764     68.7991   7.0071262430e+01   3.9726224279e+01     0.226788     0.141422 -47.26 0.0009502004    1.688    0.408
        72 -11.8852    134.9525     61.0276   6.9888127680e+01   4.3416829106e+01    0.8013903    0.2201175 -35.91  0.002341712    3.627    0.724
        73 -11.0224    153.8575     64.5562   6.6577670322e+01   3.8193585091e+01    0.2619622    0.1810749 -40.51 0.0006503486    1.447    0.309
        74  -9.4845    125.5461     63.0246   7.2984775093e+01   4.5255783943e+01    0.2316427    0.1467056 -36.92  0.000765942    1.562    0.360
        75 -10.3804    180.5052     61.0792   6.0113863601e+01   3.2018354980e+01    0.2345457    0.1491025 -33.96  0.001026209    1.570    0.363
        76 -10.9572    144.0259     59.2403   6.7103542176e+01   4.1531209489e+01    0.3512114    0.2646005 -68.54  0.001186678    1.688    0.407
        77 -11.3024    133.0779     40.0379   6.3087841146e+01   4.7211358610e+01    0.7072116    0.2272948 -30.57  0.002331322    3.203    0.688
        78 -10.5597    165.2935     40.0215   5.6421744697e+01   3.9097750809e+01    0.3163449    0.2000647  87.39  0.001326829    2.074    0.518
        79 -11.1719    248.1217    212.3802   8.3219414458e+01  -7.1075487608e+00    0.3656245    0.2038239  23.83    0.0020321    1.681    0.405
        80 -11.2540    159.6466     35.4314   5.5976475367e+01   4.1175210455e+01    0.3011065    0.2065722 -57.67 0.0007746394    1.687    0.407
        81 -11.2890    239.1954    213.5120   8.4955200751e+01  -5.8952302968e+00    0.3578983      0.10773  42.21  0.001444676    3.187    0.686
        82 -11.1152    204.4945     29.5017   4.7369635445e+01   3.0395129394e+01    0.3195477    0.2835107 -27.90 0.0009217631    1.229    0.186
        83 -11.8823    201.3842     27.8069   4.7293338483e+01   3.1391797117e+01    0.4556716     0.335221   0.14  0.001752923    1.844    0.458
        84 -10.8065    191.3277    191.8576   8.9921286691e+01   5.4295961913e+00    0.5591701    0.2855549 -62.04  0.001728566    5.651    0.823
        85 -10.9891    144.9122     29.7461   5.6894383135e+01   4.5665752916e+01    0.4204436    0.1899773 -16.55  0.001508832    3.027    0.670
        86 -11.6439    178.2936     24.3114   4.9407631993e+01   3.7741003544e+01     0.478379     0.440556  76.70  0.001743965    1.020    0.019
        87 -10.3097    182.2359     23.2221   4.8518136695e+01   3.6849568675e+01    0.3191756     0.215354 -47.56  0.001586685    1.508    0.337
        88  -9.4793    127.2138     25.0094   5.8947965114e+01   5.0618396870e+01    0.1854331     0.114692 -24.76 0.0005519793    1.697    0.411
        89  -9.6917    176.5624     35.6536   5.3124158808e+01   3.6771195747e+01    0.2469871     0.205889  10.90 0.0007429477    1.438    0.304
        90 -10.0495    133.1578     23.3344   5.7029949228e+01   4.9370754015e+01    0.2351031    0.1898443  -3.43 0.0005999974    1.343    0.256
        91 -10.5816    167.5142     31.0540   5.3183865783e+01   3.9710658342e+01     0.216396    0.1445462 -28.32  0.001027888    1.576    0.365
        92 -10.6546    247.7348    194.6062   8.0003699758e+01  -4.7465084378e+00    0.2331715    0.1696899  34.56 0.0004634255    1.370    0.270
        93 -13.6812    244.2521    189.5009   7.9621405260e+01  -3.4885034072e+00     1.735978    0.6209115  39.21  0.007364143    2.696    0.629
        94 -11.2499    217.5772    191.1574   8.4733004173e+01   7.9770409683e-01    0.5193271    0.2990209  -9.79  0.002297346    2.512    0.602
        95  -9.9254    185.8331    183.4662   8.9446736780e+01   7.8990261233e+00    0.2050311    0.1900112 -48.39  0.000467309    1.232    0.188
        96  -9.0740    115.8355     12.4280   5.6679390919e+01   5.4717307312e+01    0.2158432     0.125093  56.72 0.0008098655    1.581    0.367
        97 -11.8003    248.9653    174.9787   7.5936222373e+01  -2.2058889469e+00    0.4277273    0.2820448  25.36  0.001245009    1.502    0.334
        98 -10.6789    231.1334    159.7282   7.5857514898e+01   3.2809005628e+00    0.2430772    0.1791812 -39.21   0.00101584    1.393    0.282
        99 -12.1957    234.1919    173.9554   7.8291295186e+01   4.9039369811e-01    0.4052351    0.3422504  49.08  0.001806348    1.440    0.306
