#   1 NUMBER                 Running object number                                     
#   2 MAG_AUTO               Kron-like elliptical aperture magnitude                    [mag]
#   3 X_IMAGE                Object position along x                                    [pixel]
#   4 Y_IMAGE                Object position along y                                    [pixel]
#   5 X_WORLD                Barycenter position along world x axis                     [deg]
#   6 Y_WORLD                Barycenter position along world y axis                     [deg]
#   7 A_WORLD                Profile RMS along major axis (world units)                 [deg]
#   8 B_WORLD                Profile RMS along minor axis (world units)                 [deg]
#   9 THETA_WORLD            Position angle (CCW/world-x)                               [deg]
#  10 FWHM_WORLD             FWHM assuming a gaussian core                              [deg]
#  11 ELONGATION             A_IMAGE/B_IMAGE                                           
#  12 ELLIPTICITY            1 - B_IMAGE/A_IMAGE                                       
         1 -14.2595    200.3667     19.5345   4.0467602052e+01   3.2728770697e+01     2.839183     1.576592  17.52   0.01042602    4.364    0.771
         2 -14.5176    218.7941      9.0528   3.6119751061e+01   2.9559799322e+01     1.788152     1.177802  -6.94  0.006009044    2.309    0.567
         3 -14.0406    177.6399     53.6900   5.3002622740e+01   3.3854927337e+01      1.90438     1.238786  30.48  0.004932256    2.082    0.520
         4 -13.5684    197.7180     34.6655   4.4742953768e+01   3.1548381107e+01    0.6735399    0.6013685  59.73  0.001192783    1.188    0.158
         5 -11.6525    189.7710     14.8235   4.0402223122e+01   3.5802694152e+01    0.2948327    0.2265486 -48.52  0.000939273    1.280    0.219
         6 -10.3577     56.3306      9.6690   6.7061868195e+01   6.6456212896e+01    0.1086467   0.09856883 -55.46 0.0007051902    1.719    0.418
         7 -12.7100    195.2848      4.4477   3.7113420792e+01   3.5524688989e+01    0.4798618    0.2997167  75.18  0.002638435    1.441    0.306
         8  -9.6092    186.6542    186.3076   8.4290186941e+01   6.9723852659e+00    0.1888015    0.1453152 -56.43   0.00097887    1.605    0.377
         9 -14.9422     61.6581    190.8290   1.1295094951e+02   2.7049474399e+01      3.08776     1.892857 -43.44   0.01556445    2.234    0.552
        10 -16.8058     71.4663    148.1659   1.0458365835e+02   3.5853071444e+01     10.14282      5.79524  82.57   0.04031716    2.694    0.629
        11 -10.4750     71.2830    213.9943   1.1339807291e+02   2.0735877731e+01    0.3403786    0.1688741 -64.69  0.001255697    2.023    0.506
        12 -10.7825     34.7356    196.8147   1.1936675604e+02   2.8944827893e+01     0.265034    0.2186746 -26.75   0.00170243    1.908    0.476
        13 -12.8577    149.5523    188.3618   9.2620700332e+01   1.3405770667e+01    0.9395472    0.5059481 -69.41       0.0033    3.687    0.729
        14 -12.0186    143.4718    179.2121   9.2303737236e+01   1.6418824302e+01    0.4575461    0.2109212 -44.59  0.001433256    2.291    0.564
        15 -11.6978    184.7277    212.5084   8.9497720137e+01   2.7366413741e+00     0.333263    0.2936703 -30.84  0.001654071    1.233    0.189
        16 -10.9767     93.4371    185.8748   1.0504319696e+02   2.3606626547e+01    0.3550865    0.2445356  68.21  0.001039086    1.568    0.362
        17 -11.9932     98.8955    181.1974   1.0305810070e+02   2.3798763782e+01    0.4117471    0.3233898  -1.50  0.001748497    1.883    0.469
        18 -12.0769    193.6451    196.0759   8.4748188257e+01   3.9877470752e+00     1.331638    0.7129622 -62.82  0.004252534    5.341    0.813
        19 -10.4059     93.2668    205.6241   1.0777552041e+02   1.9319848258e+01    0.2777393    0.2297379  34.81 0.0008353782    1.303    0.233
        20 -10.7195    238.6139    185.7789   7.4280643261e+01  -1.9091590454e+00     0.179991    0.1121083 -40.10 0.0005034015    1.651    0.394
        21  -9.0963     45.1130    190.1358   1.1653503996e+02   2.9255305047e+01    0.1709069    0.1164004  82.77 0.0003654073    1.323    0.244
        22 -11.2315    187.5107    176.0068   8.2053303417e+01   8.7210195935e+00     0.369216    0.3360887 -42.45  0.001200828    1.187    0.158
        23 -10.5581    149.0249    176.3356   9.0492195598e+01   1.5982651678e+01    0.2418945     0.198447 -61.49 0.0004347193    1.340    0.254
        24 -11.5206    146.8816    172.5045   9.0236332300e+01   1.7199459399e+01    0.3869045    0.2753459 -70.99  0.001079835    1.829    0.453
        25 -11.2512     56.6422    175.2081   1.1225775507e+02   3.1294983346e+01    0.4941168    0.2053487  50.15  0.002111242    2.461    0.594
        26 -12.9928    234.3288    173.3050   7.2510388416e+01   7.6133725960e-01    0.6795574    0.2798762  37.61  0.002860214    2.580    0.612
        27 -11.8439     44.2785    173.0963   1.1492557250e+02   3.3277687353e+01    0.5506975    0.2580418  37.93  0.001933204    2.155    0.536
        28 -10.5371     40.6518    170.3053   1.1546823778e+02   3.4343385812e+01    0.2339422    0.1722957  49.42 0.0007302993    1.371    0.271
        29 -10.3432     96.3932    202.2065   1.0664899420e+02   1.9564907431e+01    0.2529574    0.1795778 -62.28  0.001020976    1.459    0.315
        30 -10.0040    193.8995    171.0604   7.9718052886e+01   8.4369770928e+00     0.221228    0.2071011  -3.34 0.0007153921    1.033    0.032
        31 -11.5114    138.3238    169.8110   9.1698057236e+01   1.9405863322e+01    0.3981466    0.3222733  49.37  0.001212911    1.228    0.185
        32 -10.8033    185.3580    169.3267   8.1115365012e+01   1.0401214546e+01    0.2981398    0.2551367 -58.71  0.001120991    1.374    0.272
        33 -11.2753    230.6499    167.7500   7.2006236120e+01   2.3023594104e+00    0.3596107    0.1970919 -57.37  0.001343229    3.635    0.725
        34  -9.8374    188.3057    163.6444   7.9291155836e+01   1.0921687133e+01    0.1446356    0.1189823 -80.51 0.0007041079    1.718    0.418
        35 -12.6047     95.2767    150.7526   9.8726288444e+01   3.1563623020e+01    0.6696537     0.594551 -32.53  0.003660869    1.278    0.217
        36 -11.8813    133.8808    145.4354   8.7688189742e+01   2.5736966021e+01     1.338197    0.3410192 -54.25  0.003138302    5.644    0.823
        37 -10.8675    187.1425    151.6062   7.6875415841e+01   1.3502997805e+01    0.2628059     0.202443 -47.46 0.0008934838    1.337    0.252
        38 -10.6836    112.8991    150.8733   9.4168025065e+01   2.8470194101e+01    0.3502365    0.2529259  86.56  0.001348496    1.830    0.454
        39 -10.6264    174.4100    148.8818   7.8976928971e+01   1.6669391060e+01    0.3075171    0.2699757 -89.59 0.0008730084    1.406    0.289
        40 -10.1981    109.1668    147.5135   9.4446952029e+01   2.9942433191e+01    0.2502694    0.2004021 -72.37 0.0004088172    1.308    0.236
        41 -10.7287    143.9817    146.1835   8.5376209990e+01   2.3535006875e+01    0.3723046    0.2149004 -64.14  0.001395836    2.402    0.584
        42 -10.1857     87.4275    203.5823   1.0878687262e+02   2.0630582838e+01     0.307828    0.2154803 -84.94  0.001702883    1.500    0.333
        43 -11.7346    106.9362    137.2663   9.2865275202e+01   3.2797128092e+01    0.5206261    0.3519133 -38.27  0.002352778    1.619    0.382
        44 -11.6374    105.9240    130.7807   9.1692161319e+01   3.4536221562e+01    0.4123287    0.3395071 -58.99  0.001287501    1.175    0.149
        45 -12.5164     95.0052    137.0066   9.6055857471e+01   3.4947976532e+01     0.309709    0.2750673 -42.08 0.0004722748    1.162    0.139
        46 -11.6237    136.0015    128.1054   8.3091107523e+01   2.9254870975e+01     1.035292    0.2056421 -48.83  0.002386796    5.382    0.814
        47 -10.3559     44.4744    198.6723   1.1748921994e+02   2.7431918505e+01     0.261503    0.2511387 -89.53  0.001445185    1.314    0.239
        48 -11.4452    114.8316    128.7282   8.8789759155e+01   3.3358665385e+01    0.4553867    0.3201698  28.82 0.0008087673    1.638    0.389
        49 -10.1202    160.7918    127.7436   7.6991878791e+01   2.4016113890e+01    0.3351592    0.2169266 -52.91  0.001422597    1.643    0.391
        50 -11.2409    102.0116    124.5308   9.1331852198e+01   3.6742572373e+01    0.3014212    0.2493713 -19.36 0.0006954256    1.430    0.301
        51 -11.6404    120.5725    123.0758   8.5873207029e+01   3.3559521212e+01    0.4546426    0.3870866 -15.45  0.002247945    1.355    0.262
        52 -10.2409    109.9456    118.0495   8.7530153158e+01   3.6806871511e+01     0.224694    0.2157313 -53.19  0.000351041    1.009    0.009
        53 -10.9321    231.3029    113.7367   5.9805361907e+01   1.1471454793e+01    0.2994385    0.2587365 -32.70 0.0007379613    1.035    0.033
        54 -10.1091    167.6803    112.8068   7.1595202037e+01   2.5602624894e+01    0.3170894    0.2371653 -72.07  0.001392965    1.750    0.429
        55 -10.7529    134.5994    105.6655   7.7589735322e+01   3.4544249301e+01    0.5721127    0.1502627 -44.93  0.001565831    3.713    0.731
        56 -12.1605    118.4293    110.3109   8.3170329836e+01   3.6922591563e+01    0.6681741    0.4911476  65.08  0.002316867    1.696    0.410
        57 -10.4181    205.4494    110.2134   6.3336767507e+01   1.7577425376e+01    0.2998874    0.2482061  48.42 0.0008440338    1.298    0.230
        58 -10.6000     65.5564    100.1395   9.6480678413e+01   4.8433800966e+01    0.3901221     0.215103  31.98  0.001766958    2.031    0.508
        59 -18.6347     32.7156    241.0123   1.2294731651e+02   2.0165915560e+01     6.278827     3.414126  37.96   0.03096113    1.819    0.450
        60  -9.3712    155.4571     82.5074   6.5869218167e+01   3.4443181476e+01    0.1533795    0.1503523 -28.00 0.0001418852    1.016    0.015
        61 -12.4717    204.1113    200.3319   8.3486760105e+01   1.4705074227e+00    0.7490599    0.5120773 -24.40  0.004063849    1.490    0.329
        62  -9.8058    184.1682     77.1462   5.8502165507e+01   2.8470899938e+01    0.2240492    0.2095525  16.48 0.0006170474    1.187    0.157
        63 -12.9827    133.5743    195.1700   9.7347339328e+01   1.4881256030e+01    0.5456964    0.3451303 -85.05  0.002244925    2.732    0.634
        64 -11.6496    248.4945    242.0170   8.2778468867e+01  -1.0936551506e+01    0.2083187    0.1448081  -2.86  0.001429399    1.190    0.159
        65 -19.2273      9.9815    100.6252   1.1480452837e+02   5.3827353977e+01     17.52093    0.7860631 -69.13   0.02823427   16.697    0.940
        66 -10.4409     83.3429    244.2230   1.1398395718e+02   1.3199018623e+01    0.3375855    0.1821265  29.41  0.001205551    2.252    0.556
        67 -14.0588    192.5113     40.7557   4.7075524092e+01   3.2018627568e+01    0.9534598    0.8582062 -11.00  0.003984991    1.299    0.230
        68  -9.7310     85.8611    240.8605   1.1319058291e+02   1.3458811096e+01    0.1612367    0.1444823  63.34 0.0003076075    1.155    0.134
        69 -10.4480     66.0005    241.6750   1.1699514772e+02   1.6000178398e+01    0.1726256    0.1400619 -88.51 0.0002935886    1.234    0.190
        70 -10.4667     80.7811     15.4566   6.1369363280e+01   6.1347502516e+01    0.2425123    0.1238116  56.70  0.001138484    2.156    0.536
        71 -12.5641    193.0382    204.5142   8.6429884589e+01   2.6598544728e+00    0.5625795    0.2408772  27.28  0.002101401    3.082    0.676
