#   1 NUMBER                 Running object number                                     
#   2 MAG_AUTO               Kron-like elliptical aperture magnitude                    [mag]
#   3 X_IMAGE                Object position along x                                    [pixel]
#   4 Y_IMAGE                Object position along y                                    [pixel]
#   5 X_WORLD                Barycenter position along world x axis                     [deg]
#   6 Y_WORLD                Barycenter position along world y axis                     [deg]
#   7 A_WORLD                Profile RMS along major axis (world units)                 [deg]
#   8 B_WORLD                Profile RMS along minor axis (world units)                 [deg]
#   9 THETA_WORLD            Position angle (CCW/world-x)                               [deg]
#  10 FWHM_WORLD             FWHM assuming a gaussian core                              [deg]
#  11 ELONGATION             A_IMAGE/B_IMAGE                                           
#  12 ELLIPTICITY            1 - B_IMAGE/A_IMAGE                                       
         1 -12.2740     56.4391     36.5011   4.7737459568e+01   6.4063703374e+01     1.001183    0.4361394 -35.54   0.00408923    2.408    0.585
         2 -10.6700      9.4940     25.6628   6.8963380707e+01   7.1734523555e+01    0.6532815    0.2723641 -33.67  0.003043638    2.382    0.580
         3 -12.7612      3.4596     15.8457   6.9219979482e+01   7.4098621213e+01    0.8578848     0.342991 -60.30  0.003967968    2.309    0.567
         4 -12.3039     13.0877     14.3222   6.1758236569e+01   7.3682726144e+01    0.8991898    0.6768384  70.79  0.005138187    2.504    0.601
         5 -10.9088     36.9141      7.6787   4.2938837765e+01   7.1901870764e+01    0.4086526     0.259809  26.65  0.001996227    1.523    0.344
         6 -11.3014     22.6645     22.5619   5.9374151753e+01   7.1223342298e+01    0.5555673    0.2887624 -26.39  0.002706981    2.134    0.531
         7 -11.8265     35.2857     14.5498   4.7793807669e+01   7.1090469500e+01    0.4462667    0.2336446  26.93 0.0008189021    2.004    0.501
         8 -10.6747     82.8272     21.9702   3.0620029213e+01   6.1241012126e+01    0.3796096    0.3054621 -54.65  0.001373599    1.539    0.350
         9 -10.8755     70.3016     22.7651   3.5509351706e+01   6.3773473133e+01    0.5319877    0.3381133 -57.04  0.001871104    2.463    0.594
        10 -10.8858     63.7750     12.4590   3.2850053800e+01   6.6486791791e+01    0.6775273    0.2313641  38.85  0.001729824    3.170    0.685
        11 -10.9328     54.1770     13.7048   3.7635467971e+01   6.8150287074e+01    0.2914838     0.226917 -17.02  0.001039084    1.233    0.189
        12 -10.2960    169.4457     16.8265   1.0565706609e+01   4.0099233431e+01    0.3148388    0.1830102 -38.03  0.001510864    1.685    0.406
        13 -11.1314    165.9393     13.1159   9.8500613370e+00   4.1389507952e+01    0.4184148    0.2334082  75.29  0.001629462    1.699    0.411
        14 -11.9105    137.3377     15.3877   1.4734815620e+01   4.8601364914e+01    0.7022154    0.5170447 -47.22  0.001691916    1.435    0.303
        15 -12.0360    133.0847     18.8654   1.6751202615e+01   4.9332092428e+01    0.4288046    0.2847093 -53.06  0.002070775    1.681    0.405
        16 -12.1951    238.0527     17.5640   4.3289292750e+00   2.3782111603e+01    0.4805419    0.3230212   9.25  0.002529964    2.512    0.602
        17  -9.9109     50.4562     16.6149   4.0949933112e+01   6.8387410758e+01    0.3187715     0.220516 -55.38  0.000929322    2.140    0.533
        18 -11.2966     82.2027      7.0216   2.3594915361e+01   6.3159177973e+01    0.2345084     0.186682  32.07 0.0002904311    1.163    0.140
        19 -12.1061     74.9682     11.0457   2.7953617855e+01   6.4327748839e+01    0.7769583    0.5452203  12.32  0.004127948    1.563    0.360
        20 -11.9292    240.9205      3.1364   9.0276896495e-01   2.4678550718e+01    0.9473825    0.2870954  65.30  0.004138186    3.277    0.695
        21 -11.3125    232.9362     13.9381   3.8543371683e+00   2.5261793653e+01    0.4097466    0.1540651 -40.61  0.001406282    2.100    0.524
        22 -12.0609    235.7917      9.9917   2.7541714376e+00   2.5064175063e+01    0.5191436    0.2255709 -81.53  0.002338313    2.726    0.633
        23 -10.1154    231.6798      6.6984   2.2636954377e+00   2.6283230531e+01    0.2099088    0.1090996  73.67 0.0006631305    1.927    0.481
        24 -11.3780    175.9016     11.3781   8.1681124742e+00   3.9015351020e+01    0.5570637    0.3490744 -31.47    0.0028477    1.618    0.382
        25 -11.5831    179.0987      3.9443   5.6600874538e+00   3.8927423034e+01    0.2966563    0.2611624 -86.53 0.0003143407    1.024    0.024
        26 -10.9414    101.3728      9.7726   1.9731403059e+01   5.8335039891e+01    0.5873324    0.3542204   7.35   0.00267245    2.184    0.542
        27 -11.4380    164.5344      4.6959   7.3870102937e+00   4.2568410269e+01    0.2776635    0.2237053 -80.80 0.0003111625    1.159    0.137
        28 -11.6887    160.1995      8.9613   9.2424036462e+00   4.3286675556e+01    0.4675453    0.3174015  62.10  0.001375558    1.374    0.272
        29 -11.3961    154.1413      8.2322   9.7699317665e+00   4.4930391498e+01    0.4868249    0.2759826 -40.93  0.002302267    1.780    0.438
        30  -9.9833     27.4246     11.4816   5.0786244752e+01   7.2646204505e+01    0.3360633    0.2597522 -22.86  0.002154903    1.125    0.111
        31 -11.5316    145.5218      9.3451   1.1322226782e+01   4.7072227940e+01    0.5523122    0.3244004 -17.41  0.001992989    1.971    0.493
        32 -10.5530    119.9106     10.3903   1.5987940901e+01   5.3619055128e+01    0.3828141    0.2450673   6.63  0.001796014    2.027    0.507
        33 -12.6217    128.4802     23.7507   1.9452811301e+01   4.9959774150e+01    0.3986729    0.2816193 -35.46 0.0002180131    1.481    0.325
        34  -9.8037     90.4127      8.3765   2.1901216421e+01   6.1114763419e+01    0.2953519     0.163121  24.78  0.001286373    2.259    0.557
        35 -10.6998     20.0384      7.6248   5.3408919206e+01   7.4169190112e+01    0.4365682    0.3149601 -18.10  0.001494234    1.221    0.181
        36 -10.7293     15.6894      2.5995   5.3475073956e+01   7.5472258217e+01    0.3615132    0.2641993  43.18  0.001733107    1.908    0.476
        37 -10.7775     26.8461      2.3842   4.5695000390e+01   7.4131835846e+01    0.2916185    0.2171246  21.70  0.001876263    1.262    0.208
        38 -10.6018    248.5284      7.7846   1.4863653225e+00   2.2647926228e+01    0.2137543    0.1561072  89.01  0.001081286    1.365    0.268
        39  -9.7718    214.8623      7.1649   3.5277807678e+00   2.9983723696e+01    0.2039448    0.1461485 -63.74 0.0007481585    1.228    0.186
        40 -10.5675    223.0786      5.4113   2.5249595843e+00   2.8300802959e+01    0.2300753    0.1697699 -29.93  0.001410026    1.389    0.280
        41  -9.6130     68.4868      5.4939   2.7307634656e+01   6.6339814011e+01    0.1335288    0.1155589  25.66 -2.200427e-05    1.013    0.013
        42 -10.2850    136.6326      3.2065   1.0436377033e+01   4.9953415971e+01    0.2954934    0.1516669  20.69  0.001153878    3.052    0.672
        43 -10.6738     74.0131      1.8539   2.3472227270e+01   6.5515067728e+01    0.2791665    0.2345414 -67.99  0.001358437    1.582    0.368
        44 -10.5112    126.5394      2.6395   1.1776830256e+01   5.2623851888e+01    0.3182171    0.1947771  54.72 0.0009196478    1.467    0.318
        45 -11.1670     91.1732      2.4246   1.8868963510e+01   6.1506311195e+01    0.2357793    0.2122893 -47.25 0.0003152551    1.282    0.220
        46 -10.0685      9.1620      2.2383   5.8181497602e+01   7.6182812886e+01    0.2571835    0.1801414  55.76  0.001435727    2.793    0.642
        47 -10.6360    230.2632      1.5120   1.1560461333e+00   2.7104811877e+01    0.2102386    0.1290066  82.29 0.0004330934    1.588    0.370
        48  -9.9039    168.8524      2.0952   6.1247148807e+00   4.1695987777e+01    0.2054532    0.1592586 -68.96 0.0004633879    1.225    0.183
        49 -10.0919     98.0035      3.1483   1.7548401705e+01   5.9791035063e+01    0.1989601    0.1823879  44.68 0.0004417626    1.030    0.029
        50  -9.6644    102.5419      1.4172   1.5752279594e+01   5.8824988364e+01    0.1352287    0.1211985  57.59 8.235661e-05    1.033    0.032
        51 -10.1293     22.2350      1.5838   4.8219501357e+01   7.4859091855e+01    0.2527723    0.1625179  14.02   0.00107102    1.547    0.354
        52 -12.1048     15.8257    182.2898   8.9417297402e+01   3.4428010211e+01    0.4577057    0.2465219  61.41  0.002154977    1.588    0.370
        53 -11.9919    247.9702    248.0455   4.9491811972e+01  -7.4788653722e+00    0.5529948    0.3013543   0.44  0.003664945    1.720    0.419
        54 -12.4461    226.9334    245.9243   5.2579254914e+01  -4.8131458298e+00    0.5638261    0.3645101  -3.97  0.004006895    1.390    0.280
        55  -9.3097    168.6651    250.6738   6.3484087078e+01   2.1759447259e+00     0.116813   0.07438728   9.82 0.0007051514    1.718    0.418
        56  -9.4133    155.6728    250.3305   6.5866148086e+01   3.9918381673e+00    0.1117187   0.07738435  52.24 0.0007051164    1.709    0.415
        57  -9.9189    109.9425    250.0687   7.4611601995e+01   1.0274171443e+01    0.1805455    0.1352609  40.65 0.0006003522    1.015    0.015
        58 -10.6302     91.1704    249.5008   7.8208929558e+01   1.2836073043e+01    0.2030832    0.1651444  59.98 0.0006678973    1.198    0.165
        59 -11.6899     21.5399    248.5448   9.1336778717e+01   2.1031410289e+01    0.4679213    0.1432669  45.49  0.002591394    2.072    0.517
        60 -10.5979      5.2984    244.3480   9.4118825710e+01   2.3295085773e+01    0.2055725    0.1186481  54.25  0.000832794    1.204    0.170
        61 -11.1204      8.3603    248.7568   9.3705257124e+01   2.2261793224e+01    0.3428294    0.1922339  31.88  0.001564924    1.715    0.417
        62  -9.6591     13.3049    249.6801   9.2857067659e+01   2.1640826407e+01    0.1453737   0.08592425  80.68 0.0005775568    1.541    0.351
        63 -10.1503    145.3192    190.0871   5.9635378355e+01   1.5050867947e+01    0.2195978    0.1674611  23.63 0.0004961294    1.264    0.209
        64 -10.4408    244.6763    188.1339   4.0331972040e+01  -3.8148648398e-01    0.1846321     0.147515  24.24 0.0005082775    1.299    0.230
        65 -10.3376    226.1772    188.5604   4.3463194329e+01   2.2054098120e+00     0.168001    0.1000631  23.34 0.0004180795    1.603    0.376
        66  -9.7077     61.9658    184.5347   7.8537234592e+01   2.8925482275e+01    0.1966002    0.1623074 -87.18  0.001222196    1.200    0.167
        67 -11.0120    249.4983    179.9219   3.8086523598e+01  -1.1824336955e-02    0.2938592   0.09833232 -36.14   0.00131684    2.801    0.643
        68 -11.0485     22.8778    180.0123   8.7615614737e+01   3.4277102300e+01     0.398555    0.1355774  57.21  0.001470847    2.830    0.647
        69 -11.0863      3.0263    179.8121   9.2249761626e+01   3.6040745316e+01    0.3355223    0.1915112  -9.85  0.001652267    3.577    0.720
        70 -12.0170      7.8468    172.7095   9.0774040479e+01   3.7211834152e+01    0.4132668    0.2080838 -55.92  0.002196527    2.307    0.567
        71 -10.5257     54.0557    175.7628   7.9594952000e+01   3.1855750014e+01    0.2267107    0.1784594 -70.74 0.0006788446    1.304    0.233
        72  -9.3368    172.4593    175.4751   5.1242485326e+01   1.2973923891e+01    0.1361359    0.1223345  18.96 0.0002200453    1.027    0.026
        73 -10.8376    187.7498    191.3368   5.1008851770e+01   7.7825264116e+00    0.4422622    0.3021421  -5.15  0.002411729    1.673    0.402
        74 -10.6133     18.0322    173.0385   8.8331792326e+01   3.6272613884e+01    0.2086439     0.110219  60.98  0.001126231    1.679    0.404
        75  -9.7644     25.1481    169.3587   8.6314983234e+01   3.6447241450e+01    0.1718117    0.1398415 -82.04 0.0006286547    1.183    0.155
        76 -10.6780      1.5418    165.2414   9.1916203174e+01   3.9363283044e+01    0.4493687   0.09983378 -88.31  0.001455278    5.024    0.801
        77  -9.1368     93.3332    166.7489   6.8371335962e+01   2.8403895664e+01    0.1433593   0.09699258  59.82 0.0002265782    1.558    0.358
        78 -10.1477     67.5602    165.3503   7.4916195700e+01   3.2496054287e+01    0.2436825    0.1302315 -74.45 0.0007952824    2.017    0.504
        79  -9.9965    186.9532    166.0000   4.6463273993e+01   1.2025603368e+01    0.2272883   0.07318913  41.70 0.0008078267    2.980    0.664
        80 -10.9372     51.0141    159.5303   7.8635007440e+01   3.5962939867e+01    0.2831033    0.2044383  89.39 0.0005367268    1.342    0.255
        81 -10.7169      8.0765    163.5238   9.0209813037e+01   3.9255785549e+01      0.25007    0.1830334 -26.01  0.001527927    2.013    0.503
        82 -10.0934     20.2224    157.5573   8.6690932089e+01   3.9620762471e+01    0.2476914    0.1755341 -35.38  0.001424902    1.937    0.484
        83 -10.8786    248.2418    156.3639   3.3810743327e+01   3.2638444010e+00    0.2855683    0.2188161  21.05  0.001640981    1.294    0.227
        84  -9.1129     67.2598    157.6754   7.3989561292e+01   3.4323883733e+01    0.1400058    0.0955677  70.05 0.0003066995    1.555    0.357
        85 -10.4503      2.3835    157.2778   9.1295857979e+01   4.1106673017e+01    0.1865183    0.1501696   2.81  0.001106489    1.680    0.405
        86  -9.8070    214.6944    154.3791   3.8896239997e+01   9.0097601286e+00    0.4014148    0.1243342  45.68   0.00146541    3.443    0.710
        87 -10.2114    158.9494    153.8098   4.9939111847e+01   1.9422771223e+01    0.3514078    0.1904972  32.20  0.001149618    1.954    0.488
        88 -10.3280     11.1896    153.0970   8.8756075108e+01   4.1414721081e+01    0.3522416    0.1490017  46.88  0.001733307    2.114    0.527
        89  -9.9397     40.9340    152.3055   8.0592459718e+01   3.8829910487e+01    0.2243481    0.1666427 -79.09  0.000576138    1.251    0.201
        90  -9.6390    143.8985    148.3748   5.2302153893e+01   2.3403545493e+01    0.2363537    0.1680225 -39.77 0.0005333693    1.484    0.326
        91 -12.2191     13.8541    147.8910   8.7667921419e+01   4.2429147993e+01    0.2626353    0.2066724  76.12 0.0003356146    1.079    0.074
        92 -11.2733     17.8498    144.0837   8.6258758144e+01   4.3012321013e+01     0.319404    0.1849272  70.60  0.001209994    1.656    0.396
        93 -11.1125     14.1322    140.1676   8.6987404544e+01   4.4249821340e+01    0.3540688    0.1820047  89.44  0.001778719    1.806    0.446
        94 -10.8848    217.4285    145.2901   3.6530999344e+01   9.9413955765e+00     0.361008    0.2071149  26.66  0.001447724    2.042    0.510
        95 -10.7295      5.9530    145.3340   8.9644875884e+01   4.3627132953e+01    0.4371178    0.1423979  29.69  0.001969222    2.860    0.650
        96  -9.2229    182.2695    145.3201   4.3144269731e+01   1.6490957930e+01    0.1423669    0.1064359  -0.89 0.0002083294    1.563    0.360
        97 -10.2042     43.9852    136.7133   7.7855126266e+01   4.2282796237e+01    0.1865674    0.1672928  68.31 0.0004461349    1.063    0.059
        98 -13.4282     37.3884    134.8124   7.9601724627e+01   4.3459687690e+01    0.6578579    0.3655059 -75.55  0.001230965    1.682    0.405
        99  -9.9137    188.9631    139.6824   4.0570686769e+01   1.6185512388e+01    0.1988882    0.1777283  31.93 0.0004918625    1.119    0.107
       100  -9.8789    236.1691    138.1706   3.1970217983e+01   7.7620727131e+00    0.1662838    0.1489874 -44.69 0.0007119231    1.328    0.247
       101  -9.7506    144.1777    136.8463   4.9759498429e+01   2.5719997110e+01    0.2067914    0.1750802  -0.08 0.0004045107    1.347    0.258
       102 -10.4297      2.8715    136.1124   8.9889895466e+01   4.6021381428e+01    0.3139488    0.1474928 -75.91 0.0008053568    1.789    0.441
       103 -10.3509     20.5458    134.9899   8.4666066141e+01   4.4986916501e+01    0.2393263    0.1445072 -84.98 0.0008279301    1.493    0.330
       104 -11.6234     17.3405    131.0836   8.5250783256e+01   4.6200278565e+01    0.3878532    0.2363567  27.56  0.001497916    1.784    0.439
       105  -9.4318      9.2104    136.2260   8.8085092428e+01   4.5563468090e+01    0.1692302    0.1198009  67.74 0.0002908666    1.281    0.219
       106 -11.7133     54.5545    132.4780   7.4048045991e+01   4.2080962435e+01    0.6410792    0.2873801  22.35  0.001014253    2.827    0.646
       107 -10.9930      4.5392    130.2852   8.8996475346e+01   4.7309363679e+01    0.2169287    0.1899503  88.67 0.0002935809    1.072    0.067
       108 -10.7984     73.6647    129.3388   6.7663023715e+01   4.0236505586e+01    0.3143203    0.2500739  57.29 0.0009689226    1.267    0.211
       109  -9.4418    217.2957    129.3116   3.3102792420e+01   1.2474517907e+01    0.1370744   0.09946426   2.44 0.0002603999    1.596    0.373
       110 -11.0787     25.0170    126.8925   8.2466962636e+01   4.6594256822e+01    0.2758413    0.2200121  77.16  0.000678388    1.160    0.138
       111 -10.2920    229.5905    125.2682   3.0228529366e+01   1.0833927166e+01    0.2542041    0.1119326 -37.71 0.0009591997    2.043    0.511
       112  -9.4497    226.1696    123.3668   3.0344921490e+01   1.1749223060e+01    0.2306527    0.1355221  63.01  0.001055781    2.521    0.603
       113 -10.4970      4.1030    126.1751   8.8816509866e+01   4.8328569437e+01    0.1876458    0.1465036 -59.35 0.0005161391    1.303    0.232
       114 -10.6448    117.2424    124.1067   5.3819047014e+01   3.3869236677e+01    0.3204084    0.2014915 -38.72  0.001380847    1.758    0.431
       115 -10.5564     30.4978    124.4204   8.0450001585e+01   4.6712251687e+01    0.2238765    0.1932685 -83.97 0.0005251743    1.026    0.025
       116 -10.5753     46.9836    124.2676   7.5167166210e+01   4.5029920645e+01      0.33605    0.1916513  23.06  0.001101264    2.019    0.505
       117 -10.3255     19.9823    122.4980   8.3564587550e+01   4.8101001622e+01    0.2539274    0.1449727 -61.23 0.0006572232    1.589    0.371
       118 -10.5909     22.3492    119.6870   8.2491001393e+01   4.8605181378e+01    0.2505176    0.1925872  61.52 0.0009821128    1.288    0.224
       119 -10.1871     25.3865    118.6880   8.1384821824e+01   4.8597682313e+01     0.290917    0.1797186  61.91  0.001069584    1.704    0.413
       120 -11.5562     10.4963    122.4387   8.6543475908e+01   4.8819156208e+01    0.4375436    0.2592264 -79.51  0.001852889    1.445    0.308
       121  -9.5777      7.3417    118.3343   8.7164500875e+01   5.0031732708e+01    0.1994445    0.1286531  -4.28  0.001093154    2.109    0.526
       122  -9.2418    243.3404    122.3183   2.7544357134e+01   8.8347540440e+00    0.1317945   0.09184211   3.83 0.0007049313    1.712    0.416
       123 -10.2056     75.7485    112.3093   6.3610443612e+01   4.4086860302e+01    0.2666128    0.1808701  31.83 0.0005528487    1.554    0.356
       124 -10.8320     71.9533    115.8901   6.5596862856e+01   4.3793990443e+01    0.4334985    0.2912115 -63.48   0.00160728    1.463    0.316
       125 -10.9334     69.5882    121.4691   6.7459865402e+01   4.2771521198e+01    0.4276228    0.2781551  18.99  0.001585219    1.917    0.478
       126  -9.4799     65.4802    119.5346   6.8405713325e+01   4.3839265494e+01    0.2440636    0.1854548  18.98 0.0005901849    1.536    0.349
       127 -10.2320     56.7970    121.1524   7.1502288166e+01   4.4609209544e+01    0.2162317    0.1790545  78.52 0.0004631269    1.223    0.183
       128 -10.7627      1.7916    118.0410   8.8891604928e+01   5.0437828840e+01     0.368483    0.1340215 -60.27  0.001432653    2.360    0.576
       129 -11.8001     30.7781    108.1639   7.8134567837e+01   5.0746227990e+01    0.7602147    0.4009573  73.89  0.003250884    2.504    0.601
       130 -10.8053     19.8026    108.5391   8.1988609801e+01   5.1579988849e+01    0.4568099    0.2319286 -34.04  0.002041161    2.628    0.620
       131 -11.9318     16.1175    115.5908   8.4058171552e+01   5.0106233151e+01    0.3966499    0.2679522  68.42  0.001055761    1.480    0.324
       132 -11.9963     13.0494    110.5689   8.4526718649e+01   5.1566406508e+01    0.5048096    0.4356024 -63.81  0.002561827    1.131    0.116
       133 -10.3245    249.5936    117.2622   2.5596242274e+01   8.4813236031e+00    0.1843656    0.1063448 -23.84 0.0009547562    1.625    0.385
       134 -10.0880    100.0365    117.4852   5.7207473719e+01   3.8678478657e+01    0.2341272    0.1474669  39.53 0.0008320836    1.579    0.367
       135  -9.9212     85.8628    116.1345   6.1223647866e+01   4.1508583881e+01    0.2207278    0.1952198  76.83 0.0002852178    1.185    0.156
       136  -9.0559     31.6680    116.7388   7.9063302269e+01   4.8517684372e+01    0.1300356   0.09546714 -37.42 0.0006050505    1.572    0.364
       137 -11.0101    182.2422    114.6641   3.6084283095e+01   2.2025313168e+01    0.5524049    0.2543321  40.70  0.001627784    2.356    0.576
       138 -10.4468     25.0371    106.6900   7.9925058855e+01   5.1620424828e+01    0.2912653    0.2105686 -36.50  0.001170647    1.563    0.360
       139 -10.2902    250.1384    112.1577   2.4431947338e+01   9.1065106803e+00    0.1748157    0.1345138 -45.63   0.00052548    1.330    0.248
       140 -11.4847     55.2070    109.7386   6.9947091207e+01   4.7659142178e+01    0.2984318    0.2501622 -53.58 0.0006173287    1.163    0.140
       141 -10.2133      3.0710    107.8449   8.7603211630e+01   5.2851944470e+01    0.2094877    0.1880727  60.55 0.0007955871    1.187    0.158
       142  -9.2729     70.3124    107.6958   6.4400587836e+01   4.6053798616e+01    0.1489534    0.1102954  71.87 0.0003138258    1.615    0.381
       143 -10.2650     61.9701    106.3393   6.6943781799e+01   4.7598863839e+01    0.2503361    0.1998007 -65.41 0.0006546555    1.197    0.165
       144 -11.6894     61.9823     99.0506   6.5349923473e+01   4.9392407099e+01    0.6301977    0.2856666 -50.67  0.002183228    2.079    0.519
       145  -9.6184     66.9706     97.7765   6.3289345858e+01   4.8978686761e+01    0.2057113    0.1301076  43.91  0.000337502    1.653    0.395
       146 -11.8227     50.7182    104.1803   7.0429149850e+01   4.9607170426e+01    0.4336026    0.3643275  -0.23 0.0009369737    1.417    0.294
       147  -9.2926     47.7237    100.3262   7.0739675809e+01   5.0927166547e+01     0.141677    0.1290239 -64.70 0.0003663776    1.021    0.020
       148  -9.6534     93.6147    103.8246   5.5871667625e+01   4.3065744622e+01    0.2146957    0.1432376 -64.19 0.0009412071    1.673    0.402
       149 -10.6065     40.7328     99.0656   7.3042414424e+01   5.2030098785e+01    0.4306741    0.1732579 -60.56  0.001765601    2.142    0.533
       150 -11.2580     75.3262    100.8622   6.1133988193e+01   4.6934367767e+01    0.5199934     0.321389  36.97  0.002370888    1.656    0.396
       151 -10.1044     76.8140     97.4304   5.9783058792e+01   4.7516414655e+01    0.2458129    0.1933867 -35.09 0.0004389454    1.367    0.269
       152  -9.9683    119.0510    101.4570   4.7650428588e+01   3.8537504271e+01    0.2449404    0.1509628  44.82  0.001035884    1.612    0.380
       153  -9.9044     99.9826    102.0000   5.3416550505e+01   4.2287004592e+01     0.251054   0.08653941  40.45 0.0004874464    2.912    0.657
       154 -11.6879     15.9159     97.4878   8.1923684705e+01   5.4610832762e+01    0.5170737    0.2339872 -62.82  0.002449387    1.820    0.450
       155 -10.4423     32.3086     96.6214   7.5714424998e+01   5.3488380446e+01    0.4101451     0.214706  77.90 0.0009276621    2.863    0.651
       156 -10.1048     31.8282     92.8478   7.5222707878e+01   5.4472069107e+01    0.2366109    0.1610507 -64.71 0.0002874494    1.299    0.230
       157  -9.8563     23.8253     96.2218   7.8812594420e+01   5.4330691678e+01    0.1731754    0.1331036 -47.64 0.0002355044    1.281    0.219
       158  -9.0684      9.6559     99.2376   8.4417942318e+01   5.4586240746e+01    0.1243191   0.08453523  58.08 0.0003378191    1.558    0.358
       159 -10.3162    225.8672     98.0246   2.4623131292e+01   1.5677194309e+01    0.2019371     0.192488  47.02 0.0003125955    1.172    0.147
       160  -9.7343     81.8610     97.7502   5.8152538003e+01   4.6591642649e+01    0.2176865    0.1941311 -22.21 0.0006448491    1.225    0.184
       161 -10.7734    102.3466     96.1149   5.1111252666e+01   4.3162350014e+01    0.3636615    0.2411388  58.59 0.0006689398    1.778    0.437
       162  -9.7765     57.2703     96.0705   6.6369750030e+01   5.0773195908e+01    0.1999809     0.170374 -61.61 0.0003156939    1.104    0.094
       163 -10.5919    226.3044     93.2500   2.3442560831e+01   1.6308473675e+01    0.2383486    0.2127256 -58.37 0.0005131601    1.191    0.160
       164 -10.0280     49.0632     90.0164   6.8057514040e+01   5.3313224901e+01    0.2028719    0.1907755 -66.70 0.0003286505    1.026    0.026
       165 -10.3895     52.0861     93.5034   6.7701473528e+01   5.2080931255e+01    0.2921506     0.230548  40.17  0.001019712    1.341    0.254
       166 -11.4700     57.0768     90.2827   6.5094026776e+01   5.2212928188e+01    0.4472688    0.3143623 -14.35 0.0006383879    1.916    0.478
       167  -9.7153     36.5369     91.2303   7.3113486129e+01   5.4414730856e+01    0.3350931    0.1598556  58.31  0.001270415    3.185    0.686
       168  -9.3782    249.7093     91.3101   1.9946586797e+01   1.2100933330e+01    0.1270956   0.08709493 -54.31  0.000297595    1.583    0.368
       169 -10.0550    231.5224     91.4748   2.2306886958e+01   1.5532989754e+01    0.1336495    0.1178333 -33.66 4.095367e-05    1.005    0.005
       170 -10.4575    160.2114     90.2757   3.4290187115e+01   3.1471827377e+01    0.3240199    0.2100871 -48.49  0.001425735    1.604    0.376
       171 -11.6637     94.7538     88.6449   5.1413285916e+01   4.6335601405e+01    0.3644768    0.2848356  50.87   0.00178699    1.332    0.249
       172 -10.0444     73.9330     89.1406   5.8641652084e+01   4.9958092886e+01    0.2350685    0.1976839 -54.70  0.001238742    1.151    0.131
       173 -10.3890     23.9190     90.1329   7.7788093405e+01   5.5834368431e+01    0.2077853    0.1660537  71.58  0.001218154    1.340    0.254
       174 -10.2698    177.9386     89.0284   3.0338798650e+01   2.7546132431e+01    0.2154876    0.2076935 -22.77            0    1.036    0.035
       175 -10.6028     84.7856     88.3903   5.4654564508e+01   4.8262518476e+01    0.4834693    0.2384277  38.58  0.001465963    2.071    0.517
       176 -11.0005     65.3852     85.9109   6.0890158166e+01   5.2069980459e+01    0.4579834    0.3175666 -68.89  0.001928053    1.590    0.371
       177 -12.2477    107.4320     84.8167   4.6307604082e+01   4.4600586529e+01    0.3584407    0.2928073  66.75 0.0003644924    1.392    0.282
       178 -10.3672     39.0013     86.4877   7.1182271310e+01   5.5328639783e+01    0.2816981    0.1181013 -37.44 0.0007199004    3.222    0.690
       179  -9.9603     30.2003     85.7928   7.4530695521e+01   5.6366759383e+01    0.2525087    0.1753553  51.01   0.00135085    1.629    0.386
       180 -10.7095     30.4885     81.4539   7.3545276601e+01   5.7404566866e+01    0.3137107    0.2266151 -50.83 0.0009715663    1.253    0.202
       181 -11.6357     10.4221     90.9353   8.3096010959e+01   5.6586179594e+01    0.2186463    0.2032919  19.03 0.0003074273    1.262    0.208
       182 -10.4300    116.9766     83.1480   4.2993055516e+01   4.2882096490e+01    0.3400938    0.2240941 -63.45   0.00140678    1.975    0.494
       183 -11.0258     76.7921     82.0391   5.5639946017e+01   5.1129122146e+01    0.5543478    0.2205809  40.74  0.002025545    2.559    0.609
       184 -10.0257     21.2737     82.8019   7.7565554356e+01   5.7849042638e+01    0.2302988    0.1676816 -68.88  0.001318343    1.207    0.171
       185 -10.1964      7.5023     80.8818   8.2854519510e+01   5.9215410838e+01    0.3078484    0.1572323 -42.62  0.001083383    1.941    0.485
       186 -10.5495     49.2710     78.0602   6.5078662029e+01   5.6178284811e+01    0.4783685    0.3665661  77.02   0.00248625    1.655    0.396
       187  -9.6408     44.8165     74.6201   6.6011882747e+01   5.7542838679e+01    0.1887145    0.1217882  42.00  0.000647841    1.712    0.416
       188 -12.7558     88.2534     77.3447   5.0201809217e+01   5.0094062282e+01    0.3710907    0.3260273  20.37 0.0004088335    1.203    0.169
       189  -9.1775    203.5218     78.3728   2.3135566813e+01   2.3430236502e+01    0.1368744    0.1314784 -50.86 0.0001453942    1.033    0.032
       190 -10.2905     69.0015     82.5679   5.8637229486e+01   5.2295654246e+01    0.2943862    0.2029716 -71.64 0.0004448134    1.745    0.427
       191 -10.0057     18.6707     77.6601   7.7710532567e+01   5.9298387257e+01    0.2563832    0.1711944 -32.45  0.001109726    1.607    0.378
       192 -10.6927     21.7942     75.2983   7.5934808891e+01   5.9638885546e+01    0.4151387    0.2819312  53.54  0.002258377    1.742    0.426
       193 -11.6462    167.7949     73.4565   2.7955938107e+01   3.2631510400e+01    0.3641095    0.2452677 -45.75 0.0003012185    1.485    0.327
       194  -9.0868    149.2831     77.7068   3.3088634694e+01   3.6388152002e+01    0.1517338    0.1198156 -74.56 0.0003045588    1.536    0.349
       195 -10.9416     99.7207     76.2269   4.6056151501e+01   4.8039533691e+01    0.3435664    0.2395966 -59.80  0.001544778    1.665    0.400
       196 -10.7133     38.2097     75.5156   6.9005036688e+01   5.8076352544e+01     0.332172    0.2140243 -26.30 0.0008828923    1.847    0.458
       197 -10.1073     54.5896     75.0929   6.2128043459e+01   5.6178197982e+01    0.2635052    0.2046853  18.59 0.0006408556    1.418    0.295
       198 -10.1862     12.4474     73.0697   7.9537548824e+01   6.0825789880e+01    0.2641831   0.09750216 -64.58 0.0008386714    2.134    0.531
       199 -13.6620     16.6700     67.2800   7.6564878061e+01   6.1941396975e+01    0.4717871    0.3218347 -49.60 0.0007302347    1.279    0.218
       200 -11.3160      2.8224     63.3976   8.2164195484e+01   6.3648747252e+01    0.4905156    0.2485653 -78.69  0.002329124    1.843    0.458
       201 -10.2327      7.6829     73.1262   8.1601379901e+01   6.1085513399e+01    0.2883561    0.1697143 -36.54  0.001091005    1.746    0.427
       202 -10.9152      6.5328     68.1384   8.1282710566e+01   6.2343225983e+01    0.3062147    0.2041436  80.26 0.0006604209    1.684    0.406
       203  -9.0349    206.5878     73.4684   2.1418416428e+01   2.3491324258e+01    0.1392592    0.1284805 -39.45 4.736767e-05    1.027    0.026
       204 -11.5750    104.7246     65.8427   4.1063374115e+01   4.9073197910e+01    0.6104184    0.3628461 -27.21  0.001188176    2.061    0.515
       205 -10.4971    109.7748     64.1424   3.8959068856e+01   4.8271707119e+01    0.4087905     0.310324 -71.96  0.001698954    1.739    0.425
       206 -10.1333     25.8353     71.3155   7.3345819506e+01   6.0271127585e+01    0.2820562    0.1869063 -84.00  0.001463481    1.701    0.412
       207 -11.3603     93.1414     68.1374   4.5563119966e+01   5.1075726749e+01     0.565203    0.2684713 -35.54  0.002069009    2.385    0.581
       208  -9.5272     55.5251     70.9476   6.0558746199e+01   5.7009146254e+01     0.212883    0.1305895 -52.55 0.0003333124    1.520    0.342
       209 -10.6219     45.0768     70.5273   6.4805273584e+01   5.8475555627e+01    0.2722926    0.1908169 -63.56 -7.234122e-05    1.411    0.292
       210 -10.2134    137.3706     70.1461   3.3553208762e+01   4.0648260130e+01    0.2102802    0.1390866 -48.85 0.0009147165    1.596    0.373
       211 -11.3776     39.3675     50.5259   6.1270753799e+01   6.3676073034e+01     1.273569    0.6728226  40.56  0.005983158    2.168    0.539
       212 -11.8218     46.2799     60.6228   6.1368632174e+01   6.0595549791e+01    0.5989679    0.3720657  -5.29 0.0008733093    2.334    0.572
       213 -11.2063     53.9929     48.6518   5.3771420220e+01   6.2091884470e+01     0.452982    0.3126145  31.04  0.001565569    1.499    0.333
       214 -10.3445     50.6081     43.9527   5.3507893086e+01   6.3546531798e+01     0.312219    0.2433354 -65.09 0.0009329686    1.607    0.378
       215 -10.8542     44.5317     43.5999   5.6257608668e+01   6.4476156271e+01    0.4469673     0.374497 -88.03   0.00168235    1.687    0.407
       216 -10.9452     44.9152     38.2062   5.3918077504e+01   6.5500689232e+01     0.267318    0.2092051 -37.07  0.001546921    1.178    0.151
       217  -9.7591    244.7807     69.3572   1.5593709823e+01   1.6040652347e+01    0.1589473    0.1163461  50.15 0.0003924785    1.601    0.376
       218 -11.3036    122.6739     67.5213   3.6456335607e+01   4.4650942628e+01    0.3011685    0.2656427 -38.10 0.0002890034    1.150    0.130
       219 -12.3618    147.0067     65.5638   2.9882150232e+01   3.9090699818e+01    0.3002058     0.265195 -52.88  0.001142105    1.155    0.134
       220  -9.8410    151.5594     65.5607   2.8894638332e+01   3.7962026226e+01    0.3062311    0.2060866  43.66 6.074829e-05    1.549    0.355
       221 -10.9219    155.0597     62.8244   2.7318674061e+01   3.7546097042e+01    0.3236124    0.2997281  79.69 0.0009036415    1.087    0.080
       222 -10.4571    150.8989     60.9559   2.7597590775e+01   3.8893350993e+01    0.2515068    0.2155319  59.95  0.000432568    1.151    0.131
       223  -9.9817     61.7487     66.0427   5.6508509336e+01   5.7197504603e+01    0.4502921    0.2007151 -49.04   0.00182191    2.102    0.524
       224 -12.5376     30.2666     63.1969   6.9387303027e+01   6.1793391815e+01    0.4880516    0.4353437 -56.09  0.001267548    1.059    0.056
       225 -10.1991     81.2720     64.9854   4.8633938160e+01   5.4063241008e+01    0.2540078    0.2098223  36.63  0.000698295    1.225    0.184
       226 -10.4841    209.9949     63.1510   1.8295499635e+01   2.4241802116e+01    0.2190439    0.1825947 -39.92 0.0003184917    1.107    0.097
       227  -8.9495    175.3024     64.2589   2.3914751833e+01   3.2292253913e+01      0.14284    0.1130799  27.63 0.0001989854    1.512    0.339
       228  -9.9793     83.3071    248.1898   7.9631441515e+01   1.4054200316e+01    0.2360554   0.09642033  50.23  0.001127125    2.092    0.522
       229 -11.8995    202.0376     62.5417   1.9230156191e+01   2.6151843956e+01    0.2634877    0.2198572 -35.02 5.098519e-05    1.149    0.130
       230 -10.6165     83.0007     60.4492   4.6425795568e+01   5.4661804695e+01    0.4141667    0.2341191  38.99  0.001349524    1.802    0.445
       231 -11.7954     79.6556     57.0254   4.6413596690e+01   5.5992422046e+01    0.6266356    0.3471169 -25.26 0.0006793823    2.529    0.605
       232 -11.1437      2.5336     52.9409   8.0398725727e+01   6.6109789467e+01    0.3591822    0.2724652 -37.83  0.002079474    1.234    0.190
       233 -11.5125      3.2510     48.2541   7.9059728997e+01   6.7154827612e+01    0.4334872    0.2759941 -39.47  0.002576264    1.411    0.291
       234 -13.3174     12.4657     47.6408   7.4065666066e+01   6.6788279843e+01    0.3960197    0.3472725  86.24 0.0008674824    1.336    0.252
       235 -10.7781     18.8539     44.6293   6.9820167973e+01   6.7004825158e+01    0.4461779    0.3244272 -82.67  0.001863856    1.702    0.412
       236 -11.8485     11.4680     55.8653   7.6567530256e+01   6.4965442793e+01    0.8804629    0.4425256 -51.65  0.002987138    1.622    0.383
       237 -10.8979      8.0185     51.6783   7.7354973716e+01   6.6131314228e+01    0.3604309    0.2424693  86.79  0.001420095    1.784    0.439
       238 -10.2857    119.4511     61.0146   3.5142818441e+01   4.6604513978e+01    0.2639958    0.2343619 -74.99  0.000593778    1.267    0.210
       239  -9.7783    114.8120     60.1870   3.6140834487e+01   4.7845924555e+01    0.2031242    0.1711631  23.72 0.0002354675    1.289    0.224
       240 -11.4199    114.9706     55.8654   3.4579755196e+01   4.8579279698e+01    0.6534826    0.3221986  49.23  0.001672558    1.962    0.490
       241 -10.2078     80.1340     70.0832   5.0750054576e+01   5.3194858155e+01    0.3039123    0.1752658 -64.20  0.001183015    2.467    0.595
       242 -10.2103     90.0583     61.0826   4.4170154806e+01   5.3126942013e+01      0.21654    0.2152096 -50.77 0.0004191396    1.069    0.065
       243 -10.6543    169.5264     58.7544   2.3323743226e+01   3.4578565809e+01    0.4530123    0.3017327  21.02  0.001789446    2.238    0.553
       244 -10.8618    135.8231     58.7955   3.0248484150e+01   4.3013366166e+01    0.4659066    0.3106071 -89.90  0.001886307    2.266    0.559
       245 -11.8423    131.2734     50.6122   2.8549018646e+01   4.5488409138e+01    0.7343498    0.5575628  72.78  0.001791905    1.438    0.305
       246 -10.4184    127.2549     58.5142   3.2243642144e+01   4.5168020897e+01    0.2908183    0.2668472  36.55 0.0004736944    1.098    0.089
       247  -9.4195     38.5775     57.9115   6.4032542703e+01   6.2136870156e+01    0.1932316   0.09067106 -37.89 0.0006353192    2.279    0.561
       248  -9.9919    194.0074     62.5246   2.0394577258e+01   2.8037487840e+01    0.2144465    0.1404179  62.93  0.001029436    1.583    0.368
       249  -9.8058     87.5098     57.4706   4.3752234633e+01   5.4354440781e+01     0.209992    0.1392253  31.72 0.0009526203    1.632    0.387
       250 -10.9476     89.2366     53.1202   4.1542103131e+01   5.4827572014e+01     0.562465    0.2699468 -39.99  0.002070472    2.093    0.522
       251 -10.0365    163.2660     58.2319   2.4307359575e+01   3.6226043312e+01     0.381487    0.2481999  22.49  0.001568432    2.310    0.567
       252 -10.8048    106.9127     54.9981   3.6584704181e+01   5.0608131022e+01    0.4905483    0.2527857  51.53 0.0004217161    1.926    0.481
       253 -11.0677    104.3394     52.3147   3.6372309656e+01   5.1671750717e+01    0.4255049    0.2919817  18.75  0.001860631    1.946    0.486
       254  -9.5891     62.0129     52.7606   5.1818614942e+01   5.9990686459e+01    0.1866203    0.1743528 -19.02 0.0003309515    1.013    0.012
       255  -9.8343    131.2068     65.1833   3.3473951685e+01   4.3036184999e+01    0.2105292    0.1786645 -70.95  0.000494483    1.335    0.251
       256  -9.8219    148.9477     51.7806   2.5069026290e+01   4.0845836495e+01    0.2321141    0.1976248  31.87  0.001073893    1.287    0.223
       257  -9.8649      7.3193     41.0564   7.5118424598e+01   6.8571308138e+01    0.4141179    0.1806408 -47.24  0.001399443    1.838    0.456
       258 -10.2717     73.1941     49.4614   4.6020258243e+01   5.8689696313e+01    0.4473801    0.1817922 -49.42  0.001556001    2.772    0.639
       259 -11.1328     73.2559     43.1103   4.3457511204e+01   5.9863630809e+01    0.3089229     0.241519  53.67 0.0009371219    1.447    0.309
       260  -9.4811    182.2595     49.6433   1.8567709620e+01   3.2755886826e+01     0.151833    0.1008165 -58.78 0.0005009539    1.619    0.382
       261  -9.7309    168.9785     48.6528   2.0387353267e+01   3.6222140966e+01    0.2070719    0.1746345  68.09 0.0003911617    1.167    0.143
       262 -10.3352    141.2124     48.7810   2.5690273684e+01   4.3271025119e+01    0.4079538    0.2432965  81.42  0.001194051    2.372    0.578
       263 -11.1433    141.6866     45.1958   2.4380200706e+01   4.3690030163e+01    0.5068922    0.2032204  62.54  0.001784706    2.569    0.611
       264  -9.5022    115.3874     49.2689   3.2089082099e+01   4.9603157901e+01    0.2497387    0.1818238  77.97 0.0008367487    1.740    0.425
       265 -10.8921     61.2982     47.3631   5.0070492379e+01   6.1193088694e+01    0.3556133    0.1638884  35.82  0.001297558    2.251    0.556
       266  -9.2529    121.3234     46.7376   2.9610529872e+01   4.8570403376e+01    0.1471055    0.1168523 -81.76 0.0002300458    1.557    0.358
       267 -10.8885    112.7122     45.2473   3.1327264739e+01   5.0899758853e+01    0.3169274    0.2478171  17.23   0.00052167    1.498    0.332
       268 -10.6654    108.7304     41.0546   3.0827758650e+01   5.2514144626e+01    0.4381066    0.2727185  70.80  0.001858915    2.058    0.514
       269 -10.8968    152.7022     45.1930   2.2195199173e+01   4.0870789510e+01    0.3434936    0.1760868  59.48  0.001307959    1.865    0.464
       270 -10.9944    163.1149     43.4192   1.9767039209e+01   3.8455003335e+01    0.3972305    0.1897137 -45.46   0.00105665    2.153    0.536
       271 -10.1131    130.7578     42.1706   2.5703807817e+01   4.6915223499e+01    0.2661031    0.1817835 -35.78  0.001117261    1.503    0.335
       272 -11.0751     96.2537     42.0746   3.4931001028e+01   5.5244672827e+01    0.3361951    0.2481469  -9.50  0.000790967    1.613    0.380
       273 -11.0394     97.3274     36.1383   3.2190878409e+01   5.5941976056e+01    0.2592312    0.2313372  58.58 0.0007890253    1.159    0.137
       274 -10.2568     92.6842     35.7388   3.3475583743e+01   5.7056688576e+01    0.3970002    0.2489014   2.14  0.001620772    2.504    0.601
       275 -11.3434     89.0947     41.2233   3.6921918160e+01   5.6963978216e+01    0.3499587    0.2900127 -53.57 0.0009859013    1.382    0.277
       276 -12.1855     83.6295     35.9322   3.6589128662e+01   5.9002083255e+01    0.7731694    0.5061686  -5.72  0.001478339    2.096    0.523
       277 -12.1433     74.6781     35.7986   3.9812044390e+01   6.0862056212e+01     0.426179    0.3807438  46.44 0.0004516993    1.190    0.160
       278 -10.1351     73.7716     31.3977   3.8208415905e+01   6.1761938608e+01    0.2734832     0.230369  25.39 0.0003609865    1.135    0.119
       279 -11.4770     62.2479     40.8442   4.7027374313e+01   6.2281336768e+01    0.3710686    0.3393272  82.09  0.002164856    1.428    0.300
       280 -11.7301     64.8454     36.6282   4.4122753654e+01   6.2585909804e+01     0.375847    0.2581589  42.03  0.000134813    1.480    0.324
       281 -12.3132     50.5304     66.9521   6.1457781131e+01   5.8608424528e+01    0.9362531    0.3294519 -45.86  0.001385901    2.688    0.628
       282  -9.4590     23.8347     41.6487   6.6187466839e+01   6.7231526914e+01    0.5262489    0.2455987 -69.67  0.002175742    2.949    0.661
       283 -12.7689     27.6248     37.6480   6.2708015846e+01   6.7711405331e+01     0.278237    0.2455563 -17.36 0.0003577406    1.073    0.068
       284 -10.8639     24.3516     34.7272   6.3430020084e+01   6.8642073921e+01    0.2343697    0.2046604 -44.56 0.0005607793    1.127    0.113
       285 -10.9380    226.4060     40.1546   1.0639727439e+01   2.3660223861e+01    0.3845568    0.1797862 -46.13  0.001794442    1.891    0.471
       286 -10.3733    187.0006     40.9934   1.5417650535e+01   3.2763743995e+01    0.1917908    0.1658468  29.18  0.001060029    1.374    0.272
       287 -10.6391    235.4386     39.8252   9.7021217706e+00   2.1760354357e+01    0.3519901    0.1934642  84.90  0.001688945    2.169    0.539
       288  -9.5548    104.4984     46.5020   3.4139552284e+01   5.2631418752e+01    0.1476498    0.1415025  27.75 0.0008106875    1.006    0.006
       289  -9.2358    135.2918     39.2991   2.3690331136e+01   4.6178074012e+01    0.2103744    0.1330232 -41.48 0.0004102768    1.631    0.387
       290 -10.5589    134.4682     34.9481   2.2320372928e+01   4.6992140962e+01    0.3022498    0.2168467 -86.55 0.0003738005    1.699    0.411
       291  -9.6953    154.9852     37.7490   1.9360552555e+01   4.1321137280e+01    0.2048485    0.1880511 -78.91  0.000993705    1.075    0.070
       292 -10.8324    247.9747     36.2388   7.7980521688e+00   1.9612515902e+01     0.211718    0.1582347 -49.41 0.0003131542    1.110    0.099
       293 -10.2938    203.6856     36.6931   1.2164088627e+01   2.9274483100e+01    0.2984967    0.1376137  56.04  0.001295336    2.238    0.553
       294 -10.9109      9.9542     34.9776   7.1847216997e+01   6.9744286289e+01    0.3781299    0.2999049  68.44  0.002169342    1.719    0.418
       295 -10.1409    182.2980    246.6707   6.0469367546e+01   8.3789763474e-01    0.1031917    0.0810305  48.05  0.000273817    1.638    0.390
       296 -12.4727     74.7864    239.9277   8.0662253569e+01   1.6506409578e+01    0.6114407    0.4293905 -51.74  0.004071556    1.911    0.477
       297  -9.3464    102.4935    243.4956   7.5454176551e+01   1.2301298758e+01    0.1189775    0.0907317  43.16 0.0008105706    1.019    0.019
       298 -11.1923     88.8861    240.9284   7.7931094634e+01   1.4527396149e+01    0.1955814    0.1535494 -62.65  0.001089948    1.595    0.373
       299  -9.5465    115.6825    240.3288   7.2516101368e+01   1.1002865446e+01    0.1211274   0.07599731  56.28 0.0007046488    1.682    0.405
       300 -12.1484     34.3158     22.6064   5.2509905930e+01   6.9852115755e+01    0.2751276    0.2225307 -15.25 0.0001498681    1.101    0.092
       301 -11.9220     28.8827     19.7315   5.4248437152e+01   7.1049196559e+01    0.3248445    0.2184022  -0.33 0.0004214921    1.610    0.379
       302 -10.6180     35.1366    237.9072   8.8322501879e+01   2.1478571286e+01    0.1822289     0.109804  58.17 0.0009883655    1.287    0.223
       303  -9.7502      1.4398     37.0772   7.7422790642e+01   6.9745222471e+01    0.1846327    0.0979462 -62.45   0.00100819    1.549    0.354
       304 -10.5192    193.9338     34.8435   1.2806868148e+01   3.1850806942e+01    0.4241966    0.1472077 -38.22  0.001264765    2.514    0.602
       305  -9.7476    129.2573     35.9357   2.3793737691e+01   4.8188099476e+01    0.1975681    0.1876968  31.22 0.0003146869    1.081    0.075
       306 -12.1044    240.7906     34.2666   7.9426208230e+00   2.1311387095e+01    0.2358106    0.2024546 -58.00 0.0003280949    1.041    0.039
       307 -10.4732    110.5879     34.9028   2.7918839674e+01   5.2988095532e+01    0.3704379    0.1980941  49.12  0.001585692    1.755    0.430
       308  -9.5791     34.0672     33.7067   5.7650253294e+01   6.7794982029e+01    0.1726703    0.1540633 -12.99 0.0006127958    1.058    0.055
       309  -9.0845    141.2321     33.6291   2.0500239889e+01   4.5425986926e+01    0.1494513    0.1043647 -57.13 0.0003261527    1.602    0.376
       310 -10.2769    118.3641     32.7425   2.5111201229e+01   5.1375179989e+01    0.4163019    0.2069729  36.88  0.001581879    2.475    0.596
       311  -9.7335    221.6800     31.9597   9.0893405282e+00   2.5705033029e+01    0.1841998    0.1457887 -46.09  0.000225624    1.119    0.106
       312 -10.7629     17.3947     31.4707   6.6242784425e+01   6.9940628034e+01    0.4283561    0.2212759   7.05  0.001556564    2.316    0.568
       313  -9.9309    163.1380     29.0111   1.5231664729e+01   4.0333056022e+01    0.4512346    0.1776337 -17.64  0.001466917    3.827    0.739
       314  -9.3702     49.5416     29.7831   4.7957207438e+01   6.6383903307e+01     0.184211    0.1235223 -52.32  0.000833345    1.766    0.434
       315 -11.7386    233.8045     27.2757   6.8991200353e+00   2.3599838743e+01     0.357523    0.2314697 -86.41 0.0003736581    1.621    0.383
       316 -11.4456    196.9692     27.9924   1.0576826818e+01   3.1945167244e+01    0.4569829    0.2313631  83.27  0.001440965    2.234    0.552
       317 -11.0141    122.3559     20.0306   1.9289661269e+01   5.1965606654e+01    0.3900996    0.2611865  26.07  0.001384708    1.796    0.443
       318 -11.3477    112.2791     27.1730   2.4407923268e+01   5.3631831184e+01    0.4850079    0.3112721  24.94  0.001240519    1.953    0.488
       319 -11.0895    118.8201     27.4081   2.2938220407e+01   5.1968258955e+01    0.4571399    0.3244188  77.95  0.001564281    1.583    0.368
       320 -10.1612    101.3826     28.1999   2.7700890468e+01   5.6142177903e+01    0.2950736    0.2093723 -65.21 0.0009661467    1.938    0.484
       321  -9.8104     12.1884     29.2209   6.8570615220e+01   7.0810950265e+01     0.180233    0.1339044 -29.40 0.0003856678    1.188    0.158
       322  -9.7679    145.6722     27.5127   1.7570068692e+01   4.5050454367e+01    0.2984066    0.1910445  -4.72   0.00101381    2.121    0.529
       323 -10.3149    133.2624     27.4477   1.9860912594e+01   4.8276890921e+01    0.3120203     0.204886  50.46 0.0009476674    1.453    0.312
       324 -10.5727     59.5798     21.6713   3.9385116929e+01   6.6003508172e+01    0.3943056    0.2036929  39.10  0.001844848    1.884    0.469
       325  -9.7927     61.2759     28.6604   4.2040811483e+01   6.4589598316e+01    0.2480016    0.1944677 -61.07 0.0007239956    1.764    0.433
       326 -10.1230     59.0147     26.2094   4.1865171966e+01   6.5395675197e+01    0.2953944    0.1687018  40.87   0.00105916    1.729    0.421
       327 -10.7197    239.9498     26.0736   6.1333520374e+00   2.2438068253e+01    0.3412355    0.1585678 -49.29  0.001659955    1.850    0.459
       328 -11.5046    215.9754     25.6028   8.0380986874e+00   2.7741443993e+01    0.3942254    0.2344801  67.97  0.001077776    1.706    0.414
       329 -10.9080    176.5874     26.7206   1.2650775785e+01   3.7160984144e+01    0.2836247    0.2107076 -71.39 0.0005861628    1.369    0.270
       330  -9.9378     80.1230     26.6935   3.3731327067e+01   6.1165767365e+01     0.236333     0.186989 -37.84 0.0008105595    1.346    0.257
       331  -9.4309    191.1908    235.8950   5.7375677302e+01   9.8041798356e-01    0.1587666    0.1123099   5.71  0.001047052    1.331    0.249
       332 -10.1349     90.4017     25.7158   2.9878403806e+01   5.9037570379e+01    0.2553841    0.1792758  50.97 0.0007286623    1.352    0.261
       333 -11.1561    160.5928    235.1982   6.3042693540e+01   5.3872779205e+00    0.2714085    0.1573978  24.18  0.001073066    1.577    0.366
       334 -10.6947     64.6675     19.0312   3.5902279388e+01   6.5425338205e+01     0.447922    0.2801822  69.98  0.001925815    2.909    0.656
       335 -10.0761     56.7595     17.5531   3.8522296604e+01   6.7132118285e+01    0.3553983    0.2021064  15.83 0.0009827145    2.521    0.603
       336  -9.9846     67.4391    236.0212   8.1835700436e+01   1.8097161368e+01    0.2190988    0.1471829  24.42  0.001372306    1.661    0.398
       337 -10.9865    182.9751    234.1763   5.8649345155e+01   2.3440941787e+00    0.2742052     0.209132  30.76  0.001206283    1.163    0.140
       338 -10.4957     54.6816     24.2938   4.2892848939e+01   6.6466262242e+01     0.332316    0.2243346 -59.19 0.0008867105    2.302    0.566
       339 -11.6762    185.6406    227.9888   5.7268148835e+01   2.7898768960e+00    0.5892154    0.3125393  21.24  0.003152686    1.877    0.467
       340  -9.9043     59.8586    240.8867   8.3684975522e+01   1.8167019058e+01    0.1643404    0.1362302  38.77  0.000944315    1.238    0.192
       341  -9.4354    165.2860     17.2948   1.1239197088e+01   4.1120407432e+01    0.2409345     0.141427  51.07 0.0001951256    1.743    0.426
       342 -10.3114    159.8598     24.0235   1.4128319020e+01   4.1774844631e+01    0.3327339    0.1929635 -37.82  0.001410182    1.713    0.416
       343 -10.5436    161.5963     20.2337   1.2665002064e+01   4.1754389722e+01    0.3465755    0.2451657 -16.92  0.001758654    1.633    0.388
       344  -9.9967     32.1859    230.1473   8.8502006430e+01   2.3191289414e+01    0.1718637    0.1323719  37.43 0.0008861462    1.310    0.236
       345 -10.6208     30.8626    234.8919   8.8997733279e+01   2.2467836839e+01    0.3167247    0.1543508 -82.88  0.001674865    2.142    0.533
       346 -10.4103    224.4975     21.5619   6.3010585284e+00   2.6277802822e+01    0.2130458    0.1863629 -59.60 0.0002160322    1.040    0.039
       347  -9.4807    156.0629     21.7050   1.3938385607e+01   4.3026878422e+01    0.1976297    0.1721905  73.13 0.0004359264    1.073    0.068
       348  -9.1912     48.3030     22.7229   4.5162292330e+01   6.7786572597e+01    0.1153437    0.1069983  85.57 0.0002603484    1.544    0.352
       349 -10.5078    193.2770     20.9159   9.0347231793e+00   3.3658747497e+01    0.2302504    0.1986267  64.78 0.0002433449    1.210    0.174
       350 -10.2154    193.7742     16.5856   7.7928538446e+00   3.4011132709e+01    0.2946257    0.1762062 -88.78  0.001447543    1.723    0.420
       351 -11.6805     39.4414    230.2600   8.7069157537e+01   2.2393351987e+01    0.3602819    0.2005178 -75.05  0.002168639    1.936    0.484
       352 -10.0152     87.1257     20.1270   2.8373903213e+01   6.0522527478e+01    0.2085627    0.1718417  27.34            0    1.170    0.146
       353  -9.5107     41.4314     19.4892   4.7036921360e+01   6.9388305525e+01    0.1307071    0.1102699  -7.57 0.0001307925    1.039    0.037
       354 -10.1355     58.3153    229.0137   8.3175334199e+01   2.0460648608e+01    0.3132814    0.1056035  43.00  0.001517634    2.150    0.535
       355  -9.8234    216.1840     16.2935   5.6912766459e+00   2.8730898519e+01    0.3937227   0.05639674  64.60  0.001220023    4.952    0.798
       356  -9.5225    108.5362     16.4727   2.0915303957e+01   5.5853538430e+01    0.1414987    0.1291557  46.84  2.14439e-05    1.013    0.013
       357  -9.4574    169.3021    228.6904   6.0478386401e+01   5.0513060260e+00     0.111873   0.08704253  52.52 0.0002743723    1.605    0.377
       358  -9.6808     76.6655     15.9075   2.9808587811e+01   6.3372374753e+01    0.2158276    0.1651029  26.12 0.0002350005    1.271    0.213
       359  -9.7620     45.7164    244.5379   8.6646433841e+01   1.9166663557e+01    0.1632704   0.07149996  44.65 0.0009460017    1.631    0.387
       360  -9.7709      3.6923    225.8930   9.3853084276e+01   2.6731933703e+01    0.1513198    0.1188488 -78.78  0.001118903    1.470    0.320
       361  -9.6007    109.6546    222.7121   7.1852159757e+01   1.4779040437e+01    0.1189306   0.09099465   8.16  0.000571115    1.652    0.395
       362  -9.9359     79.6749    222.6803   7.8207824736e+01   1.8934180500e+01     0.110597   0.09278523  -3.91 0.0005025278    1.678    0.404
       363  -9.8337     16.3234    222.0777   9.1260486377e+01   2.6286454080e+01    0.1537469    0.1122252  70.63 0.0005766738    1.122    0.109
       364 -11.4901    249.0975     20.8071   4.2912688964e+00   2.1150647666e+01    0.2633222    0.1775436 -52.64 0.0003179006    1.221    0.181
       365  -9.3949    123.6194    221.7507   6.8798152630e+01   1.2903686263e+01    0.1233531   0.08761824  14.17 0.0006951944    1.651    0.394
       366 -11.5784     48.4601    218.6246   8.4492942540e+01   2.3565822433e+01    0.4906241    0.2326306  25.29  0.002463024    2.427    0.588
       367  -9.3261    176.3303    218.7193   5.7677345426e+01   5.4445886642e+00     0.115104   0.08917148  51.20 0.0003110497    1.605    0.377
       368  -9.6210    135.9754    216.9751   6.5597530395e+01   1.1850854823e+01     0.197487    0.1390476  58.20  0.001128627    1.660    0.398
       369  -9.8614     70.3331    217.6958   7.9759930812e+01   2.1081138643e+01    0.1306593   0.07314856  57.74 0.0007037577    1.661    0.398
       370  -9.7149    211.8639    219.0805   5.1127799554e+01   2.5493114157e-01    0.1683051    0.1445801  17.83  0.001156661    1.254    0.203
       371 -10.1962     14.5198    215.3606   9.1336047089e+01   2.7742363419e+01    0.2036691    0.0979483  43.78  0.000767128    1.599    0.374
       372 -12.2712     11.6299    210.0432   9.1699407510e+01   2.9048800132e+01    0.4999419    0.2929548 -72.68  0.003213151    1.778    0.438
       373 -12.2238      5.3679    211.1095   9.3017842015e+01   2.9396889772e+01    0.6401597    0.2124598  86.39  0.003036988    2.999    0.667
       374 -11.6132      3.5882    206.0266   9.3193158056e+01   3.0552354388e+01    0.3128386    0.2549807  54.26  0.002171759    1.173    0.148
       375 -10.8551     29.4197    215.2974   8.8274368494e+01   2.6289657504e+01    0.2214531    0.1944858  41.47  0.001328287    1.294    0.227
       376  -9.4040     23.9683    216.0457   8.9440472938e+01   2.6696788306e+01    0.1382408    0.1045376  63.40  0.000416485    1.029    0.028
       377  -9.7411    110.3783    211.8376   7.0428808925e+01   1.6613457611e+01    0.1619729    0.1166473 -43.56 0.0009418858    1.716    0.417
       378  -9.8636    216.9966    209.2696   4.8635852236e+01   7.9250295672e-01    0.1692413    0.1332687   8.65 0.0007914393    1.007    0.007
       379 -10.3242    195.7895    238.4383   5.6900879473e+01   3.6099078771e-02    0.2091722    0.1740432   3.81 0.0009830149    1.176    0.150
       380 -11.4745     19.1953    202.8237   8.9772730732e+01   2.9791585467e+01    0.5327716    0.1432104 -73.05  0.002321829    3.411    0.707
       381  -9.9386    148.0656    205.8085   6.1479825903e+01   1.1846308301e+01    0.2586537    0.1673592  19.67   0.00136445    1.661    0.398
       382 -10.4536     28.1532    205.2003   8.7972654583e+01   2.8426728900e+01    0.1687416    0.1040809  60.20 0.0004711847    1.322    0.243
       383  -9.8431    206.0000    203.9738   4.9723898674e+01   3.0943815026e+00    0.1884326    0.0662908 -37.83 0.0008115325    3.006    0.667
       384  -9.8967     67.3907    203.1799   7.9098176870e+01   2.4307870138e+01    0.2262294     0.147665  40.38            0    1.315    0.240
       385 -10.5200    175.2304    202.0961   5.5303846005e+01   8.1174796605e+00    0.2262395    0.1619932  34.39 0.0004159621    1.229    0.186
       386  -9.3187     95.3313    200.3241   7.2409074296e+01   2.1026523265e+01    0.1243575    0.1005005  -6.88 0.0007050419    1.704    0.413
       387  -9.8513     41.1527    198.1484   8.4632562414e+01   2.8496375599e+01    0.2925039   0.08473814 -77.50  0.001117122    3.878    0.742
       388  -9.8808    134.9604    196.4412   6.2915437018e+01   1.5604099805e+01    0.1799981     0.176097 -14.73 0.0004812307    1.158    0.137
       389  -9.1849     56.4730    197.4739   8.1075092922e+01   2.6852297989e+01    0.1237136    0.1058037  59.09 0.0004938598    1.050    0.048
       390  -9.3625    215.4794    194.4632   4.6380338967e+01   2.9914370681e+00    0.1249211    0.1007949   6.70 0.0001490027    1.009    0.009
       391 -12.0266     15.6775    191.9846   8.9981124633e+01   3.2365266356e+01    0.3604404    0.3343171  59.21   0.00179894    1.259    0.206
