#   1 NUMBER                 Running object number                                     
#   2 MAG_AUTO               Kron-like elliptical aperture magnitude                    [mag]
#   3 X_IMAGE                Object position along x                                    [pixel]
#   4 Y_IMAGE                Object position along y                                    [pixel]
#   5 X_WORLD                Barycenter position along world x axis                     [deg]
#   6 Y_WORLD                Barycenter position along world y axis                     [deg]
#   7 A_WORLD                Profile RMS along major axis (world units)                 [deg]
#   8 B_WORLD                Profile RMS along minor axis (world units)                 [deg]
#   9 THETA_WORLD            Position angle (CCW/world-x)                               [deg]
#  10 FWHM_WORLD             FWHM assuming a gaussian core                              [deg]
#  11 ELONGATION             A_IMAGE/B_IMAGE                                           
#  12 ELLIPTICITY            1 - B_IMAGE/A_IMAGE                                       
         1 -15.4348    243.4759     83.3935   3.4518784648e+01   1.6759444009e+01     5.750935     1.972461  50.03    0.0190901    4.103    0.756
         2 -14.4142    233.0195     41.7290   2.7466630371e+01   2.4336596407e+01      2.65294     1.752558  -0.86   0.01175831    5.002    0.800
         3 -13.7030    245.7423     33.7472   2.5059659686e+01   2.3076923900e+01     2.205812    0.6606622 -60.65  0.009015622    3.976    0.749
         4 -14.2399    199.6499     58.8495   3.4223923302e+01   2.8461867271e+01      11.4857    0.8762232 -41.38   0.03159599    6.009    0.834
         5 -13.7777    220.6585     25.2578   2.5192824497e+01   2.8639695219e+01     2.348123     1.248935 -22.39    0.0119814    3.083    0.676
         6 -14.9394    235.0860    103.7998   3.9398708721e+01   1.5000058228e+01     6.318579     1.063501 -45.43   0.01938116    4.822    0.793
         7 -11.3431    138.9175     25.1302   3.3689322606e+01   4.6309503684e+01     1.083968    0.5008036 -10.62  0.003670736    5.445    0.816
         8 -10.8612    142.1066     14.5315   3.0227164189e+01   4.6661627727e+01    0.8237324    0.3474664 -17.57  0.003386838    3.822    0.738
         9  -9.4434    201.0269     12.3775   2.3998016292e+01   3.3936880052e+01    0.2274157    0.2156772   4.41 0.0007416151    1.597    0.374
        10 -11.0005    202.5107     21.3219   2.5771254634e+01   3.2664729843e+01    0.5637529     0.452036  -0.44  0.001836883    2.104    0.525
        11 -10.1807    134.7538     20.1474   3.2854222386e+01   4.7815789012e+01    0.2549249    0.2242688  -6.82  0.001643552    1.457    0.314
        12  -9.7983    125.3195     14.4815   3.2565065175e+01   5.0591571256e+01    0.2620408    0.1852673  53.66  0.001547527    1.355    0.262
        13 -11.3569    119.0383      9.8010   3.2066506127e+01   5.2493117610e+01    0.6245645    0.3807183  52.77  0.002881622    1.524    0.344
        14  -8.3752    246.6169      8.8920   2.0597190523e+01   2.5747105485e+01    0.1455772   0.09328831 -55.42 0.0005762553    1.153    0.133
        15 -13.6863    242.8082     43.3228   2.7021071183e+01   2.2398696157e+01      1.75466     1.054962 -11.34  0.001144514    5.964    0.832
        16  -9.0875    229.3071      5.3678   2.0853900446e+01   2.9193932361e+01     0.160439    0.1413032 -39.11 0.0005767726    1.518    0.341
        17 -10.5572    234.3334      2.6107   2.0094216055e+01   2.8562081159e+01    0.4205239    0.2126002  64.00   0.00188344    2.304    0.566
        18 -10.7086    246.6742      2.4045   1.9475399897e+01   2.6413490069e+01    0.3313906    0.1884909  78.34  0.001799136    1.751    0.429
        19  -8.5910     94.3675      3.4151   3.4153931220e+01   5.8754318583e+01    0.2089857    0.1094984   5.22 0.0009564753    3.116    0.679
        20  -9.3298    189.9998      9.2675   2.4153510109e+01   3.6533584554e+01     0.179115    0.1473669 -61.97 0.0004767576    1.153    0.133
        21  -9.9941    192.3676    193.7996   6.3939938886e+01   5.7248039318e+00    0.9272948    0.4738004 -62.73  0.002786154    6.187    0.838
        22  -9.0007    148.5292    250.1580   8.2293324125e+01   1.4737663085e+00    0.2281996     0.155687  15.83 0.0005785284    1.291    0.226
        23  -7.9072    114.9225    193.8063   8.1603802472e+01   1.7658055640e+01    0.1874719    0.1648336  57.44  0.000287793    1.262    0.208
        24  -8.9859      3.8836    190.3129   1.1137880512e+02   3.2271242662e+01    0.2182621    0.1821769 -68.74 0.0003812094    1.211    0.174
        25 -11.1327    220.5618    186.1208   5.7377165396e+01   3.2203289707e+00    0.5553317    0.3657596  43.84  0.001821698    1.986    0.496
        26 -10.6523    209.9106    185.3087   5.9087577841e+01   4.7954430785e+00    0.5500246    0.4037551  58.43  0.003011253    2.236    0.553
        27 -11.2933    237.0293    174.8866   5.2665674098e+01   2.9648795187e+00    0.7152869    0.4554011 -66.54  0.001365624    3.479    0.713
        28  -8.6179    232.7875    182.8361   5.4767347427e+01   2.1962532692e+00    0.1538971    0.1328651 -41.93 0.0005280898    1.324    0.245
        29  -7.3192    228.3677    181.2901   5.5198606600e+01   3.0172148877e+00    0.1279267   0.08354543 -11.11 0.0007024746    1.710    0.415
        30 -13.4269    173.2482     91.1294   4.5595228092e+01   2.8828860517e+01     2.326151     1.907529  -2.48   0.01243073    1.693    0.409
        31  -8.7853    237.2097    249.5818   6.5162945408e+01  -8.3299414922e+00    0.1462849   0.08441429   7.35 0.0006024563    1.577    0.366
        32 -10.3015    195.6322    173.0185   5.9384704379e+01   9.1164524714e+00     0.451719    0.3260899 -87.40  0.002021306    3.032    0.670
        33 -12.4221    250.0150    101.1608   3.7193215077e+01   1.3041063156e+01    0.8489558    0.4239785 -40.36 0.0004267846    1.585    0.369
        34  -8.2169    211.2859    177.6334   5.7410617795e+01   5.9630919163e+00    0.1231929   0.09893579 -62.67 0.0003071078    1.697    0.411
        35  -9.2620    179.8241    174.8287   6.2853710382e+01   1.1244970012e+01    0.1846309     0.171626 -71.17  0.001081907    1.353    0.261
        36  -9.5771    151.2797    172.6098   6.8668516315e+01   1.6446489106e+01    0.2608131    0.2307417 -30.85 0.0003041841    1.070    0.066
        37  -9.3943    212.8663    168.2621   5.5353938196e+01   7.4073574778e+00    0.3428032    0.2806166 -85.16   0.00153031    1.977    0.494
        38  -8.4735    209.7411    163.9856   5.5066645607e+01   8.6411052130e+00     0.212227    0.1896239  74.08 0.0009588581    1.563    0.360
        39 -10.2104    186.8953    169.4386   6.0368584851e+01   1.1171204329e+01    0.3839856    0.2337597  60.90  0.001606747    2.999    0.667
        40  -8.0584    156.9764    170.2429   6.6880533423e+01   1.5983043419e+01    0.1996912    0.1835902  12.09  0.001113047    1.090    0.082
        41 -10.9038    189.0042    147.9730   5.5580558120e+01   1.5005874951e+01    0.6695225    0.2800154 -39.61  0.002686042    2.203    0.546
        42  -9.6803    186.3815    144.1732   5.5275229666e+01   1.6205163957e+01    0.2892298     0.228093  30.24  0.001535479    1.429    0.300
        43 -10.7111    201.5895    165.5022   5.6809766621e+01   9.6066198842e+00     0.681896    0.4660257 -88.97  0.002719898    3.951    0.747
        44  -9.5406    198.7919    153.4917   5.4914834627e+01   1.2302718056e+01     0.271396    0.2304649 -23.67 0.0006121796    1.107    0.097
        45 -10.2396    202.0936    150.6422   5.3747770357e+01   1.2297471109e+01    0.4843948    0.2728677  56.63  0.002197995    2.611    0.617
        46 -10.6291    192.9785    154.2826   5.6142507094e+01   1.3111793659e+01    0.5132115    0.4228145  62.11  0.002230045    1.576    0.365
        47  -8.5119     94.9055    164.0135   8.1762586776e+01   2.8142389841e+01    0.2168862    0.2127472 -21.03 0.0002765696    1.018    0.018
        48  -7.3758    159.3247    247.3146   7.9590335197e+01   6.0026225843e-01    0.1321432   0.08514281  -7.04  0.000372144    1.665    0.399
        49  -8.4518    203.0746    160.6640   5.5586548833e+01   1.0274646183e+01     0.178754    0.1615233 -11.76 0.0006123819    1.108    0.097
        50  -8.0577    183.6245    153.8307   5.7839641303e+01   1.4782923170e+01    0.2040073    0.1224037 -52.14 0.0009369086    1.724    0.420
        51  -9.6600    133.5530    144.9095   6.7143585152e+01   2.5890560068e+01     1.149102    0.2904663 -54.96   0.00242294    6.976    0.857
        52 -12.6158      7.1590    142.4391   1.0642160088e+02   4.4547925864e+01    0.9846094    0.8399819 -72.67  0.003688355    1.038    0.037
        53  -9.2820    217.3784    145.9926   5.0254965742e+01   1.0700907216e+01    0.4227373    0.2380901 -45.52  0.001214408    1.540    0.351
        54 -10.5556    211.7043    138.4212   4.9641710646e+01   1.2963174298e+01    0.5482116    0.4033112 -74.84  0.002607415    1.944    0.485
        55 -11.0463     28.5904    145.5815   9.9651679053e+01   4.1948174276e+01    0.5929285    0.3926401  76.36  0.002775661    1.722    0.419
        56  -8.6353    145.0123    147.4901   6.4881399064e+01   2.3131443291e+01    0.2331165    0.1506736  39.54 0.0001854099    1.607    0.378
        57 -11.9922     67.2804    130.1771   8.3660006318e+01   4.1322822978e+01     1.529587     1.371038  58.45  0.007955779    1.198    0.166
        58 -12.5866     45.8629    132.6077   9.1617382438e+01   4.3591105321e+01     1.271975    0.9765077 -38.75  0.004668651    1.327    0.246
        59  -8.5995    192.1267    143.9043   5.4145690961e+01   1.5251932195e+01    0.2047835    0.1768246 -59.88 0.0003588854    1.254    0.202
        60  -8.3216    198.4588    143.4482   5.2910274987e+01   1.4251567287e+01    0.1374912    0.1194002 -34.56 0.0004847691    1.020    0.020
        61 -11.1108     37.7700    134.9281   9.4880013846e+01   4.3894558044e+01    0.5077303    0.3497899   8.96  0.000870616    1.680    0.405
        62 -10.8916    182.5145    134.1066   5.3837807310e+01   1.8877111217e+01    0.6428027    0.2768934 -38.24  0.002525664    2.256    0.557
        63 -11.0464    187.5603    131.7359   5.2378312583e+01   1.8408510081e+01    0.5556928    0.4209255 -72.84  0.002870207    1.689    0.408
        64 -11.7607    184.9548    123.5230   5.1044076227e+01   2.0470155822e+01    0.7792876    0.6316295 -37.12  0.004346974    1.154    0.133
        65 -10.0865    224.4129    129.1570   4.5836396948e+01   1.2528764049e+01    0.4316825    0.3491658  54.41  0.002223351    1.520    0.342
        66  -9.4701    212.0400    131.3727   4.8147327898e+01   1.4171098525e+01    0.3438814    0.2351876  77.80   0.00159258    2.390    0.582
        67  -8.6133    199.3248    131.6667   5.0286922730e+01   1.6305468072e+01    0.1376911    0.1021533 -70.26 0.0004685376    1.710    0.415
        68 -10.4278    161.6280    127.6558   5.6588793410e+01   2.4181446474e+01    0.4830581    0.3341787 -36.15  0.001527811    1.434    0.303
        69  -8.4597    149.3475    245.9618   8.1529574018e+01   2.0969593062e+00    0.1723078     0.148172  -8.46  0.000471883    1.108    0.097
        70 -10.4033    195.7998    158.6059   5.6497337453e+01   1.1821298158e+01    0.5342056    0.3259386  46.03   0.00266881    1.931    0.482
        71 -11.2183     54.2559    132.4500   8.8635198858e+01   4.2570241270e+01    0.7091632    0.4681294 -54.79  0.001622755    1.424    0.298
        72  -9.2512    205.0388    123.5062   4.7616351555e+01   1.6789361099e+01    0.4590607    0.2191975 -55.64  0.001897351    2.509    0.601
        73 -10.6031     67.5518    143.7547   8.6323961538e+01   3.7701746222e+01     1.627363     0.742934  56.29   0.00497831    3.695    0.729
        74  -9.0316    214.8426    116.4869   4.4648998614e+01   1.6310815232e+01    0.3635933    0.2274161 -66.30  0.001803194    2.084    0.520
        75 -13.1576    247.9879     46.9667   2.7307885104e+01   2.1045976747e+01    0.8436307    0.5837085 -21.81  0.005340486    2.208    0.547
        76  -9.3177    117.8302    115.3861   6.4229944338e+01   3.5778849130e+01    0.2260739    0.1473223  31.35 0.0009538162    1.728    0.421
        77  -9.6442    192.4940    165.0351   5.8408163434e+01   1.1125666623e+01     0.381252    0.1219084 -43.57  0.001376667    2.784    0.641
        78 -10.0063     67.6516    110.7200   7.9035178234e+01   4.6238459701e+01    0.2620719    0.2474369  -9.96 0.0002844491    1.055    0.053
        79  -9.3343    196.3355    109.0570   4.5885528026e+01   2.0982836866e+01    0.3187125    0.1373598 -45.73  0.001042899    2.051    0.513
        80 -10.3483    142.5336     98.7800   5.3666071550e+01   3.4036931403e+01    0.4258255    0.3730112 -70.35  0.001249843    1.182    0.154
        81 -14.0196    248.1262     65.8419   3.0776708903e+01   1.8504900622e+01      1.12538    0.6793188 -47.71  0.004219891    1.267    0.211
        82  -9.1321    206.9635    179.1431   5.8465024457e+01   6.3086119829e+00    0.1882147    0.1728514 -42.55 0.0007326191    1.268    0.211
        83  -9.6083    197.3946    177.3620   5.9890317581e+01   8.0359461553e+00    0.3380392    0.2483348  19.72  0.001376836    1.478    0.323
        84 -10.5595    183.4083     79.5313   4.1154611731e+01   2.8659808275e+01    0.6332783    0.3816736 -45.55  0.002777715    1.506    0.336
        85 -10.1120    179.8692     72.0289   3.9898631873e+01   3.0619172287e+01    0.3998744    0.2794052 -35.33 0.0007482348    1.490    0.329
        86  -9.4792    179.1456    243.6559   7.4953379542e+01  -1.2316036756e+00    0.3362666    0.2679041   0.04  0.002075004    1.010    0.010
        87  -8.4149    105.0048     70.9617   5.5131367052e+01   4.7638797417e+01     0.221282    0.1741239  12.04            0    1.604    0.377
        88  -8.5858    136.9467     69.3362   4.6831946828e+01   4.0670663414e+01    0.2005387    0.1731127  62.60 0.0003592049    1.121    0.108
        89  -9.9805    172.9851     65.4315   3.9324337437e+01   3.3141713498e+01    0.2665991    0.1658126 -55.40 0.0006139587    1.568    0.362
        90 -12.1781    226.4904    108.4447   4.1398421301e+01   1.5676095559e+01     1.436309    0.5247153 -48.41  0.003536192    2.436    0.590
        91 -10.8732    167.9207     58.0777   3.8246166214e+01   3.5369394379e+01    0.4264742    0.3231525 -59.72  0.002432654    1.246    0.197
        92  -8.6341    161.5872     63.8097   4.0715805622e+01   3.5927594073e+01    0.2283129    0.1596673  71.40  0.001198325    1.433    0.302
        93  -8.6840    106.6958     58.8181   5.0770615477e+01   4.9333183797e+01     0.345796    0.2016765 -29.59  0.001109593    2.005    0.501
        94  -8.2602    187.4993     58.9552   3.5736372277e+01   3.0973701440e+01    0.1863541    0.1184488 -40.10 0.0004085881    1.510    0.338
        95  -7.7633    183.4653     57.4953   3.5917042784e+01   3.2045820608e+01    0.1299097    0.1137474 -71.51 5.101009e-05    1.026    0.026
        96 -10.9318    163.0826     52.9828   3.7670341712e+01   3.7194368375e+01    0.5333453    0.2821831 -45.18   0.00257045    1.810    0.447
        97 -10.2677    137.9175     49.1984   4.0840864423e+01   4.3537480594e+01    0.4931236    0.2693948 -16.14  0.001949058    3.246    0.692
        98 -11.6870    142.2060     42.0049   3.8013750008e+01   4.3509502123e+01    0.6352257    0.4614953  79.03  0.003113658    1.324    0.245
        99  -8.2935    125.3501     51.1454   4.3910372199e+01   4.6201902760e+01    0.3484752    0.1401893 -21.59 0.0009432834    6.209    0.839
       100 -11.5892    153.0334     43.9075   3.6800247616e+01   4.0741254288e+01    0.7681342    0.5115649 -40.32  0.003312093    1.531    0.347
       101  -8.3984    213.3185    242.3276   6.8198447200e+01  -4.9213643636e+00    0.1250718   0.07241083 -10.67 0.0003631891    1.681    0.405
       102  -7.5750    175.0001     47.9776   3.4730105892e+01   3.5224715292e+01    0.1542121    0.1322922 -67.36            0    1.051    0.049
       103  -7.6414    103.2734     42.7097   4.6260351764e+01   5.2514153297e+01    0.1306469    0.1040592 -79.32 0.0006925876    1.514    0.340
       104 -10.0905    116.2765    236.9669   8.7729178471e+01   8.1554497621e+00    0.2473706    0.2219266 -36.54 0.0004831757    1.218    0.179
       105  -8.8482    169.7737     35.9000   3.2403884830e+01   3.7955735020e+01    0.3235369    0.2006656  57.14  0.001324384    1.663    0.399
       106  -9.0683    170.8839    236.3368   7.5525561963e+01   1.0113751635e+00    0.3960251    0.1885777  47.37  0.001591648    3.612    0.723
       107  -8.6598    165.5497    232.0739   7.5984086287e+01   2.4421027359e+00    0.2292565    0.1631739  37.74 0.0006153491    1.538    0.350
       108  -7.9597    181.4090     34.4075   3.0688195316e+01   3.5572390245e+01    0.2181748    0.1218359 -14.62 0.0009429522    3.466    0.711
       109  -8.3434    153.9985     32.5622   3.3596992366e+01   4.1948644084e+01    0.1800361    0.1595058 -65.19 9.007104e-05    1.118    0.105
       110  -8.5651    158.9833     30.4518   3.2371815229e+01   4.1054263996e+01    0.1975242    0.1813504  -1.28  0.000469511    1.451    0.311
       111  -8.7518     67.7384    227.1518   9.8240703306e+01   1.6659586315e+01    0.2151625    0.1851988  16.03 0.0004279085    1.221    0.181
       112  -8.5331    198.7787     28.3712   2.7599286287e+01   3.2618151490e+01    0.2211885    0.1037868  71.23 0.0006047204    2.030    0.507
       113  -8.9439    140.1773    224.7727   8.0448377678e+01   7.2572235878e+00    0.2110328    0.1944504  -0.53 0.0003813156    1.078    0.072
       114  -8.7582    245.4585    223.4894   5.9704746008e+01  -5.5045959850e+00     0.114343   0.08424032 -18.61 6.589625e-05    1.038    0.037
       115  -8.2984    233.6624    210.6939   5.9495622486e+01  -2.3570812029e+00    0.1243718   0.07457192 -12.61 0.0007041085    1.676    0.403
       116  -8.4237      8.3518    208.3124   1.1138654183e+02   2.7484604351e+01     0.126555   0.09235281 -40.98 0.0007045476    1.726    0.421
       117  -9.6811    249.0977    195.8589   5.4527285970e+01  -1.7914535984e+00    0.2472486     0.230876 -56.40  0.001579853    1.663    0.399
       118 -10.9888    247.3473    203.3486   5.6068852028e+01  -2.7363943193e+00    0.5165392    0.3738707 -30.59  0.003594697    1.140    0.123
       119  -9.5130    228.3760    191.6761   5.7067230937e+01   1.2944316940e+00    0.2890996     0.247148 -58.31   0.00105399    1.665    0.399
       120 -10.1539    238.5059    197.4938   5.6448131909e+01  -8.5068260737e-01    0.3815124    0.2793247  58.91  0.002164159    2.781    0.640
       121  -9.2726    233.5122    196.0378   5.6996263146e+01  -3.5659431801e-02    0.2457305    0.1757115  31.82  0.001136152    1.661    0.398
       122  -8.0107      1.3035    205.7804   1.1296521786e+02   2.8679143451e+01    0.1710151    0.1002842 -73.72 0.0004589625    1.597    0.374
