#   1 NUMBER                 Running object number                                     
#   2 MAG_AUTO               Kron-like elliptical aperture magnitude                    [mag]
#   3 X_IMAGE                Object position along x                                    [pixel]
#   4 Y_IMAGE                Object position along y                                    [pixel]
#   5 X_WORLD                Barycenter position along world x axis                     [deg]
#   6 Y_WORLD                Barycenter position along world y axis                     [deg]
#   7 A_WORLD                Profile RMS along major axis (world units)                 [deg]
#   8 B_WORLD                Profile RMS along minor axis (world units)                 [deg]
#   9 THETA_WORLD            Position angle (CCW/world-x)                               [deg]
#  10 FWHM_WORLD             FWHM assuming a gaussian core                              [deg]
#  11 ELONGATION             A_IMAGE/B_IMAGE                                           
#  12 ELLIPTICITY            1 - B_IMAGE/A_IMAGE                                       
         1 -13.9832     68.5201    144.9206   8.7098566232e+01   3.6953908325e+01     4.131668     1.937204  82.74  0.002667571    4.483    0.777
         2 -12.8105    231.0137     28.3343   2.2820078870e+01   2.3362924030e+01     1.028353    0.8645365  51.58  0.003555981    1.287    0.223
         3 -13.3665    213.7587     43.6177   2.9239537122e+01   2.5751785079e+01      2.38036     1.554268  34.51  0.008932061    1.913    0.477
         4 -10.6507    250.1118      7.0734   1.5553743623e+01   2.1194673165e+01    0.6152301    0.2061946 -28.69  0.002403279    2.870    0.652
         5  -9.7447      1.8676      5.3427   7.6698552698e+01   7.2016755663e+01    0.3350043   0.06567715 -55.18  0.001199417    5.165    0.806
         6  -8.3135    168.8660    236.1689   7.9786361981e+01   3.6833759225e+00    0.1435391    0.1201586  29.74 0.0003295269    1.277    0.217
         7 -15.6801     32.2648    183.2497   9.8645204107e+01   3.3212388991e+01     9.799301     3.743762  71.04   0.04274942    3.107    0.678
         8  -7.9993    224.0186    207.0350   6.5824342246e+01  -2.1162402834e+00    0.1476984     0.119068  28.84            0    1.012    0.012
         9  -8.7874     86.9534    205.9928   9.0743763744e+01   2.1876305330e+01    0.1807837    0.1376217  71.57 0.0003661074    1.037    0.036
        10 -13.7635     10.3791    206.9845   1.0387252827e+02   3.0933450326e+01    0.8938892    0.5367664  71.58   0.00260406    1.180    0.152
        11  -8.7730    123.9246    202.5326   8.3498587279e+01   1.6650941062e+01    0.1803222     0.153132 -85.49  0.000543759    1.215    0.177
        12  -9.8431    192.9727    195.2883   6.9372738028e+01   5.2176168624e+00    0.8332615    0.3920425 -61.73  0.002162952    9.053    0.890
        13  -7.7113    158.0000    193.0327   7.5620635070e+01   1.2213668023e+01    0.1858251    0.0766049 -48.51 0.0005290917    2.800    0.643
        14 -13.8131      3.1300    218.8119   1.0554227957e+02   2.9531954577e+01     2.084076    0.5986221 -88.71  0.009966109    3.277    0.695
        15  -8.7553     99.2127    181.0992   8.5502752056e+01   2.4781284536e+01    0.1768152     0.163163  86.54 0.0005821906    1.207    0.172
        16 -11.2915     56.7192    172.4146   9.2995909728e+01   3.2590183648e+01    0.3502364    0.2804421 -32.92  0.001814612    2.128    0.530
        17 -11.2403     62.3268    167.4949   9.1324172817e+01   3.2904513365e+01    0.2843219    0.2532977 -64.52  0.001194702    1.389    0.280
        18 -11.4407    240.0778    170.5073   5.6181911053e+01  -1.8068509028e-01    0.5681595     0.325826   2.79  0.001867303    2.696    0.629
        19 -11.7429     73.2443    158.5729   8.7930377843e+01   3.3340264155e+01    0.6041951     0.398331  45.38 0.0006792073    1.550    0.355
        20 -11.8934     80.5873    152.5290   8.5482647567e+01   3.3603818757e+01    0.6497957    0.5172334 -35.56  0.002136656    1.795    0.443
        21 -12.3450     15.9587    248.8997   1.0499806129e+02   2.3300170639e+01    0.2533821     0.142414  77.60  0.001086457    1.244    0.196
        22  -9.6819    230.4745    167.4797   5.7249668166e+01   2.0981793368e+00    0.2362917    0.1204923 -44.67  0.001036055    2.384    0.581
        23  -8.9696    110.8126    167.6774   8.1194213449e+01   2.5589122933e+01    0.2361187    0.1751556 -77.51 0.0005497814    1.356    0.262
        24 -11.6587     36.3347    160.5155   9.5892786249e+01   3.7413649014e+01    0.8254076    0.3228776  60.35  0.003899776    2.805    0.643
        25 -10.4127     32.6854    157.2922   9.6325613319e+01   3.8468574489e+01    0.2248286    0.1880946  72.33 0.0005424565    1.204    0.169
        26 -12.8616     59.5309    153.8139   9.0283798341e+01   3.6173833315e+01    0.5947402    0.3667091 -72.53  0.001401788    1.409    0.290
        27 -15.0627      7.3585    245.3807   1.0603214080e+02   2.4726695151e+01      2.29125     1.020114  32.68   0.01338723    4.000    0.750
        28  -8.8232    133.6248    146.3186   7.2474441657e+01   2.5858049279e+01    0.2798994    0.1352492 -55.40  0.001140249    2.195    0.545
        29 -12.9458     26.1290    197.0309   1.0071129056e+02   3.1197562866e+01    0.7988641    0.3675677  48.45   0.00228943    1.887    0.470
        30  -9.7578     95.9771    140.0006   7.9953496642e+01   3.3987980668e+01    0.3167915    0.2637081 -67.92 0.0007888001    1.132    0.117
        31  -8.9098     99.0338    136.9662   7.8689629299e+01   3.4157883141e+01     0.354707    0.2494116 -25.02  0.001661462    2.395    0.582
        32  -8.0770    117.5019    138.0372   7.4541811737e+01   3.0688733823e+01    0.2032894    0.1202315 -79.06 0.0008091051    2.509    0.601
        33 -10.1485    106.7178    130.4689   7.5612731674e+01   3.4287451980e+01    0.3517011    0.3280021  -0.47  0.001326673    1.367    0.269
        34 -10.3872     67.0519    127.1548   8.4721847206e+01   4.1109351302e+01    0.4568018    0.2379301 -75.76  0.002132511    2.050    0.512
        35  -8.0569     95.7038    124.7000   7.7170964662e+01   3.7440639685e+01    0.1309185    0.1083154 -27.71 0.0002490127    1.574    0.365
        36 -13.5071     55.1193    233.1875   9.8401262193e+01   2.1395327229e+01     1.427889    0.5367012 -77.88  0.005950536    2.756    0.637
        37  -9.1068    105.3698    118.5011   7.3469469044e+01   3.7182982975e+01    0.2278776    0.1972853 -55.60 0.0003636726    1.124    0.110
        38  -9.6946    231.2436    114.0892   4.5097743572e+01   1.0311950900e+01      0.28644    0.2716956  47.12 0.0008475693    1.113    0.101
        39 -11.6824     83.5903    138.1028   8.2546235780e+01   3.6337431951e+01    0.3281116    0.2403851 -65.54 0.0004677746    1.246    0.198
        40  -9.2674    205.3763    110.5211   4.8893932813e+01   1.6931271427e+01    0.3063491    0.2490728  45.47 0.0007618611    1.226    0.184
        41  -9.9779     13.2311    111.0266   9.5777966456e+01   5.0125419448e+01     0.165578     0.118571 -76.87 0.0006230149    1.047    0.044
        42  -9.2878    244.3435    110.3116   4.2002075545e+01   8.0013949436e+00    0.1507598    0.1080336  14.86 0.0005317197    1.703    0.413
        43  -9.7247     69.7684    106.1586   8.0197918784e+01   4.5490450901e+01    0.4239664    0.2342334  64.33  0.001559512    2.670    0.625
        44  -9.8345     53.0484     90.1685   8.1605466359e+01   5.1127035385e+01    0.2410618    0.1625657 -58.08  0.001066978    1.232    0.188
        45  -9.7524     44.4512     90.4667   8.4167085108e+01   5.1980144121e+01    0.2452166    0.1888335  88.46 0.0007220076    1.403    0.287
        46  -8.6154     72.0133     87.2068   7.5382668218e+01   4.9411639718e+01    0.2181783    0.1482448  72.65   0.00106997    2.122    0.529
        47  -9.1340    162.4050     84.8160   5.0829348002e+01   3.2159928688e+01    0.2167049    0.1514532 -25.87 0.0006006258    1.597    0.374
        48  -8.3807    184.5279     77.4662   4.4025735459e+01   2.7983992648e+01    0.1567458    0.1514462  19.90 8.250852e-05    1.066    0.062
        49  -9.7832     56.8056     76.3774   7.7332925980e+01   5.3710484463e+01    0.3048292    0.2263111  83.30  0.001292157    1.810    0.448
        50  -9.8955     50.2792     72.1115   7.8336581491e+01   5.5364781758e+01    0.4090073    0.1985585  52.51  0.001794204    3.255    0.693
        51 -10.9409     12.6448     60.4222   8.8036224787e+01   6.1008959140e+01    0.3282166     0.214212 -14.53 0.0009584207    1.991    0.498
        52 -10.0762    149.1082    229.3723   8.2334735536e+01   7.9884117311e+00     0.246962    0.1555026  28.47   0.00136904    2.082    0.520
        53 -11.8293    222.4690     35.5602   2.5810916204e+01   2.4601620916e+01    0.6397289    0.4310495  45.27  0.001115417    1.646    0.392
        54 -12.6791    204.8344     48.6128   3.2012275140e+01   2.7365547119e+01     1.218747    0.7059876  44.11  0.002910146    1.892    0.471
        55 -11.0059    126.4119    217.2896   8.4877065103e+01   1.3696185025e+01    0.4610046     0.162702  39.16   0.00190345    3.008    0.668
        56 -10.9576      2.2655     52.7321   9.0016030883e+01   6.3155333419e+01    0.5069869    0.1172151 -69.63  0.001798972    4.611    0.783
        57  -9.2041     30.0977     53.5462   8.0391081310e+01   6.1166613529e+01    0.1883231    0.1582291 -73.38 0.0004958483    1.321    0.243
        58 -10.7909     11.1042     52.4217   8.6852709596e+01   6.2742044006e+01    0.2609393    0.2034234  28.88  0.001246437    1.674    0.403
        59  -9.2670    198.0638     24.1775   2.5880418451e+01   3.2453529617e+01    0.3135818    0.2081156 -12.35  0.001414462    1.824    0.452
        60  -8.4039    189.5078     15.4836   2.4477397437e+01   3.5748047152e+01    0.1451807    0.1346136  88.52 0.0001442418    1.036    0.035
        61 -11.3498    108.7419    213.3660   8.7598942154e+01   1.7229769824e+01    0.3259495    0.3230907 -63.23  0.002430601    1.474    0.322
