#   1 NUMBER                 Running object number                                     
#   2 MAG_AUTO               Kron-like elliptical aperture magnitude                    [mag]
#   3 X_IMAGE                Object position along x                                    [pixel]
#   4 Y_IMAGE                Object position along y                                    [pixel]
#   5 X_WORLD                Barycenter position along world x axis                     [deg]
#   6 Y_WORLD                Barycenter position along world y axis                     [deg]
#   7 A_WORLD                Profile RMS along major axis (world units)                 [deg]
#   8 B_WORLD                Profile RMS along minor axis (world units)                 [deg]
#   9 THETA_WORLD            Position angle (CCW/world-x)                               [deg]
#  10 FWHM_WORLD             FWHM assuming a gaussian core                              [deg]
#  11 ELONGATION             A_IMAGE/B_IMAGE                                           
#  12 ELLIPTICITY            1 - B_IMAGE/A_IMAGE                                       
         1 -13.3161     58.1128    131.4687   1.2726824405e+02   4.2344959114e+01     3.124201    0.9100515 -68.62  0.006948489    8.060    0.876
         2 -13.1685    214.1696      2.6567   5.8755194215e+01   3.1440896516e+01     1.250995     0.609731  65.42  0.002955525    1.801    0.445
         3 -14.0635    190.1464     27.2989   6.7296437194e+01   3.4448530647e+01     1.529196     1.324291 -26.18  0.005593043    1.369    0.270
         4 -13.7424    197.3302     21.2505   6.4865294621e+01   3.3413553904e+01     1.215462    0.7776816 -66.22  0.004504722    1.630    0.386
         5 -13.1654    203.8802     13.1825   6.2174825935e+01   3.2745286355e+01    0.6717387    0.6239246 -34.15  0.001302547    1.322    0.244
         6 -13.7610     67.8670    144.8272   1.2711480902e+02   3.7863022981e+01     1.470629     0.796537 -89.24  0.002680281    3.155    0.683
         7 -11.0907    104.2185    237.0420   1.3239929848e+02   1.1588409634e+01    0.2443442    0.1804108 -46.68  0.001047065    1.784    0.439
         8 -11.0773    248.9581    248.9624   1.0676071159e+02  -1.4177007988e+01    0.2759773    0.1907438 -22.69  0.001822773    1.420    0.296
         9 -12.8579    127.7307    246.3089   1.2902251856e+02   5.9888859273e+00    0.7953941    0.4224287  58.93  0.003915264    1.970    0.492
        10 -11.5537    148.6404    249.0344   1.2538641107e+02   1.9755378636e+00    0.3615085    0.2474808 -78.19  0.001983078    2.082    0.520
        11 -12.9452    140.3546    248.8925   1.2694777965e+02   3.4087224130e+00     0.744616    0.6117173  73.32  0.004779762    1.278    0.217
        12 -13.0085     94.3190    249.1774   1.3561625768e+02   1.0872746035e+01     0.982475    0.3730196  38.71   0.00228526    2.628    0.620
        13 -11.8551     96.6414    244.1983   1.3465401118e+02   1.1436886033e+01    0.3926668    0.1889894  50.43  0.002006284    1.742    0.426
        14 -13.3109     82.8003    247.1875   1.3751461987e+02   1.2991561535e+01    0.9642746     0.545534  40.29  0.005417044    1.751    0.429
        15 -10.6472     59.7836    246.5800   1.4156159155e+02   1.6390287763e+01    0.1861823    0.1204417 -89.41 0.0005802006    1.396    0.284
        16 -11.1604     63.4084    250.2750   1.4124415555e+02   1.5195952334e+01    0.4509465    0.1592194  44.61  0.001540363    2.347    0.574
        17 -11.6125     70.1275    244.4438   1.3953975878e+02   1.5358597624e+01    0.3682645    0.2578321 -43.33  0.002155641    2.386    0.581
        18 -13.7331     56.7843    224.7452   1.4014186035e+02   2.1129417169e+01     1.494396    0.5513723 -62.81  0.007001893    2.580    0.612
        19 -15.3032     46.3631    224.6764   1.4207580584e+02   2.2503427590e+01      3.32815     1.756246 -50.27   0.01589094    2.772    0.639
        20 -15.7302     55.5007    211.3356   1.3906040014e+02   2.4129622768e+01     8.458616    0.9536742  45.41   0.01476257    5.625    0.822
        21 -11.5871     71.0958    229.5123   1.3790969846e+02   1.8162655827e+01    0.3661953    0.1986046  72.10  0.001875868    1.946    0.486
        22 -10.3924    225.6725    200.3444   1.0213714868e+02  -3.5110496652e+00    0.3036883    0.2227609 -57.64 0.0007740573    1.887    0.470
        23 -10.8768    194.2004    196.9926   1.0763782802e+02   2.8850944767e+00    0.5564355    0.2559696 -58.90  0.001753047    4.478    0.777
        24 -11.8767     70.8269    190.8878   1.3348599235e+02   2.6553827700e+01    0.4322119    0.2684367 -44.45  0.001425691    2.125    0.530
        25 -11.8219     75.3214    184.2896   1.3158933114e+02   2.7414969507e+01    0.3000827    0.2443195 -53.33 0.0006777316    1.372    0.271
        26  -9.1414    169.4053    215.1980   1.1605848034e+02   4.2232646360e+00       0.1824    0.1331979 -62.22 0.0008199432    1.678    0.404
        27 -14.5698     11.1721    206.7710   1.4707697405e+02   3.0212731519e+01     1.428706     1.271933  33.34  0.007870213    1.656    0.396
        28  -9.9809    230.3085    166.3385   9.4292079180e+01   1.5363191626e+00    0.1464084    0.1068463  -1.98 0.0004694589    1.683    0.406
        29 -10.1969    102.1910    148.7960   1.1899744388e+02   3.1479597873e+01    0.3350382    0.2690624 -44.67 0.0008733979    1.294    0.227
        30  -9.8778    104.4880    145.0191   1.1762610237e+02   3.1969439745e+01    0.3326296    0.2426313 -23.49  0.001509698    1.921    0.479
        31 -12.2401     91.0371    147.9665   1.2169458054e+02   3.3586580938e+01    0.2917098    0.2580154 -43.22 0.0004244136    1.217    0.178
        32 -12.3569     45.7682    147.7230   1.3326298251e+02   3.9959169766e+01    0.3894949    0.2412344 -44.05  0.002027084    1.804    0.446
        33  -9.5268    134.4059    148.2364   1.1080087518e+02   2.5418940943e+01    0.3405848    0.1431668 -56.08  0.001133439    2.698    0.629
        34 -12.9903     89.5138    165.0589   1.2523520758e+02   2.9743552617e+01     2.643185    0.7928532  51.39  0.001120474    4.832    0.793
        35  -9.9161    112.3764    134.9187   1.1336048337e+02   3.2896586100e+01    0.2876277    0.2364999  -6.37  0.001006733    1.600    0.375
        36 -11.3517     83.8267    172.9153   1.2791210212e+02   2.8784413903e+01    0.2679547    0.2296747 -64.51  0.000369527    1.151    0.131
        37 -10.7045     99.8745    131.8156   1.1596581153e+02   3.5923469880e+01    0.3121325    0.2436652 -20.88 0.0007784678    1.643    0.391
        38 -12.7831     43.5162    126.9554   1.3044856964e+02   4.5116931325e+01    0.5702795     0.311616  59.06  0.002630842    2.539    0.606
        39  -9.6116    108.8058    122.4744   1.1137081671e+02   3.6465172317e+01    0.2085034    0.1921043 -50.90 0.0005064562    1.039    0.038
        40 -12.4031     32.4168    121.3397   1.3254387916e+02   4.7544240510e+01    0.3150797    0.2667076 -76.10  0.002058364    1.109    0.098
        41 -16.4317      4.2321    238.4935   1.5026536428e+02   2.4535884383e+01     15.23153    0.9336652 -73.20   0.04594589    7.954    0.874
        42 -10.9905    168.1565    113.0526   9.4232843079e+01   2.5681277303e+01    0.3691739    0.2970281 -83.03 0.0007948329    1.488    0.328
        43  -9.6188    205.0555    110.6787   8.6145748894e+01   1.7471342620e+01    0.4017082    0.1741035  45.41  0.001446031    2.544    0.607
        44 -11.0363     41.1729    108.5458   1.2763012683e+02   4.9613587523e+01    0.2297948    0.1320718 -54.64  0.001204001    1.427    0.299
        45 -13.3426     71.6770    169.9884   1.3033077990e+02   3.1302670682e+01    0.5201312    0.3439864 -38.77  0.001785952    2.024    0.506
        46 -11.5437     65.3255    232.4068   1.3927983797e+02   1.8397503297e+01    0.2725898    0.2608654  24.53  0.001933469    1.589    0.371
        47  -8.7074    184.5049     77.4831   8.1442462278e+01   2.8501140520e+01    0.1483201    0.1442968  77.37 -2.218578e-05    1.059    0.056
        48  -9.2518    155.6813     77.3093   8.7216187377e+01   3.5566643852e+01    0.1545993    0.1183024 -78.21 0.0002828171    1.640    0.390
        49 -11.4341    162.1060    249.3155   1.2285535901e+02  -3.6953100450e-01    0.3744144    0.1502146  45.10  0.001673218    2.113    0.527
        50 -12.1185    177.4255    249.2185   1.1992438885e+02  -2.9605506320e+00    0.6060922    0.1888551  36.71  0.002270709    3.130    0.680
        51 -12.1980    108.0863    244.9329   1.3258695575e+02   9.4785527567e+00     0.480034    0.2271947  54.36  0.002031483    1.918    0.479
        52 -11.7648     99.8234    237.8520   1.3333901086e+02   1.2139226756e+01    0.4011445    0.2397352  81.74 0.0009376408    2.038    0.509
