#   1 NUMBER                 Running object number                                     
#   2 MAG_AUTO               Kron-like elliptical aperture magnitude                    [mag]
#   3 X_IMAGE                Object position along x                                    [pixel]
#   4 Y_IMAGE                Object position along y                                    [pixel]
#   5 X_WORLD                Barycenter position along world x axis                     [deg]
#   6 Y_WORLD                Barycenter position along world y axis                     [deg]
#   7 A_WORLD                Profile RMS along major axis (world units)                 [deg]
#   8 B_WORLD                Profile RMS along minor axis (world units)                 [deg]
#   9 THETA_WORLD            Position angle (CCW/world-x)                               [deg]
#  10 FWHM_WORLD             FWHM assuming a gaussian core                              [deg]
#  11 ELONGATION             A_IMAGE/B_IMAGE                                           
#  12 ELLIPTICITY            1 - B_IMAGE/A_IMAGE                                       
         1 -12.4755     58.9982    135.3970   9.9856682490e+01   4.0955747160e+01     1.814069     0.812277 -82.20  0.004817841    5.490    0.818
         2 -12.8686    221.2758     36.4261   3.6200664389e+01   2.6412357176e+01     1.297618    0.6103261  58.50  0.006398278    2.220    0.549
         3 -12.6692    244.6479     14.3450   2.9692968264e+01   2.4264361196e+01    0.6994447    0.4675041 -61.51  0.002644903    1.190    0.160
         4 -10.9934      2.0840     14.8330   9.0644632885e+01   7.2629574407e+01    0.5594469    0.1122668 -49.61  0.002151543    4.263    0.765
         5 -13.0662    226.3802     29.9857   3.4316380615e+01   2.6137128916e+01     1.314857    0.7883377  42.99  0.001809584    2.562    0.610
         6  -8.2992     92.3162      1.6848   4.5741537488e+01   5.9924323269e+01    0.1162851   0.09467706 -75.50  0.000703683    1.647    0.393
         7 -10.3020     32.6568    234.5870   1.1812148413e+02   2.0116120433e+01    0.3044657    0.1550041  75.28  0.001602683    1.985    0.496
         8 -14.1634     61.8689    245.9181   1.1307316510e+02   1.4352098951e+01     3.976247     1.250887  28.56  0.009286721    3.956    0.747
         9 -12.4218     34.0508    248.9133   1.1879195363e+02   1.7073765402e+01     1.653024    0.4675671  34.61  0.007338876    2.979    0.664
        10 -11.6765     14.5751    248.5191   1.2241139102e+02   1.9213278197e+01    0.7380667    0.4738009 -55.96  0.001075495    2.056    0.514
        11 -14.8823      3.9581    240.2371   1.2395263480e+02   2.1872691030e+01     14.90018    0.3538055 -76.71   0.03314362   13.635    0.927
        12 -10.1850     43.3452    218.0282   1.1460905052e+02   2.2463934567e+01    0.3252236    0.1875952  64.91 0.0005192937    1.676    0.403
        13 -11.5485     50.4135    179.6168   1.0899492697e+02   3.0692640808e+01    0.6524259    0.4512576 -20.54  0.002126972    2.175    0.540
        14 -10.8211     58.0996    172.6657   1.0607400097e+02   3.1493620047e+01     0.350549    0.2757762 -37.41 0.0007819977    1.486    0.327
        15 -10.3230    103.0597    171.8110   9.3794916545e+01   2.5073496403e+01    0.4443716    0.1793608  42.90  0.001582908    2.476    0.596
        16 -12.3692     77.3748    156.9073   9.8249306665e+01   3.2882431885e+01     1.084977    0.7510926  71.99      0.00143    1.804    0.446
        17 -10.5805     69.5901    163.0152   1.0148654691e+02   3.2429865327e+01    0.3062793    0.2847374 -36.84 0.0004442459    1.171    0.146
        18 -12.4049     55.5342    159.2769   1.0486915119e+02   3.5221695262e+01    0.5575056    0.3326014 -39.72  0.001547155    1.981    0.495
        19 -11.8816     20.1020    205.5329   1.1869975393e+02   2.7748820710e+01    0.3237255    0.3032965  76.94 0.0007980838    1.221    0.181
        20  -9.1890     28.4672    235.9465   1.1904714097e+02   2.0289756032e+01    0.1695371    0.1022668 -81.23  0.001020356    1.560    0.359
        21 -11.4462     85.6463    221.9032   1.0552257909e+02   1.6117229616e+01    0.6295923    0.4075969  78.76  0.001460137    1.892    0.471
        22 -10.2747     94.2357    141.9405   9.0409591286e+01   3.4034442964e+01    0.5960565    0.3699852 -20.50  0.002237165    2.569    0.611
        23 -11.2260     81.0256    141.1611   9.4195505191e+01   3.6368887832e+01    0.3443048    0.2800895 -47.03 0.0004863478    1.190    0.160
        24 -12.9405     10.3606    206.8086   1.2088064425e+02   2.8369016272e+01    0.7839815    0.6215193  34.86  0.002990891    1.436    0.304
        25  -9.8911    106.3901    131.0954   8.4372308679e+01   3.4581537334e+01    0.3915438      0.34425   0.56  0.001095156    1.250    0.200
        26 -11.3212     22.8623    155.9411   1.1355679239e+02   3.9481813001e+01    0.3682842    0.2524972  86.09  0.001963379    1.397    0.284
        27 -14.4465     31.2778    195.5218   1.1536861247e+02   2.8952507538e+01     3.161643     1.903257  70.44   0.01378678    1.627    0.385
        28 -11.6212     54.7057    118.4689   9.7916894014e+01   4.5821228145e+01    0.8121359    0.2291266 -58.63  0.002469311    3.060    0.673
        29  -9.2463    114.5056    124.9992   8.0516189042e+01   3.4509510037e+01    0.3253309    0.2005083  -1.56  0.001035778    3.453    0.710
        30 -10.0944     93.2166    127.8189   8.7561234003e+01   3.7751054891e+01    0.3044662    0.2667595 -23.59 0.0004445085    1.196    0.164
        31  -8.8985    104.7943    119.7899   8.2071734347e+01   3.7623427517e+01    0.2276124    0.2055896 -14.64 0.0005475404    1.150    0.130
        32  -9.6758     22.4213    116.7383   1.0846504942e+02   4.9460738356e+01    0.2717717    0.1199813 -72.75  0.001145109    2.151    0.535
        33 -11.5490     69.9839    145.9778   9.8448149861e+01   3.6755300729e+01     0.526033    0.4420758 -25.83  0.001107291    1.340    0.254
        34  -8.5027    204.9166    110.6613   5.5772914462e+01   1.8183176208e+01    0.2860714    0.1281174  44.05  0.001105506    2.553    0.608
        35 -11.3713     67.5246    142.5002   9.8547813612e+01   3.7993979629e+01     0.429956    0.3729194  76.97  0.001346715    1.238    0.192
        36 -10.4562     13.2600     60.3361   1.0038708008e+02   6.3350550461e+01    0.2439645    0.1847003 -41.28 0.0007273193    1.052    0.049
        37 -10.2984      2.0042     50.4687   1.0304463497e+02   6.6051210390e+01    0.3456811    0.1093069 -58.88   0.00153677    2.480    0.597
        38  -9.0958     21.8202     49.1406   9.3004885827e+01   6.5001803624e+01     0.227964    0.1470474 -35.92 0.0005953101    1.266    0.210
        39  -9.4469     77.1797    225.5378   1.0784526927e+02   1.6524302972e+01    0.2946781    0.1802091 -78.53 0.0007892586    1.829    0.453
        40 -10.0605      2.4457     38.9088   9.9461722921e+01   6.8335573922e+01    0.2836554    0.1245308 -48.68   0.00140331    1.715    0.417
        41  -8.2522    125.6620     33.3371   4.9656184182e+01   4.9218960292e+01    0.1405833    0.1046219 -74.10 0.0007051314    1.754    0.430
        42  -8.5290    126.7536     26.7378   4.7225177841e+01   4.9726172442e+01    0.1833181    0.1519176 -82.91  0.001045421    1.388    0.280
        43  -8.8229    116.2341     24.8446   4.8842605329e+01   5.2403199489e+01    0.1924772    0.1748187 -83.54 0.0004965712    1.265    0.210
        44 -11.3129     75.9521    220.6828   1.0758821497e+02   1.7740931332e+01    0.8116449    0.2177092  47.45  0.002702146    3.756    0.734
        45 -12.1698    113.5707    238.5477   1.0131757288e+02   8.6123893293e+00    0.8930973    0.4121589 -65.20  0.003892857    2.899    0.655
        46 -13.8274    112.3309    229.8349   1.0047381331e+02   1.0512122076e+01     3.899094    0.6202996  35.79   0.01074072    5.074    0.803
