#   1 NUMBER                 Running object number                                     
#   2 MAG_AUTO               Kron-like elliptical aperture magnitude                    [mag]
#   3 X_IMAGE                Object position along x                                    [pixel]
#   4 Y_IMAGE                Object position along y                                    [pixel]
#   5 X_WORLD                Barycenter position along world x axis                     [deg]
#   6 Y_WORLD                Barycenter position along world y axis                     [deg]
#   7 A_WORLD                Profile RMS along major axis (world units)                 [deg]
#   8 B_WORLD                Profile RMS along minor axis (world units)                 [deg]
#   9 THETA_WORLD            Position angle (CCW/world-x)                               [deg]
#  10 FWHM_WORLD             FWHM assuming a gaussian core                              [deg]
#  11 ELONGATION             A_IMAGE/B_IMAGE                                           
#  12 ELLIPTICITY            1 - B_IMAGE/A_IMAGE                                       
         1 -14.6092    235.0714    184.6108   5.7736793159e+01   1.1429841136e+00     3.237773     1.934698 -22.26   0.01835456    1.600    0.375
         2 -13.6541    224.2785      7.1769   2.1592842913e+01   2.9456941071e+01     1.263992    0.9359147  71.96  0.008467677    1.453    0.312
         3 -13.0592    236.7552      3.9567   2.0166568544e+01   2.7266485222e+01     1.096034    0.5703993  83.71  0.006474969    1.840    0.456
         4  -9.4028     27.3118    243.3428   1.0843615644e+02   1.9569088238e+01   0.09999456   0.08718672 -38.82 0.0004528685    1.702    0.412
         5 -10.9256      3.6803    248.8399   1.1323255144e+02   2.0855829860e+01    0.1991314    0.1900284  85.11    0.0016555    1.442    0.307
         6  -9.6738    220.7471    234.1536   6.8447843930e+01  -4.0599715893e+00    0.2735133    0.1566571  35.14  0.001672577    1.771    0.435
         7 -10.1264      6.4182    234.8240   1.1219965541e+02   2.3303585713e+01    0.1467222   0.09194333 -73.87 0.0009488075    1.690    0.408
         8  -9.6561    195.6984    232.7888   7.2723537452e+01  -7.1812270293e-01    0.2464836    0.1827535 -13.13  0.001238002    1.279    0.218
         9  -9.0485    187.7037    232.4388   7.4169891371e+01   3.9368834248e-01    0.1641182   0.09932464  21.05 0.0008152722    1.524    0.344
        10  -9.3643    176.9352    230.0585   7.5887514237e+01   2.2247497767e+00    0.2811458    0.1613693 -58.43  0.001396476    2.816    0.645
        11  -8.9251    231.0174    228.9971   6.5903229721e+01  -4.6051125165e+00      0.18064    0.1102897  -0.39 0.0006767056    1.628    0.386
        12 -10.0024    211.5982    228.1894   6.9127932207e+01  -2.1170747345e+00     0.219096    0.1708484  18.20 0.0008282056    1.158    0.136
        13 -13.8804    172.7447    202.0829   7.2317657617e+01   7.4906629666e+00     2.642548     1.968666 -22.06   0.01516366    1.405    0.288
        14  -9.0006    149.5007    211.9876   7.8786630996e+01   9.2987788614e+00     0.183808    0.1286582 -44.28 0.0007232677    1.552    0.356
        15  -8.8520    124.4901    212.4807   8.4352364173e+01   1.3037895882e+01    0.1329235    0.1189712  32.49 0.0002892842    1.020    0.020
        16 -10.0102    145.1227    210.3437   7.9481312878e+01   1.0276646639e+01    0.2780958    0.1901381 -61.97  0.001474018    1.844    0.458
        17  -8.8570    185.2023    223.2276   7.3248670807e+01   2.1395489435e+00     0.187472    0.1758507 -22.19 0.0008122316    1.274    0.215
        18  -9.5151    138.6662    206.8866   8.0373220241e+01   1.1936303501e+01    0.2551746     0.200489 -26.29 0.0009032763    1.445    0.308
        19 -11.2322    160.7506    202.4914   7.4884438771e+01   9.2915150725e+00    0.4082239    0.1961843 -41.51  0.001483306    2.211    0.548
        20 -11.2374    149.3577    204.7290   7.7691108584e+01   1.0669454059e+01    0.3276893    0.2364054  21.43   0.00146715    1.384    0.278
        21  -8.8378    183.6816    219.6823   7.2990499956e+01   2.9123656488e+00    0.1583799     0.117082 -46.09 0.0005728438    1.579    0.367
        22  -9.0790    129.2160    202.8232   8.1883142688e+01   1.4220731907e+01    0.1873044    0.1572352  -2.97 0.0007955832    1.356    0.263
        23  -9.3092    134.2286    201.6591   8.0567542603e+01   1.3659745258e+01    0.2471374    0.1709723  25.63  0.001287145    1.442    0.306
        24  -9.1099    124.4015    198.1827   8.2289287301e+01   1.5929323636e+01    0.2307581    0.1564383  40.97 0.0008020939    1.358    0.264
        25  -9.7098    156.3358    196.5601   7.4845465488e+01   1.1102257597e+01    0.2205016    0.1561559 -22.21 0.0007261253    1.651    0.394
        26  -9.1814    139.0115    196.9457   7.8743620250e+01   1.3832162661e+01    0.2230349    0.1637478 -10.08  0.001131069    1.760    0.432
        27  -9.0203    144.9010    195.7343   7.7222953380e+01   1.3116670349e+01    0.2544069    0.1845528 -18.16  0.001303719    1.707    0.414
        28 -10.4096    162.1468    193.7575   7.3120100495e+01   1.0691104571e+01    0.2444704    0.1946369   0.18 0.0007425115    1.351    0.260
        29 -15.0726    216.6115    187.6548   6.1405220927e+01   3.2798877309e+00     4.159372     2.776866 -10.91   0.02343771    1.605    0.377
        30  -8.6402    152.6569    193.6561   7.5158248410e+01   1.2257423557e+01     0.144033     0.103171  -5.80 0.0007046839    1.787    0.441
        31  -8.6079    157.6165    192.6978   7.3912900386e+01   1.1630600278e+01    0.1437602    0.1020264  -0.44 0.0007020695    1.783    0.439
        32  -8.7424    115.1980    192.5856   8.3611665117e+01   1.8578843967e+01     0.193857    0.1290163  22.18 0.0009291983    1.685    0.407
        33  -8.8732    103.5692    190.1775   8.6076276599e+01   2.0943466662e+01    0.1971167    0.1258583 -45.39 0.0009442871    1.769    0.435
        34 -10.4452    166.1827    187.0444   7.1083374505e+01   1.1297243562e+01    0.3774362    0.2040126 -24.98  0.001535598    2.705    0.630
        35 -11.3816    154.2819    213.9933   7.8074581010e+01   8.2060759444e+00    0.4009026    0.2098655 -53.31  0.001923578    2.263    0.558
        36  -8.2583    130.6480    189.6913   7.9491614545e+01   1.6682751743e+01    0.1432313    0.1081806  -5.30 0.0007043649    1.717    0.418
        37  -8.9875    121.0127    187.0255   8.1345429744e+01   1.8836710905e+01    0.2230752     0.171963 -11.46  0.001126821    1.691    0.409
        38  -8.8657    151.0724    185.9985   7.4189792305e+01   1.4026876430e+01    0.2210399    0.1644001  -6.62  0.001115063    1.672    0.402
        39 -13.2718    218.5532    208.2510   6.4663441455e+01  -1.5239316121e-01      1.71095    0.8624238 -42.72  0.009054276    2.082    0.520
        40  -8.9976    142.6493    184.3998   7.5815876443e+01   1.5773220632e+01    0.2798697    0.1947941 -11.20  0.001303458    2.015    0.504
        41  -8.4515    147.3084    215.3191   7.9757149157e+01   9.0252056145e+00     0.131276   0.09652658  -3.82 0.0007032799    1.639    0.390
        42  -9.1170    134.9230    182.0332   7.7199469152e+01   1.7578098381e+01    0.2289364    0.1717784  -8.15  0.001123708    1.741    0.426
        43  -8.6246    109.7950    181.6000   8.3223321382e+01   2.1870123380e+01    0.2174681    0.1209814  45.66 0.0009569955    1.737    0.424
        44  -9.3180    122.9538    180.0703   7.9728225368e+01   2.0028590363e+01    0.3129287    0.1944583  19.14  0.001361787    2.069    0.517
        45  -9.0142    145.9128    178.8308   7.4080199807e+01   1.6362970259e+01    0.2307413    0.1581084   7.60 0.0009081348    1.996    0.499
        46  -9.3924    170.2620    176.4986   6.8282545404e+01   1.2624569758e+01    0.3975122    0.1971448 -25.98  0.001436766    3.279    0.695
        47  -9.7471    180.0666    175.7497   6.6107605577e+01   1.1096698914e+01    0.4131196    0.2052962  19.54  0.001440708    3.698    0.730
        48  -8.9202    159.2590    174.1730   7.0217986094e+01   1.4988461013e+01    0.2324579    0.1463052  -9.35 0.0009327593    2.675    0.626
        49  -8.2090    137.6700    215.3061   8.1837519943e+01   1.0491385030e+01    0.1317068   0.09663231  60.09 0.0007038018    1.658    0.397
        50  -9.1948    192.8382    171.3807   6.2736510146e+01   9.7510469748e+00     0.254427    0.1610793 -15.67  0.001194241    2.024    0.506
        51  -8.4689    185.4213    176.4893   6.5170117150e+01   1.0061458777e+01    0.1379108      0.11924  -8.13 0.0002736902    1.107    0.097
        52  -8.8967    164.0217    176.5013   6.9616611465e+01   1.3698124351e+01    0.2083544     0.133365  35.72 0.0006660509    1.535    0.349
        53  -9.1799    140.4370    221.7190   8.2152180124e+01   8.8974030615e+00    0.2196557     0.130741 -59.06  0.001121453    2.102    0.524
        54 -10.5915    219.0626    165.5632   5.6837876965e+01   6.5059103855e+00    0.5835439    0.3246585  -1.01  0.002182808    3.950    0.747
        55  -8.3986    158.6853    168.6980   6.9297767537e+01   1.6195386648e+01    0.1443099     0.109839  -4.66 0.0004532619    1.615    0.381
        56  -8.5580    198.3064    167.2768   6.0895009094e+01   9.5734003112e+00     0.133327   0.09850888  -2.71 0.0002824004    1.550    0.355
        57 -10.4174     16.6351    248.6617   1.1077195925e+02   1.9645141326e+01    0.1496806    0.1318775 -43.89  0.001127789    1.704    0.413
        58  -8.4674    186.6290    167.6793   6.3229024368e+01   1.1478694700e+01    0.1457521    0.1027163  -1.82    0.0007034    1.800    0.445
        59 -10.1743    175.1665    222.8650   7.5154765606e+01   3.6145418704e+00    0.1832622    0.1638403  48.29  0.001211015    1.386    0.278
        60  -8.5156    190.3929    166.2614   6.2210320055e+01   1.1094702617e+01    0.1404908     0.100888   4.46 0.0005695629    1.703    0.413
        61 -10.3044    143.0431    216.8707   8.0900392027e+01   9.3879821450e+00    0.2122385    0.1959417 -50.19  0.001001506    1.241    0.194
        62  -9.3619    167.7362    227.9018   7.7388016827e+01   3.8583176449e+00    0.2059732    0.1791856 -72.98  0.001327129    1.656    0.396
        63 -10.9628    247.3181    157.0407   5.0719916689e+01   3.6128992608e+00    0.4132005      0.26607  -1.97   0.00225802    2.041    0.510
        64  -8.6929    111.3197    215.3328   8.7705983396e+01   1.4453495298e+01    0.1303636    0.1012309  -9.64  0.000704895    1.696    0.411
        65  -8.1980    160.2874    163.3430   6.7890744808e+01   1.6997604582e+01    0.1467854    0.1103395 -10.68  0.000455223    1.646    0.392
        66  -8.4454    176.6608    168.7038   6.5447287996e+01   1.3013399448e+01    0.1429629     0.105329  -1.54 0.0007031406    1.657    0.396
        67  -8.5072    183.3402    161.3047   6.2615893548e+01   1.3247856116e+01    0.1436252    0.1055838  -2.10 0.0006465053    1.678    0.404
        68  -8.3167    192.3834    160.2766   6.0630663736e+01   1.1850673307e+01    0.1416409    0.1024668   2.70 0.0007001504    1.716    0.417
        69  -8.9073    207.9680    159.0500   5.7493044219e+01   9.4105881613e+00    0.2082856    0.1506447  -4.15 0.0008222716    1.634    0.388
        70  -9.4835    238.9051    156.7661   5.1925650400e+01   4.8881781946e+00    0.2296434     0.159588  20.51 0.0008805117    1.685    0.407
        71  -9.6691    227.8867    155.2162   5.3350913999e+01   6.8261418869e+00    0.3361664     0.190137 -22.12   0.00163014    2.019    0.505
        72 -11.0341    205.8326    224.2944   6.9553210205e+01  -8.1782479859e-01    0.3191615    0.2292019 -28.60  0.002074942    1.353    0.261
        73 -11.2054    160.2895    211.3189   7.6397678779e+01   7.7692389577e+00    0.3056258    0.2205526 -39.71  0.001022613    1.474    0.322
        74  -9.9131     73.4859     91.4815   7.5332879148e+01   4.9800469180e+01    0.1465176      0.14156 -49.57 9.486614e-05    1.003    0.003
        75 -10.5639     61.3274     87.6760   7.8754770081e+01   5.2621695689e+01    0.2927009    0.1560334  63.55 0.0009568626    3.889    0.743
        76 -11.1832     52.5649     87.5691   8.2088751124e+01   5.3892365678e+01     0.319347     0.192231  61.24  0.001336116    2.444    0.591
        77 -11.1324     78.4626     80.3357   7.0366607357e+01   5.1482877065e+01    0.3420148    0.2230154  72.71  0.001359629    2.623    0.619
        78 -10.5577     34.2832    246.9150   1.0723806694e+02   1.8142950364e+01    0.3039245    0.1837334  -2.63   0.00138355    4.200    0.762
