#   1 NUMBER                 Running object number                                     
#   2 MAG_AUTO               Kron-like elliptical aperture magnitude                    [mag]
#   3 X_IMAGE                Object position along x                                    [pixel]
#   4 Y_IMAGE                Object position along y                                    [pixel]
#   5 X_WORLD                Barycenter position along world x axis                     [deg]
#   6 Y_WORLD                Barycenter position along world y axis                     [deg]
#   7 A_WORLD                Profile RMS along major axis (world units)                 [deg]
#   8 B_WORLD                Profile RMS along minor axis (world units)                 [deg]
#   9 THETA_WORLD            Position angle (CCW/world-x)                               [deg]
#  10 FWHM_WORLD             FWHM assuming a gaussian core                              [deg]
#  11 ELONGATION             A_IMAGE/B_IMAGE                                           
#  12 ELLIPTICITY            1 - B_IMAGE/A_IMAGE                                       
         1 -12.0705     33.4987     21.4681   5.3059256707e+01   7.2804168734e+01     0.857858    0.4449809 -47.10  0.003300339    2.095    0.523
         2 -10.4279    163.1922     20.3546   1.6120126411e+01   4.1506106007e+01    0.2253776    0.2009849  21.24  0.001192058    1.530    0.346
         3 -10.0309     24.9764     13.4879   5.4405016510e+01   7.5658995272e+01    0.2711267    0.1996619 -68.07  0.001425117    2.008    0.502
         4 -10.3932    226.4927     11.9973   9.7156467903e+00   2.9009065373e+01    0.1852313   0.04089787 -46.76 0.0008100101    2.749    0.636
         5 -11.7132     91.1684     10.1587   2.2777322989e+01   6.0967269035e+01    0.2994835    0.2217912  88.39            0    1.298    0.230
         6 -10.5463     96.0620      9.9016   2.1645715177e+01   5.9713207155e+01    0.2382962    0.1840855  74.77 0.0006055478    1.140    0.123
         7 -10.6125     52.5080     11.4821   3.5790532685e+01   7.0449650095e+01    0.3633786    0.2396813 -27.47  0.001868217    1.711    0.415
         8 -11.1270     55.7648      9.3338   3.3012147617e+01   6.9958737310e+01    0.3065416    0.2331417  89.88 0.0003071579    1.589    0.371
         9 -10.7326     43.4102     11.3528   4.0302126243e+01   7.2484517525e+01    0.3441966    0.2213821  24.44  0.001268717    1.927    0.481
        10 -11.1678    126.0664     10.8785   1.7222075965e+01   5.1767671785e+01    0.2166067    0.1849265 -80.82 0.0002760839    1.016    0.015
        11 -10.2345    100.9609     10.9883   2.1181336791e+01   5.8316996677e+01    0.2063579    0.1792025 -89.29            0    1.040    0.038
        12 -11.1303    116.4724      8.8607   1.7770557718e+01   5.4462440542e+01    0.2736358    0.2268953 -49.68  0.001403578    1.221    0.181
        13 -10.1787     86.0017     10.3017   2.4014024078e+01   6.2297230659e+01    0.2014322    0.1583972  71.53 0.0004268874    1.124    0.110
        14 -10.7630     35.2037      8.0419   4.2915425167e+01   7.4650546320e+01    0.2369353    0.1739513  45.28 0.0005412317    1.229    0.186
        15 -10.3667     61.8716      6.8922   2.9153452560e+01   6.8767976859e+01    0.3125532    0.2436275  47.14  0.001614649    1.198    0.165
        16 -10.5772     65.8979      5.3388   2.6872604173e+01   6.7935753952e+01    0.2243978    0.2029376   7.26 0.0004028504    1.266    0.210
        17  -9.8952     15.9581      7.4764   5.8302179186e+01   7.8088268334e+01    0.1914616    0.1164942  30.62 0.0004090374    1.520    0.342
        18 -11.4020     19.1282      2.9576   5.1554358052e+01   7.8356033045e+01    0.3748279    0.2515253  -5.31  0.001885195    1.927    0.481
        19  -9.9162    111.8712      6.2121   1.7386652899e+01   5.5920590181e+01    0.2081674    0.1586572 -73.81  0.001154051    1.223    0.182
        20  -9.9190     70.4798      5.2555   2.5432416492e+01   6.6792874809e+01    0.2110047    0.1412637 -15.18 0.0006232598    1.810    0.448
        21 -10.5799     38.9666      3.9247   3.7518775930e+01   7.4411141728e+01    0.2380254    0.1787788  59.74 0.0003352319    1.312    0.238
        22 -11.4347     45.0305      4.6118   3.4761853610e+01   7.2993164677e+01    0.4768638    0.3325206  80.18  0.002446936    1.829    0.453
        23 -11.2755     49.7937      2.9891   3.1386111912e+01   7.2081795561e+01     0.344642    0.2222708  51.72   0.00181777    1.347    0.258
        24 -12.7560     29.5257      4.9198   4.4463092975e+01   7.6207294889e+01    0.3163368    0.2709394 -42.36 0.0004769122    1.349    0.259
        25 -10.0613     33.7056      3.7164   4.0598017217e+01   7.5541752946e+01    0.2022923    0.1876857  51.59 0.0001707442    1.136    0.119
        26 -11.0687    193.9961      4.8444   9.6897618664e+00   3.6187709148e+01    0.1916835    0.1576861 -72.87 0.0003021357    1.118    0.105
        27  -9.5684     81.4775      5.4110   2.2642057668e+01   6.3959776349e+01    0.1393552    0.1200533  75.06 9.649876e-05    1.019    0.019
        28  -9.6566    224.6372      3.0905   7.8816616068e+00   3.0238660356e+01    0.1400137   0.09470192 -23.07 0.0004730954    1.686    0.407
        29 -11.7549    205.0417      2.5745   8.5962712012e+00   3.4110773137e+01    0.2082897    0.1669874 -62.53 8.639804e-05    1.079    0.073
        30  -9.7087    120.1626      2.8134   1.4966889955e+01   5.4064178024e+01    0.1713359    0.1440742  60.51 0.0002910034    1.257    0.205
        31 -10.2927     12.3512      1.9377   5.7694914434e+01   7.9552719380e+01    0.2405306     0.158829  43.43  0.001336622    1.627    0.385
        32 -10.2030    245.2183      1.4108   6.8072037861e+00   2.6726277877e+01    0.1288329   0.08718952 -79.00 0.0004015055    1.421    0.296
        33 -10.6632    148.6370      2.3700   1.1996150819e+01   4.6871959423e+01    0.2279097    0.1890873 -89.88   0.00052368    1.110    0.099
        34 -11.2331    246.6258    127.4265   3.1384635874e+01   1.1395546395e+01    0.2001714    0.1539601 -19.49 0.0006355863    1.181    0.153
        35  -9.6986    110.0278    250.7832   7.5355481022e+01   9.6225756802e+00    0.1586587   0.07468282  26.24 0.0004516681    1.617    0.382
        36 -10.7663     31.4574    248.3967   9.2851471080e+01   1.8040461081e+01    0.2814091    0.1749254 -55.81  0.001268244    2.135    0.532
        37 -11.3213     24.0346    249.6550   9.4580605068e+01   1.8471340331e+01    0.2987935    0.1875969  19.54  0.001877572    1.438    0.305
        38 -11.5369      4.3253    248.8421   9.8962671669e+01   2.0253874158e+01    0.4767421    0.1960458  37.82  0.002690785    1.614    0.380
        39 -11.6872     10.1625    245.4902   9.7586561212e+01   2.0406969711e+01    0.2156759    0.1499522  82.92  0.001265698    1.587    0.370
        40 -12.4454      4.7251    242.1471   9.8741064373e+01   2.1467773686e+01    0.5005959    0.2156101  54.79  0.002772536    1.855    0.461
        41  -9.8702     48.9841    124.9732   7.7167283291e+01   4.5107068805e+01    0.1818539    0.1720262  60.84 0.0003895775    1.002    0.002
        42 -12.8872     82.9894    119.7946   6.3798635736e+01   4.1256322133e+01    0.3654892    0.3342229 -69.28 0.0005051038    1.120    0.107
        43 -10.5467     10.0125    121.2794   9.2262297671e+01   4.9924100660e+01    0.1996787    0.1812858  36.56 0.0003746596    1.108    0.098
        44 -10.5061     24.7169    120.4389   8.6180187744e+01   4.9019829812e+01    0.3318271    0.1913802  28.49  0.001221059    1.659    0.397
        45 -11.0329     27.0537    116.9896   8.4800782728e+01   4.9763176863e+01    0.2170417    0.2057534  68.27 0.0003239943    1.007    0.007
        46 -11.2943     15.4750    117.1813   8.9659952777e+01   5.0681078470e+01    0.3900419    0.1887577 -51.77  0.001597988    2.132    0.531
        47 -10.8771     69.2448    115.7225   6.7789370655e+01   4.4627843976e+01    0.3442598    0.2646253 -67.01 0.0005623484    1.344    0.256
        48 -10.1200      6.3376    112.7210   9.3142306796e+01   5.2515569532e+01    0.2256712    0.1835913  48.77 0.0003189804    1.187    0.158
        49 -12.1414      2.7350    111.8009   9.4618240176e+01   5.2963071489e+01    0.2714438    0.2419281  87.25 0.0002561812    1.047    0.045
        50  -9.6096    117.9761    112.2408   5.1272281375e+01   3.6362466655e+01    0.2040985    0.1916453  48.03  0.001090872    1.058    0.055
        51 -10.0244     25.3101    111.2766   8.4809687231e+01   5.1514446398e+01    0.1488008    0.1077933 -35.28 0.0001480971    1.557    0.358
        52 -11.0494     16.8150    108.9814   8.8244132142e+01   5.2863140354e+01     0.256326    0.2145936  -2.04 0.0004013564    1.316    0.240
        53 -11.0368     51.9187    107.9715   7.2949813621e+01   4.9327341757e+01    0.2422398    0.2166603  36.30  0.001253276    1.100    0.091
        54 -12.0932      1.5692    104.7415   9.4655719970e+01   5.4968091252e+01    0.2767971    0.1686693 -80.26 0.0004136662    1.533    0.348
        55 -10.4343     38.8011    104.7255   7.7912081892e+01   5.1916609188e+01    0.2461011    0.1941089 -59.05 0.0003389664    1.266    0.210
        56 -10.0501    104.0485    101.2669   5.2477546600e+01   4.1684123837e+01    0.2184046     0.189415  45.74 0.0004637345    1.137    0.120
        57 -11.2183     20.9598     98.1208   8.4991567197e+01   5.5556264998e+01    0.5221403    0.2708173  12.32 0.0009324587    2.110    0.526
        58 -11.2919     19.0758     94.0491   8.5317165075e+01   5.6839609459e+01    0.6498312    0.2946955 -38.83  0.002428137    2.613    0.617
        59 -10.4701     37.5338     97.4960   7.7141429302e+01   5.4049519850e+01    0.1498182    0.1447444  73.01 5.837539e-05    1.006    0.006
        60 -10.8850    108.8667    103.3152   5.1581231318e+01   4.0222055899e+01    0.2763476    0.2189739 -40.36 0.0004331277    1.333    0.250
        61 -10.3589    145.1142     94.7484   4.0158599112e+01   3.4263216676e+01     0.293481    0.1760688  75.78  0.001135741    2.697    0.629
        62 -11.8721     66.7036     92.4148   6.3263476175e+01   5.1076745357e+01    0.4941556    0.2666357 -60.74  0.001191985    1.950    0.487
        63 -10.7027     42.7764     94.8116   7.4197270971e+01   5.4126579879e+01    0.2733227     0.145468 -29.87  0.000957536    2.835    0.647
        64 -11.2622     93.6136     92.5865   5.3410408264e+01   4.5842036705e+01    0.3999181    0.2917605  30.57  0.000706631    1.529    0.346
        65 -11.6827     58.1249     91.2494   6.6540570609e+01   5.2823019030e+01    0.3342432    0.2991041 -32.30 0.0007314373    1.218    0.179
        66 -10.8443    145.7949     91.1265   3.9060578353e+01   3.4800651629e+01    0.2157536    0.1884272 -77.27  0.001061349    1.191    0.160
        67 -11.3980     74.6272     93.0034   6.0300080600e+01   4.9495163933e+01    0.2755443    0.2196014  41.63 0.0003101432    1.220    0.180
        68  -9.6186      7.5725     91.1541   9.0639074847e+01   5.8420039449e+01    0.1929055      0.11882 -61.17  0.000444021    1.528    0.346
        69  -9.8518    218.0327     98.3313   2.9103206249e+01   1.9648273289e+01    0.1573437    0.1417059 -48.29 0.0004983573    1.122    0.108
        70 -12.2191     31.1679     87.3262   7.8185591055e+01   5.7546220127e+01    0.2570313    0.2444619 -76.20 0.0003589777    1.037    0.035
        71 -13.5825     65.3519     82.0149   6.0923904080e+01   5.3915562641e+01    0.5219909    0.4909353  83.41 0.0007732373    1.079    0.073
        72  -9.5597    173.1725     85.6016   3.2539883062e+01   2.9958321394e+01    0.1729046    0.1274873  44.68 0.0002509737    1.557    0.358
        73  -9.7857     81.7232     84.3202   5.5154966993e+01   5.0207846181e+01    0.1569677    0.1215692  82.77 0.0001406298    1.577    0.366
        74  -9.7529      2.5033     82.9999   9.2406813545e+01   6.0908262335e+01    0.2142954    0.1314192 -82.13 0.0005569907    1.551    0.355
        75 -10.5204     48.2922     78.6970   6.7677843161e+01   5.7600712559e+01    0.3302326    0.2379281 -26.77 0.0008415639    1.704    0.413
        76 -10.0582    176.4089     76.7900   2.9824255329e+01   3.0717086718e+01    0.2134482    0.1602524  57.16  0.001187397    1.455    0.313
        77 -10.0568     39.8237     76.9827   7.1421881415e+01   5.9253475277e+01    0.2968229    0.1719411  53.19  0.001203809    1.999    0.500
        78 -12.2089     11.5223     74.1941   8.6301018760e+01   6.2821207743e+01    0.4763227    0.3712893  57.33  0.001244654    1.353    0.261
        79 -12.3087      4.8058     72.9310   8.9987721910e+01   6.3537253185e+01    0.4294354     0.281494  38.59 0.0003676664    1.576    0.366
        80 -11.4912     91.9999     85.2440   5.1816776320e+01   4.7861026737e+01    0.2643503    0.2234189 -53.92 0.0002463802    1.206    0.171
        81 -10.5250     34.8663     73.4458   7.3096453229e+01   6.0814351398e+01    0.2512717    0.1985447 -60.06 7.492783e-05    1.254    0.202
        82  -9.6303     71.4338     72.4156   5.5399520248e+01   5.5044697508e+01    0.1564122    0.1423374  70.50 0.0007981713    1.117    0.105
        83 -11.9477     81.1534     67.1587   4.9819997539e+01   5.4189515084e+01    0.3956965    0.2627704 -44.89  0.001772459    1.575    0.365
        84 -10.7566     12.0287     69.0639   8.5141859357e+01   6.4164152709e+01    0.2120809    0.1815907  61.11 0.0005025522    1.231    0.188
        85 -11.4063     16.1385     64.0294   8.1651144925e+01   6.5196311520e+01    0.7090641    0.3981087 -10.42  0.002363579    2.168    0.539
        86 -11.6404     11.7739     59.5136   8.3460173489e+01   6.6697603833e+01    0.2886248    0.2420523  -3.99 0.0002986407    1.218    0.179
        87  -9.8456     50.8321     67.1948   6.2970431597e+01   6.0064227878e+01    0.2074894    0.1797891 -21.07 0.0009331495    1.287    0.223
        88 -10.0000     59.2127     64.7625   5.8119147009e+01   5.9165005453e+01    0.2104318    0.1942279  57.99 0.0002494936    1.080    0.074
        89 -10.1005    167.0564     64.2006   2.7964976212e+01   3.4709359458e+01    0.1929623    0.1901638  15.54 0.0005787719    1.222    0.181
        90  -9.5920    154.0328     67.0191   3.0860596111e+01   3.7201159175e+01    0.1720334    0.1462061 -50.09 0.0003038115    1.106    0.096
        91 -10.7435     37.9455     59.9449   6.7439490620e+01   6.3815802184e+01    0.3315615    0.2250633 -51.88 0.0005488844    1.469    0.319
        92  -9.6002     97.5037     60.5248   4.1932569629e+01   5.1815786028e+01     0.153645    0.1432749  78.64 7.350064e-05    1.019    0.019
        93 -10.7271     42.0358     59.3380   6.4941870150e+01   6.3359722829e+01    0.2575692    0.2150802 -66.05  0.001345294    1.268    0.211
        94 -11.9080     77.8858     58.1116   4.7770209409e+01   5.6800203358e+01    0.2495487    0.2380561 -57.11 0.0003088373    1.093    0.085
        95 -10.0925     58.3070     58.9223   5.6437587626e+01   6.0662730018e+01    0.2394483    0.1901183  48.98  0.000363477    1.240    0.193
        96  -9.4996    216.8559     58.4004   2.0586067036e+01   2.5392685234e+01    0.1374868    0.1116763  57.08 0.0004090272    1.528    0.345
        97  -9.6303     99.4898     55.5382   3.9541524264e+01   5.2274612751e+01    0.1512482    0.1425224  67.96 0.0001580141    1.042    0.041
        98  -9.7567     86.5171     54.5074   4.3275002761e+01   5.5550817626e+01    0.3421709    0.2484263  38.44  0.001609382    1.481    0.325
        99 -11.3322     83.3118     51.2727   4.3131992577e+01   5.6910524593e+01    0.4602079     0.319868  48.39  0.001291448    1.377    0.274
       100 -10.4718     78.3061     50.0305   4.4452369492e+01   5.8299680623e+01    0.3962895    0.2734153 -69.61  0.001750462    1.905    0.475
       101  -9.6509    182.4257     54.5015   2.3323479180e+01   3.2778788472e+01    0.1326729    0.1126693 -56.83 0.0001154232    1.012    0.011
       102 -10.0900     36.0237     53.4942   6.6349330799e+01   6.5640807605e+01    0.3419073    0.2122495 -24.05  0.001446865    2.182    0.542
       103  -9.7264    115.4805     53.5259   3.4558965111e+01   4.8711047264e+01    0.1501866    0.1382214  88.75 0.0001140193    1.007    0.007
       104 -12.5132     62.0498     49.7233   5.1065269577e+01   6.1896615138e+01    0.3724074    0.2693077 -50.07 0.0004813561    1.460    0.315
       105 -10.3749      2.7600     51.9508   8.8114502023e+01   6.9157414432e+01    0.4098978     0.136693 -48.67  0.001365141    2.631    0.620
       106 -10.4788    138.2584     50.2478   2.8684386239e+01   4.3613092627e+01    0.2198545    0.2111743  54.86 0.0003781346    1.195    0.163
       107 -10.6957     93.0736     50.0047   3.9406832202e+01   5.4824783065e+01    0.2446451    0.2020576  58.64            0    1.143    0.125
       108  -9.7450    102.1886     48.1229   3.6030221078e+01   5.2919537888e+01    0.1993868    0.1643343 -74.01 0.0002457225    1.272    0.214
       109 -10.3803     17.2579     46.2828   7.6279478689e+01   6.9603223075e+01    0.2378557    0.1881001 -32.35 0.0006657622    1.249    0.200
       110  -9.2333     72.6537     45.6664   4.4821485622e+01   6.0405344944e+01     0.153897    0.1177076  14.92 0.0003456674    1.767    0.434
       111 -10.0168    105.1349     51.9805   3.6653537882e+01   5.1530964193e+01     0.220024    0.1841834 -77.99            0    1.239    0.193
       112 -12.4701     85.7604     42.4795   3.8727827163e+01   5.7906740075e+01    0.3579957    0.2852573 -33.46 0.0003843615    1.393    0.282
       113 -11.0436     91.8310     41.3645   3.6358074684e+01   5.6609534874e+01    0.4059502    0.2568043 -60.24 0.0008031813    1.900    0.474
       114 -11.8929     38.4979     41.6907   6.0155300912e+01   6.7942448928e+01    0.2990251    0.2479118  57.57  0.000262922    1.350    0.259
       115 -10.4107     27.0848     42.6331   6.8025552415e+01   6.9387619080e+01    0.3453549     0.156399  26.69  0.001365455    2.176    0.540
       116 -10.5371    112.8527     34.7792   2.8386817564e+01   5.2297809804e+01     0.209738    0.1845675  58.33 0.0003819503    1.165    0.141
       117 -11.0747    109.5997     41.1082   3.1501237819e+01   5.2192703898e+01     0.496266    0.3079189  76.41  0.001818865    1.741    0.426
       118 -11.5603    115.9572     38.9670   2.9271140267e+01   5.0899009592e+01    0.3685729    0.2494406 -47.74  0.001004466    1.481    0.325
       119 -10.8379     57.9987     41.5547   4.9415929527e+01   6.4356710898e+01    0.2478138    0.2333937 -59.66 0.0003099091    1.135    0.119
       120 -10.1014     61.9796     41.0385   4.7320384369e+01   6.3619449674e+01    0.2139298     0.198651  46.49  0.001191117    1.015    0.015
       121 -11.2462     51.0148     41.3877   5.2858207789e+01   6.5782293561e+01    0.2973781    0.2241154 -36.62 0.0005617097    1.434    0.303
       122 -10.6727     44.3814     41.1637   5.6413186329e+01   6.7055561540e+01     0.322635    0.2311066 -68.06 0.0009316044    1.777    0.437
       123 -10.9047    184.4532     40.9729   1.9609575460e+01   3.4163098113e+01     0.395649    0.1990591  87.11  0.001822053    2.388    0.581
       124  -9.4447    141.0618     41.0000   2.5267363914e+01   4.4284925622e+01    0.2143713   0.07679369  65.88 0.0007697574    2.721    0.632
       125  -9.7910     81.1794     38.7944   3.8698010619e+01   5.9633007837e+01    0.1921768    0.1692908  25.92 0.0002507885    1.293    0.227
       126 -10.9966    121.5884     36.8189   2.7337695340e+01   4.9774103856e+01    0.3576385    0.2564476 -35.99  0.001761157    1.465    0.317
       127 -10.8831     75.6776     38.0104   4.0313050128e+01   6.1074747872e+01    0.2491648    0.1988955  64.49 0.0003184386    1.222    0.181
       128 -11.4601     67.2087     35.8533   4.2640584012e+01   6.3402852518e+01    0.2711965    0.2529131  86.72 0.0002988937    1.124    0.110
       129 -10.0935    150.5582     36.0027   2.2278729977e+01   4.2636602273e+01     0.199854    0.1697025 -89.87 0.0003459013    1.091    0.084
       130 -10.0365     22.8435     34.7686   6.7853207958e+01   7.1698532495e+01    0.1949105    0.1700909 -20.12 0.0004047048    1.125    0.111
       131 -10.6972      5.4912     34.2911   8.1871066854e+01   7.3408195865e+01    0.3459571    0.1895316  36.80  0.001355792    1.945    0.486
       132  -9.7255    226.9088     33.1619   1.4251983257e+01   2.6641980099e+01    0.1452268    0.1197269 -31.66 0.0005847604    1.315    0.240
       133  -9.4592    117.3148     32.3152   2.6545392932e+01   5.1494364547e+01    0.1432457     0.108313  36.26 0.0007035679    1.644    0.392
       134 -10.5223     90.2482     31.0280   3.2463546101e+01   5.8606941801e+01    0.2926666    0.2233059  57.43 0.0009168991    1.215    0.177
       135 -12.4077     91.2574     26.4587   3.0180846195e+01   5.8994243569e+01    0.3381148    0.2501385 -47.34 0.0003823221    1.422    0.297
       136 -12.1533     10.8639     29.7347   7.5600047805e+01   7.4085437328e+01    0.3922468    0.2101786  31.18   0.00140715    1.838    0.456
       137 -10.2299     98.7214     29.7670   2.9671115319e+01   5.6629532207e+01    0.3711735    0.1863149 -48.96  0.001530966    2.173    0.540
       138  -9.3381    135.7566     28.9724   2.2170317240e+01   4.7221871987e+01    0.1682057     0.115939 -34.58 0.0003516555    1.501    0.334
       139 -10.6405     80.7513     27.7913   3.3868678578e+01   6.1453237767e+01    0.3172654    0.2386679  47.90  0.001632618    1.292    0.226
       140 -12.2323    216.9574     25.6967   1.3249585525e+01   2.9343782177e+01    0.2210363    0.1685718 -58.29 0.0003290561    1.046    0.044
       141 -11.9370    213.0269     23.9311   1.3100517533e+01   3.0300637805e+01    0.2350633    0.1585741 -54.23 0.0002924439    1.155    0.135
       142 -11.2927    183.5197     25.4116   1.5651686170e+01   3.6271605794e+01    0.3065776      0.20967  76.67 0.0005866618    1.475    0.322
       143  -8.9933    161.3365    249.3299   6.4732646970e+01   4.3851264054e+00    0.1173137   0.06897736  -4.27 0.0004827467    1.731    0.422
       144  -9.9324     52.9711     23.6550   4.2830998309e+01   6.8589483523e+01    0.2036103    0.1658674  47.63 0.0005088653    1.127    0.112
       145  -9.7755    112.6245     22.5454   2.3739592066e+01   5.3967412000e+01    0.2564846    0.1383981  -6.70 0.0009461799    3.438    0.709
       146 -11.0761    130.9720     22.0857   2.0529661141e+01   4.9279171779e+01    0.3615417    0.2843872  23.65   0.00193322    1.753    0.429
       147 -10.6555    101.0854     20.9333   2.5412785917e+01   5.7168511067e+01    0.4133545    0.2295602 -55.14  0.001773361    2.010    0.503
       148 -10.5424     15.6630     21.6599   6.7573491199e+01   7.5379060971e+01    0.3189404    0.1915335 -60.34  0.001600564    1.840    0.457
       149 -10.6530     14.8240     16.3136   6.5369745711e+01   7.6570316427e+01    0.2483465    0.2259082  67.38 0.0009992196    1.388    0.279
       150 -10.0287      2.2025     22.4246   8.1035899186e+01   7.6372607782e+01    0.2301635    0.1198305   5.09 0.0006853459    1.929    0.482
       151 -11.6155     17.5630    248.4581   9.5999599571e+01   1.9245697783e+01    0.4058688    0.1956697   2.03  0.001882186    3.188    0.686
       152 -10.4706    197.7242     19.4982   1.3065883858e+01   3.3883780307e+01    0.2058303    0.1392617 -39.59 0.0003705921    1.298    0.230
       153  -9.9337     43.4161     18.7226   4.5051733706e+01   7.1384662425e+01    0.2511789    0.1541571  31.02 0.0009628861    1.802    0.445
       154  -9.8496    207.6865     17.9259   1.2047273379e+01   3.2013434448e+01    0.1668849    0.1210409 -48.70 0.0003423869    1.104    0.095
       155  -9.6716     70.5238     18.4924   3.2660250017e+01   6.5258499206e+01    0.1421274    0.1285504  70.69 7.291618e-06    1.049    0.047
       156 -10.2837    147.9669     16.7225   1.6593914115e+01   4.5601448039e+01     0.182479     0.148509 -83.28 0.0002150051    1.073    0.068
       157 -10.5094    214.3656     16.0921   1.1236734182e+01   3.0887624440e+01    0.1999151    0.1378851 -70.39 0.0003355151    1.261    0.207
       158  -9.4969    129.2640     16.3338   1.8751625576e+01   5.0369359125e+01    0.1301352    0.1029663  38.15 0.0006969374    1.581    0.367
       159 -10.3946    229.8578    247.6854   5.2793469596e+01  -1.8078308646e+00    0.1559692   0.09588912 -12.55 0.0003882378    1.217    0.179
       160  -9.7628    153.3740     12.7358   1.4797919705e+01   4.4696186981e+01    0.1563711    0.1256204 -21.65 0.0002861469    1.483    0.326
       161  -9.9302    130.7127    247.3585   7.0621303904e+01   7.9072196662e+00    0.1094362   0.07944676  45.89 0.0007023611    1.681    0.405
       162  -9.6420    188.3319    245.9852   5.9360404153e+01   2.1226832678e+00    0.1707482   0.06122969 -24.70 0.0007047325    4.296    0.767
       163  -9.9847    243.3097    245.0059   5.0458426414e+01  -2.6132082270e+00    0.1554902   0.04980179 -22.00 0.0007030953    4.143    0.759
       164 -10.0636    147.4143    243.7334   6.6793272149e+01   6.6325960842e+00    0.1492812   0.09607623 -28.23 0.0009545252    1.650    0.394
       165 -11.0072     37.1866    241.3075   9.1213703407e+01   1.8823099635e+01    0.3746371    0.1118834  46.91  0.001647578    2.622    0.619
       166  -9.5832    117.7513    238.9868   7.2476267069e+01   1.0651611541e+01    0.1282527     0.103149 -45.68 0.0003942158    1.517    0.341
       167  -9.5261     64.3506     21.2885   3.6453654421e+01   6.6363598870e+01    0.1475813    0.1022571  31.55 0.0007024839    1.666    0.400
       168  -9.3678     85.7894    235.3363   7.9351244515e+01   1.4889043658e+01    0.1129754   0.08149845  54.06  0.000263589    1.513    0.339
       169 -11.8268     18.5832    234.9476   9.5336363249e+01   2.1715088185e+01    0.4013574    0.1507834  15.03  0.001731408    2.885    0.653
       170  -9.5687    134.0837     10.5474   1.6120308763e+01   4.9742123763e+01    0.2168183   0.09355523 -76.60  0.000429929    2.857    0.650
       171 -10.7851     74.9946    126.5230   6.7937882208e+01   4.0889014014e+01    0.2650941    0.2221036 -63.76 5.252435e-05    1.228    0.186
       172 -10.6648     30.3479    232.8062   9.2442595963e+01   2.1091189925e+01    0.4363102   0.04941218  28.93  0.001497742    3.749    0.733
       173 -11.0554     56.1768    230.8847   8.6070401304e+01   1.8932258014e+01    0.3675209    0.2083737   2.18  0.001796305    2.336    0.572
       174  -9.5803    161.3711    229.6996   6.2258289498e+01   7.1440401773e+00    0.1098193   0.08254393  43.06 0.0007030854    1.745    0.427
       175 -11.7733      6.9335    227.9074   9.7906653577e+01   2.4072372921e+01    0.3926488    0.1481732  51.28  0.001950561    2.033    0.508
       176 -11.0229      1.9005    219.9609   9.8945011513e+01   2.6088811622e+01    0.3178765    0.1139356  72.62  0.001430516    2.786    0.641
       177  -9.2984    210.4525    215.5353   5.1382503748e+01   3.7893280094e+00    0.1107687   0.08112293  -6.26 0.0001294063    1.040    0.038
       178  -9.0711    230.3593    207.3060   4.7031061266e+01   2.8196370820e+00    0.1117947   0.06342629  -6.47 0.0007039997    1.729    0.421
       179  -9.6215    237.4488    186.7598   4.2800017683e+01   4.6749896379e+00    0.1506831    0.0784026 -24.91  0.000677784    1.616    0.381
       180  -9.3963      1.2942    170.3269   9.7820564043e+01   3.7506638542e+01    0.1287585   0.09622572 -45.11 0.0003749894    1.625    0.385
       181  -9.5963      1.3216    164.3164   9.7615233553e+01   3.9014485714e+01    0.1325063   0.09675093 -42.38 0.0002758389    1.662    0.398
       182 -10.4405      7.2002    154.0205   9.5290722411e+01   4.1274961103e+01    0.2270643    0.1574416  57.95 0.0008185285    1.289    0.224
       183  -9.5412     42.2162    149.3651   8.2936897382e+01   3.9350183168e+01    0.2059821    0.1213254  36.35  0.000293757    1.528    0.345
       184 -10.0019     23.5372    148.7021   8.9358217947e+01   4.1403653415e+01    0.2758246     0.129779 -72.19  0.001147411    2.084    0.520
       185 -11.8625      3.7719    145.9995   9.6085307608e+01   4.3611461600e+01    0.3578214    0.2917062 -87.62   0.00122461    1.188    0.158
       186  -9.8285     32.0221    140.9769   8.5621857343e+01   4.2682887486e+01    0.2099083    0.1647653 -36.64            0    1.476    0.323
       187  -9.3233    206.5081    145.5116   4.0214397673e+01   1.4322562719e+01    0.1222149    0.1021913 -23.05 0.0008105257    1.003    0.003
       188 -11.4589     69.2268    135.8350   7.1650730499e+01   3.9376063168e+01    0.2676553    0.2499314 -59.09 0.0003810022    1.126    0.112
       189  -9.8007     70.4211    130.7273   7.0325369231e+01   4.0523278906e+01    0.2106483    0.1414818 -50.81 0.0006165876    1.563    0.360
       190  -9.9115     43.1535    129.3985   8.0060835552e+01   4.4621290205e+01    0.3706207    0.1665161  56.24 0.0009424993    2.666    0.625
       191  -9.2013    126.6954    129.2777   5.2943017468e+01   3.0922756692e+01    0.1440308    0.1164354  77.25 0.0001935752    1.548    0.354
