#   1 NUMBER                 Running object number                                     
#   2 MAG_AUTO               Kron-like elliptical aperture magnitude                    [mag]
#   3 X_IMAGE                Object position along x                                    [pixel]
#   4 Y_IMAGE                Object position along y                                    [pixel]
#   5 X_WORLD                Barycenter position along world x axis                     [deg]
#   6 Y_WORLD                Barycenter position along world y axis                     [deg]
#   7 A_WORLD                Profile RMS along major axis (world units)                 [deg]
#   8 B_WORLD                Profile RMS along minor axis (world units)                 [deg]
#   9 THETA_WORLD            Position angle (CCW/world-x)                               [deg]
#  10 FWHM_WORLD             FWHM assuming a gaussian core                              [deg]
#  11 ELONGATION             A_IMAGE/B_IMAGE                                           
#  12 ELLIPTICITY            1 - B_IMAGE/A_IMAGE                                       
         1 -13.2025    185.4877     22.9913   2.8982123607e+02   6.3971350509e+00   0.07993346   0.04473868 -45.29  0.006169443    1.834    0.455
         2 -13.2267    191.9982     16.2398   2.8970412082e+02   6.4354385701e+00   0.06760229   0.04978588 -73.53  0.005366088    1.468    0.319
         3 -13.3706    198.5396      9.0456   2.8958389630e+02   6.4786065989e+00   0.07894013   0.04847137   4.18  0.001496045    2.179    0.541
         4  -8.6696     38.7625    223.9768   2.9275760374e+02   4.9641328072e+00  0.008830388  0.005495394 -60.98 0.0007506814    1.589    0.371
         5 -10.2637    143.4185    249.1115   2.9170389020e+02   4.0484466529e+00    0.0155241  0.009940063  50.26  0.001545175    1.731    0.422
         6 -10.9088    134.2172    249.4594   2.9181217815e+02   4.0995832074e+00   0.01882128   0.01267377  35.27  0.001976323    1.470    0.320
         7  -8.9288     92.7863    232.1636   2.9218401296e+02   4.5468635796e+00  0.009931013  0.009123967  63.27 0.0009250621    1.145    0.127
         8 -12.6361     96.2911    239.1785   2.9218665690e+02   4.4450951006e+00   0.04513082   0.03927011  24.09  0.003926384    1.159    0.137
         9 -11.9247     86.1599    237.0494   2.9229052931e+02   4.5302407034e+00   0.03986607   0.01969439  18.84  0.003303002    2.371    0.578
        10 -11.0964     87.6116    248.9620   2.9234692995e+02   4.3843495051e+00    0.0284735   0.02647332  50.46  0.003511831    1.104    0.094
        11 -11.3832     81.9200    246.1386   2.9239529022e+02   4.4509141420e+00   0.04148119   0.01743476 -49.62  0.002761551    2.323    0.569
        12 -10.8326     99.2587    247.7567   2.9220510216e+02   4.3285389094e+00   0.03014838   0.02196885  64.41  0.003186049    1.639    0.390
        13 -11.7390    108.6603    248.3869   2.9210047405e+02   4.2650043518e+00   0.05701127   0.01541531  36.34   0.00398317    3.325    0.699
        14 -14.2042     36.8883    179.4116   2.9250558487e+02   5.4887467750e+00    0.2186154    0.0849072  40.18 0.0003556895    2.576    0.612
        15 -12.6631     52.9597    228.1712   2.9261936943e+02   4.8310097858e+00   0.04272494   0.03032357 -28.27   0.00310436    1.624    0.384
        16 -16.3531     60.6149    215.3693   2.9245234697e+02   4.9327383359e+00     1.706455    0.6679798 -78.41     0.080715    8.341    0.880
        17 -12.8390     27.5946    234.5982   2.9295173214e+02   4.9084290918e+00   0.03890453   0.02559121 -44.63 0.0005381868    1.548    0.354
        18  -8.4304    220.1635    223.3881   2.9066048183e+02   3.8839379231e+00   0.00896534  0.005878795  40.41 0.0001154658    1.538    0.350
        19 -10.0178    149.9970    222.2849   2.9146290183e+02   4.3178606479e+00    0.0115343  0.009375357 -58.71 0.0001828563    1.216    0.178
        20 -11.2828    142.2079    220.9828   2.9154476998e+02   4.3795604229e+00   0.02310168   0.01801611 -83.48  0.002560147    1.447    0.309
        21 -10.3328    105.3198    222.4837   2.9197980826e+02   4.5833188363e+00   0.01538343  0.009993137 -19.41  0.001296223    2.038    0.509
        22 -10.3861    116.9902    224.3204   2.9185637592e+02   4.4922677998e+00    0.0199513   0.01281714  17.07  0.001431913    1.714    0.416
        23  -8.7691    163.9617    221.2917   2.9129565799e+02   4.2455238151e+00  0.009365658  0.008664418  27.00 0.0005808198    1.085    0.078
        24  -8.8476    127.3280    220.3255   2.9171246538e+02   4.4763281411e+00  0.007095927  0.004929512 -26.98 0.0005178952    1.699    0.411
        25  -9.4772    177.7179    218.2398   2.9111816091e+02   4.1980967254e+00   0.01241764  0.009831945  74.89 0.0008456559    1.480    0.325
        26  -9.0412    134.0813    217.8227   2.9161910916e+02   4.4646688335e+00   0.01032741   0.00882137  58.41  0.000556291    1.255    0.203
        27  -9.5447    247.5005    217.5031   2.9030916994e+02   3.7873300473e+00  0.006514827  0.006493945 -47.77 -0.0002394987    1.012    0.012
        28  -9.1105    233.2254    216.2750   2.9046606552e+02   3.8872723728e+00  0.009074582  0.007593351  64.01   0.00058806    1.318    0.241
        29 -10.7247    101.2837    212.6324   2.9196582178e+02   4.7209451576e+00   0.02605982   0.01712503  46.38  0.002673253    1.609    0.379
        30  -8.2484     85.6842    215.2945   2.9216233843e+02   4.7836632403e+00  0.006832484  0.004989194  61.48 0.0003434381    1.602    0.376
        31  -9.1839    182.9608    213.6965   2.9102968155e+02   4.2189139200e+00  0.009251632  0.008558772  29.66  0.000512558    1.085    0.078
        32  -9.1610    151.6472    212.7775   2.9138530604e+02   4.4174197518e+00   0.01611033   0.00967472 -47.34 0.0009128143    1.666    0.400
        33  -8.4112     93.6640    216.3425   2.9207662888e+02   4.7238330646e+00    0.0133595  0.008895992  79.28  0.001273868    2.069    0.517
        34  -8.9343    141.0407    212.6474   2.9150691821e+02   4.4825319320e+00   0.01081796  0.007843125  44.62  0.000835699    1.424    0.298
        35  -8.3322     33.4041    211.4603   2.9274269481e+02   5.1403300056e+00  0.006637919  0.006220044 -34.78 0.0002330822    1.071    0.066
        36  -8.3571    186.4528    210.4340   2.9096929027e+02   4.2354961101e+00  0.006534747  0.006389332  60.60 6.499412e-05    1.047    0.045
        37 -14.7479     26.0773    248.3487   2.9305352455e+02   4.7590624783e+00   0.07269983   0.04384249  14.72  0.006969347    1.924    0.480
        38  -8.7981    134.7890    208.0926   2.9155103308e+02   4.5724633889e+00   0.01206248  0.006879663 -36.28  0.001095807    2.062    0.515
        39 -10.4689    247.9260    205.5215   2.9023030494e+02   3.9225769121e+00   0.02454771   0.01229829  11.18  0.001947906    2.890    0.654
        40  -9.3932    126.2207    205.7747   2.9163567944e+02   4.6505202372e+00   0.01162103  0.008445296  39.26  0.000617139    1.382    0.277
        41  -9.5194     93.3108    204.9392   2.9201057496e+02   4.8572876548e+00   0.01988939     0.011603 -47.12  0.001932314    1.720    0.418
        42  -9.2518     89.0522    204.7468   2.9205857993e+02   4.8849960710e+00   0.01381732  0.008834757  47.58  0.000853166    1.681    0.405
        43 -15.9981      8.3818    246.9328   2.9324916338e+02   4.8809133241e+00    0.4612507   0.08992761 -63.84   0.02391463    6.160    0.838
        44  -9.3442    115.0070    244.2163   2.9200160265e+02   4.2750298797e+00   0.01145752  0.006854409  53.47 0.0009736632    1.986    0.497
        45  -9.2678    169.7848    200.1590   2.9109823771e+02   4.4538400630e+00   0.01060527  0.009717519  68.09 0.0003114245    1.158    0.136
        46  -9.1386    175.0282    205.4541   2.9107038221e+02   4.3614107630e+00   0.01148407  0.008421179  19.66 0.0003758411    1.425    0.298
        47  -9.6938    171.5829    204.8288   2.9110627775e+02   4.3892920256e+00   0.01161757  0.008830911 -76.63  0.001264781    1.439    0.305
        48  -9.0455    163.3229    205.1859   2.9120379052e+02   4.4347616024e+00  0.009112327  0.008258733   5.33 0.0004616084    1.142    0.124
        49  -8.5784    148.4793    205.4663   2.9137682761e+02   4.5205975660e+00  0.006611284  0.006379855 -27.55 0.0002145361    1.037    0.036
        50  -9.7048    103.0601    203.4681   2.9188892456e+02   4.8158524414e+00   0.01283943  0.009241514 -32.07 0.0008418647    1.543    0.352
        51  -9.0476    167.1047    203.1015   2.9114730287e+02   4.4360574580e+00  0.009054458  0.007689007  65.90 0.0004686727    1.295    0.228
        52  -9.7011    133.1530    202.5108   2.9153554323e+02   4.6465438516e+00   0.01183638  0.009368234 -71.13 0.0003122834    1.319    0.242
        53  -9.9520     70.8452    202.0756   2.9225247508e+02   5.0247036294e+00   0.01615336  0.009891532  47.18 0.0003072558    1.761    0.432
        54  -7.8872    224.6995    202.3047   2.9047811456e+02   4.0992378337e+00  0.006785131  0.005026435  63.73 0.0002720491    1.591    0.372
        55  -8.2441    108.6929    202.3366   2.9181690869e+02   4.7951446958e+00  0.006958871  0.005024027  65.32 0.0007041625    1.675    0.403
        56 -10.6220    249.7751    241.8381   2.9043311052e+02   3.4937813849e+00   0.01544748   0.01127309 -88.23  0.001618791    1.659    0.397
        57 -10.1790    197.6698    200.2977   2.9077739682e+02   4.2847755435e+00   0.02298659    0.0115481  40.10  0.002081342    1.997    0.499
        58  -9.1066    250.4231    199.7887   2.9016613497e+02   3.9734924595e+00   0.00966145  0.005840362 -49.50 0.0004579516    1.628    0.386
        59  -7.9794    114.2927    206.3506   2.9177694971e+02   4.7153702114e+00  0.007080854  0.004861499 -30.71    0.0006031    1.675    0.403
        60  -8.4873    159.0101    199.2330   2.9121687258e+02   4.5291736558e+00  0.008616342  0.005523964  26.83 0.0003924585    1.572    0.364
        61 -10.1896    141.5719    198.1710   2.9141161545e+02   4.6460247940e+00    0.0164857   0.01209736 -18.36 0.0009385761    1.626    0.385
        62 -11.0720    244.4181    241.1254   2.9049041280e+02   3.5341672000e+00   0.01814808  0.009682224 -38.27  0.001605921    2.189    0.543
        63  -8.6106    100.6127    198.2058   2.9188480818e+02   4.8911166976e+00  0.009231016   0.00584438 -49.97 0.0001463861    1.552    0.356
        64 -11.2420    134.8497    235.9380   2.9172171990e+02   4.2514766168e+00   0.01515635     0.014534 -63.49  0.001892053    1.045    0.043
        65  -8.8239     95.5412    196.9266   2.9193551505e+02   4.9362185879e+00   0.01011484  0.006451384 -61.20 0.0004258974    1.555    0.357
        66 -11.1259     74.6923    194.7119   2.9216274946e+02   5.0865132150e+00   0.02211492   0.01447375 -39.23  0.001685904    1.640    0.390
        67 -11.0849     79.1774    187.6960   2.9206776761e+02   5.1404887430e+00   0.01814031   0.01230608 -37.02  0.000645498    1.602    0.376
        68  -8.3408    135.3819    195.2508   2.9146508856e+02   4.7167727098e+00  0.006854262  0.004990949 -16.96 0.0006955329    1.657    0.396
        69  -8.5929    113.5597    195.5649   2.9171901703e+02   4.8439713121e+00   0.01268491  0.005214024  39.04  0.001032694    2.394    0.582
        70  -9.6979    108.2933    241.5706   2.9206282323e+02   4.3456984018e+00   0.01743364  0.006500893 -68.70  0.001222371    3.407    0.706
        71  -7.9717    217.7076    194.7358   2.9051200275e+02   4.2283498715e+00  0.006574466  0.004983243 -23.96 0.0001624669    1.503    0.335
        72  -8.7712    172.2627    194.3066   2.9103355679e+02   4.5063282698e+00  0.009291877  0.007563828  62.42  0.001042691    1.366    0.268
        73 -10.0664    159.8471    194.0974   2.9117555348e+02   4.5832701268e+00    0.0164066   0.01058605  43.37  0.001050311    1.597    0.374
        74  -9.7959    191.5224    191.2236   2.9079232209e+02   4.4261345483e+00   0.01216448   0.01173371  22.22 0.0005968242    1.041    0.039
        75  -9.0605    174.7752    190.9529   2.9098387909e+02   4.5298445205e+00  0.009540004  0.007196113 -10.38 0.0004978051    1.571    0.363
        76  -8.1757    101.7239    191.7028   2.9183194580e+02   4.9593558950e+00  0.006711931  0.004927812 -29.16 0.0002814326    1.531    0.347
        77 -10.4176    250.0088    187.7872   2.9009677812e+02   4.1140129045e+00   0.01900906  0.008653673 -55.51  0.001657785    2.080    0.519
        78  -8.1197    197.6798    189.7473   2.9071218252e+02   4.4061259514e+00  0.006622979  0.005007084 -20.01 0.0001748576    1.535    0.349
        79  -9.0008    173.2401    239.5921   2.9130133855e+02   3.9791993790e+00   0.01276344  0.008120058 -77.16   0.00112768    1.865    0.464
        80  -8.8240    192.1043    198.0106   2.9082748258e+02   4.3445315533e+00   0.01007408   0.00861522 -30.50 0.0005170746    1.221    0.181
        81  -8.9273     67.4159    186.3400   2.9219533690e+02   5.2264733506e+00   0.01053812  0.007686459  21.28 0.0005643117    1.418    0.295
        82  -8.9110     89.2112    184.2857   2.9193084557e+02   5.1197094457e+00   0.01516361  0.009097998  66.19 0.0008061086    2.420    0.587
        83  -8.7049     79.7723    182.1104   2.9202652266e+02   5.2012634229e+00  0.009793578  0.008716486  66.83 0.0004972716    1.208    0.172
        84  -8.7168    134.7904    180.5660   2.9138142181e+02   4.8894003922e+00  0.009454995  0.005935198  39.92 0.0007053131    1.601    0.375
        85 -10.4875    119.0926    236.6438   2.9190789984e+02   4.3377607269e+00   0.01755243  0.009826575 -78.10  0.001084362    2.339    0.572
        86  -8.9999    128.9389    179.0953   2.9143993637e+02   4.9414287633e+00  0.009787592  0.009590487 -61.74   0.00036655    1.023    0.022
        87 -11.0166     87.1046    176.0277   2.9190434938e+02   5.2274319023e+00   0.01878541   0.01415315   2.37 0.0008648693    1.526    0.345
        88  -9.8358    181.9762    176.6389   2.9081246476e+02   4.6513387855e+00   0.01535761   0.01181288 -14.95  0.001602807    1.511    0.338
        89 -14.3300     16.4544    239.3987   2.9310980314e+02   4.9195821109e+00   0.07446676   0.04664869   2.62  0.003456815    2.116    0.527
        90 -10.5678     74.8494    173.5314   2.9203061464e+02   5.3295360581e+00   0.02244107    0.0115281 -43.94  0.001220528    2.059    0.514
        91 -10.7391    249.1022    171.7148   2.9000790834e+02   4.3043118891e+00   0.01965852   0.01253481  31.66   0.00186215    1.550    0.355
        92 -10.8054    121.4044    244.2950   2.9192826196e+02   4.2358082303e+00    0.0181976   0.01128757  52.20   0.00176731    1.851    0.460
        93 -10.4645    115.7394    239.9823   2.9196712395e+02   4.3194008983e+00    0.0168704   0.01230084  71.56 0.0003870128    1.698    0.411
        94  -8.7878    100.6982    170.2924   2.9171194370e+02   5.2120699326e+00   0.01136931  0.007919321  31.61 0.0007248226    1.424    0.298
        95 -11.3322     93.3150    167.0578   2.9177733734e+02   5.2935463226e+00   0.03130265   0.02034006 -31.26  0.001985501    1.814    0.449
        96  -8.3658    122.5930    168.8069   2.9144981966e+02   5.0979449989e+00  0.008435895  0.006421268 -78.67 0.0001301736    1.456    0.313
        97  -9.8833    107.4501    168.2561   2.9162137809e+02   5.1950627310e+00   0.01432467   0.01005265   6.65  0.001159016    1.669    0.401
        98  -8.7325     85.1423    167.8858   2.9187689162e+02   5.3329501778e+00  0.009076846  0.007584996 -17.34 0.0003090188    1.309    0.236
        99  -8.8320     58.8946    167.3183   2.9217680498e+02   5.4965379271e+00  0.009055073  0.008508454  20.50 0.0004285653    1.071    0.067
       100  -8.9518    175.9428    166.0074   2.9081647430e+02   4.8099457108e+00  0.008007349  0.007620132  22.78 0.0003270045    1.056    0.053
       101 -11.0591     98.7099    230.9549   2.9210819907e+02   4.5253297337e+00   0.02172268   0.01726317 -44.03  0.001087965    1.265    0.210
       102 -11.5027    244.8178    162.3919   2.8999965894e+02   4.4373169883e+00   0.02230372   0.01202531 -54.35  0.002108639    1.782    0.439
       103 -11.5386    246.1574    156.7079   2.8994907519e+02   4.4946181266e+00   0.03506499   0.01592577  42.13  0.002996904    2.276    0.561
       104  -8.6771    203.3211    160.7484   2.9046804561e+02   4.7058960400e+00   0.01150309  0.007124162 -25.32  0.001056854    2.125    0.529
       105  -8.5019     90.1720    160.3856   2.9177255874e+02   5.3892069728e+00  0.009349667  0.005862223  39.14 0.0003555535    1.596    0.373
       106  -8.4248    171.4134    159.2040   2.9082675885e+02   4.9154573948e+00  0.008806937  0.006443991 -78.63 0.0003217371    1.541    0.351
       107  -8.5388    119.9362    158.9513   2.9141974820e+02   5.2273533190e+00   0.00794442  0.007409805 -55.80 0.0005256329    1.063    0.059
       108  -9.1982     96.6784    159.0790   2.9168930494e+02   5.3652811852e+00  0.009567739  0.008276428 -53.59  0.000412959    1.140    0.123
       109  -8.9333     82.4180    159.0870   2.9185418734e+02   5.4505912975e+00  0.009224292  0.007940752 -61.25 0.0003819382    1.157    0.136
       110 -11.6221    111.5702    230.0231   2.9195401365e+02   4.4590599825e+00   0.02567649   0.02245207 -56.88    0.0020302    1.131    0.116
       111 -10.4764    105.7264    229.3924   2.9201759342e+02   4.5013182337e+00   0.01972424  0.009676611  42.79  0.001742213    2.121    0.528
       112  -8.7004    115.7311    157.5685   2.9145981020e+02   5.2684882703e+00  0.008673825  0.006131222  38.95 0.0002974909    1.419    0.295
       113  -9.0488     88.9056    156.8808   2.9176560226e+02   5.4371514028e+00  0.009923372  0.008530051 -27.15            0    1.224    0.183
       114  -8.6095     71.6274    156.6819   2.9196411937e+02   5.5428764928e+00   0.01048675  0.004804542 -40.86 0.0005689369    2.557    0.609
       115  -8.9138    134.4877    155.9695   2.9123323703e+02   5.1743968853e+00  0.009877765  0.006497423 -61.94 0.0003867708    1.516    0.340
       116 -10.0303    155.6887    232.1316   2.9145785626e+02   4.1703625083e+00   0.01299713   0.01152162 -29.60 0.0009300931    1.165    0.141
       117  -8.1546    124.6957    154.2628   2.9133583937e+02   5.2527894399e+00  0.006629309   0.00495475  59.04  0.000193617    1.522    0.343
       118  -8.7331     62.5150    153.4663   2.9204967874e+02   5.6344273956e+00   0.01529942  0.006601045 -63.26  0.001262231    2.363    0.577
       119  -9.1976    114.0477    152.2767   2.9144663118e+02   5.3395094351e+00    0.0115399  0.009416971 -60.17 0.0005932849    1.216    0.178
       120  -9.8600    103.8483    150.6238   2.9155431655e+02   5.4196803951e+00   0.01599896    0.0125769 -18.91  0.001283447    1.442    0.307
       121  -9.1291    106.7936    146.0101   2.9149182313e+02   5.4551490173e+00   0.01419114  0.009168762 -33.21  0.001397581    1.788    0.441
       122  -8.3760    119.9741    151.2797   2.9137199752e+02   5.3154512851e+00   0.00773872  0.005831815  28.60 0.0002732197    1.327    0.247
       123  -8.6936     92.9546    150.7401   2.9168095472e+02   5.4836133182e+00  0.009568973  0.008504485  17.16  0.001138513    1.147    0.128
       124 -10.6216    249.1746    149.2707   2.8986830411e+02   4.5619744586e+00   0.01881679  0.009519971  40.88  0.001702021    2.001    0.500
       125 -10.9551    135.7668    241.1738   2.9174334491e+02   4.1856952690e+00   0.01459822    0.0120006  51.47  0.001199723    1.283    0.221
       126 -12.2656     67.7608    143.9897   2.9193064947e+02   5.7121807779e+00   0.03702429    0.0251902  59.55  0.003429737    1.764    0.433
       127 -11.4436     72.1605    138.6845   2.9184707944e+02   5.7469443852e+00   0.04273136    0.0181111  42.44  0.003515622    2.465    0.594
       128 -13.3085     45.6916    246.3710   2.9281494576e+02   4.6647621269e+00   0.05962026   0.04242142   4.43  0.003318291    1.657    0.396
       129 -10.5062     79.6691    229.1070   2.9231668053e+02   4.6605520956e+00   0.01115267  0.009057639 -59.66 0.0004506884    1.220    0.180
       130 -11.2063    248.8642    140.9266   2.8982026801e+02   4.6597878165e+00   0.03320891   0.01697096  12.06  0.002721394    2.704    0.630
       131 -12.0028    248.4617    134.2667   2.8978370249e+02   4.7387880798e+00   0.03805903   0.01822261 -62.17  0.003362635    2.092    0.522
       132 -12.7747     43.1485    237.1714   2.9278789194e+02   4.7859309467e+00   0.02779871   0.02398105  -2.93 0.0003699321    1.246    0.197
       133 -10.7333    149.4004    247.0525   2.9162222138e+02   4.0362946563e+00   0.01644256   0.01100554 -30.37  0.001651113    1.749    0.428
       134  -9.5679    119.5567    138.3151   2.9129683551e+02   5.4672093357e+00   0.01298759   0.01072157 -33.53  0.001206221    1.266    0.210
       135  -9.6736    142.8597    229.1891   2.9158776344e+02   4.2811676497e+00  0.009946168  0.008945426  61.31 0.0004076464    1.177    0.151
       136 -12.0698     45.2965    130.5022   2.9210740359e+02   6.0018478016e+00   0.03080629   0.01993182 -87.03  0.002285319    2.043    0.511
       137 -11.3078     59.0820    134.3473   2.9197161802e+02   5.8751400649e+00   0.02782966   0.01133734 -63.22  0.001952958    2.508    0.601
       138 -10.1134    113.3803    136.2802   2.9135566801e+02   5.5276776943e+00   0.01896047   0.01459132  25.85  0.001680668    1.310    0.237
       139  -9.8012    134.0000    145.0041   2.9117120992e+02   5.3035543203e+00   0.02586761  0.009685768 -68.27  0.001845517    3.326    0.699
       140  -8.6066     97.9971    134.2896   2.9152122489e+02   5.6428121035e+00  0.007872852  0.005914861  27.00 0.0002974101    1.338    0.252
       141 -10.0690    133.3430    140.4774   2.9115086128e+02   5.3596047162e+00   0.01882535   0.01343621 -50.79  0.001309438    1.377    0.274
       142  -9.4014    190.9282    227.9864   2.9102586993e+02   4.0066143374e+00  0.009653945  0.009587146 -43.97 0.0003000909    1.009    0.008
       143 -10.4944     66.1099    126.2751   2.9184057427e+02   5.9260429683e+00   0.01575445   0.01137379  45.28  0.001570254    1.438    0.305
       144  -9.5077    209.7274    125.6933   2.9017742727e+02   5.0706184845e+00    0.0122217   0.01073714 -44.27 0.0005276232    1.134    0.119
       145  -9.0723     86.4394    126.1288   2.9160453301e+02   5.8060138723e+00   0.01763745  0.009332791  -0.91   0.00117651    3.489    0.713
       146  -9.8842    164.3285    226.2959   2.9132224949e+02   4.1857164093e+00   0.01217881  0.008169571 -66.31 0.0005283998    1.537    0.349
       147  -9.0698     50.3456    122.6317   2.9200049581e+02   6.0622908386e+00     0.010535  0.007615175  61.92  0.001096109    1.635    0.388
       148  -8.7713    238.6460    121.6945   2.8981907821e+02   4.9424683479e+00  0.007080879  0.004963019 -24.02 9.395214e-05    1.714    0.417
       149 -10.7262    136.3335    226.9886   2.9164953183e+02   4.3456286944e+00   0.01295151   0.01012201  14.88  0.001443557    1.355    0.262
       150  -8.2004    130.7213    119.3079   2.9105044726e+02   5.6189991214e+00  0.006669452  0.005049935  66.24 0.0001561438    1.556    0.357
       151 -10.1575    249.5320    117.5189   2.8966770861e+02   4.9248820935e+00   0.01237496  0.009765973 -76.05 0.0006999733    1.365    0.267
       152 -11.4095    248.3887    112.7051   2.8965108658e+02   4.9871080036e+00   0.02720015   0.02016467 -40.25  0.002976637    1.397    0.284
       153  -8.4697     70.3514    117.2979   2.9173615495e+02   6.0040160547e+00   0.00702948  0.004968505 -23.68 0.0004248868    1.689    0.408
       154  -9.4391    168.6127    113.4575   2.9057645404e+02   5.4586958911e+00   0.01446237   0.01060693  65.80  0.001410381    1.638    0.389
       155  -9.1218     82.1899    114.2085   2.9158014605e+02   5.9686966798e+00  0.008976578  0.007418771  57.16  0.001019307    1.308    0.235
       156 -10.9032     60.0291    111.4402   2.9181945817e+02   6.1332253696e+00   0.02588063   0.01590402  69.34  0.002322779    2.380    0.580
       157 -10.0636     70.0864    111.0088   2.9170042917e+02   6.0780037516e+00  0.009887978  0.009724031  32.90 0.0004184477    1.027    0.026
       158  -8.3618    102.5263    110.5545   2.9132237650e+02   5.8888891897e+00  0.006515347  0.006444909  57.07 9.064261e-05    1.030    0.029
       159  -8.8229     79.8816    108.8449   2.9157375369e+02   6.0442643365e+00   0.00959056  0.008650039 -29.25 0.0003222998    1.137    0.121
       160  -9.3490    134.5939    105.2806   2.9091901651e+02   5.7571732421e+00   0.01293634  0.006604973 -66.87  0.001140295    2.108    0.526
       161  -7.9873    149.7046    111.6634   2.9078381927e+02   5.5929729302e+00  0.007018626  0.004894768 -29.79 0.0003829606    1.649    0.394
       162 -11.2170    248.3121    100.4600   2.8957614133e+02   5.1283188467e+00   0.03493562   0.01717914 -50.46  0.003154281    1.978    0.494
       163  -9.4720    112.2089    103.9980   2.9116990871e+02   5.9062792937e+00   0.01020524  0.006788565  48.19  0.001034335    1.616    0.381
       164  -9.1460     76.4777     98.9995   2.9155237363e+02   6.1779734057e+00  0.009611799  0.008706158  24.22  0.001156458    1.111    0.100
       165  -9.2537     63.6433     98.1033   2.9169536281e+02   6.2651241513e+00   0.01151882  0.008533867  38.56 0.0005450316    1.354    0.261
       166 -10.4824     98.6365    222.6939   2.9205826338e+02   4.6209144342e+00   0.01825302   0.01605223  82.46 0.0004216034    1.242    0.195
       167  -9.1421    221.3572    245.3083   2.9078187017e+02   3.6245822247e+00  0.007112391   0.00495265 -24.17 0.0007041964    1.729    0.422
       168 -10.2697     91.2029    219.7120   2.9212576489e+02   4.6997545695e+00   0.01761976   0.01174837  51.71  0.001165654    1.671    0.401
       169  -8.4488    101.9821     87.9256   2.9118889974e+02   6.1525681625e+00  0.007822639  0.007420171 -55.42 0.0003489592    1.046    0.044
       170 -11.1458    146.1765    240.5599   2.9161946754e+02   4.1303689087e+00    0.0185141   0.01441486 -51.81 0.0004749627    1.263    0.208
       171  -9.3847    205.1974    249.3761   2.9099316004e+02   3.6748104272e+00  0.009271374   0.00588666  38.42 0.0001172184    1.570    0.363
       172  -8.8959    163.3059    248.9783   2.9147368468e+02   3.9307481191e+00   0.01063432  0.005467081 -89.86 0.0007036377    4.171    0.760
       173 -12.0298    126.1480    240.9117   2.9185272234e+02   4.2463501737e+00   0.02996712   0.02052111 -61.09  0.001677527    1.449    0.310
