#   1 NUMBER                 Running object number                                     
#   2 MAG_AUTO               Kron-like elliptical aperture magnitude                    [mag]
#   3 X_IMAGE                Object position along x                                    [pixel]
#   4 Y_IMAGE                Object position along y                                    [pixel]
#   5 X_WORLD                Barycenter position along world x axis                     [deg]
#   6 Y_WORLD                Barycenter position along world y axis                     [deg]
#   7 A_WORLD                Profile RMS along major axis (world units)                 [deg]
#   8 B_WORLD                Profile RMS along minor axis (world units)                 [deg]
#   9 THETA_WORLD            Position angle (CCW/world-x)                               [deg]
#  10 FWHM_WORLD             FWHM assuming a gaussian core                              [deg]
#  11 ELONGATION             A_IMAGE/B_IMAGE                                           
#  12 ELLIPTICITY            1 - B_IMAGE/A_IMAGE                                       
         1 -15.5930    175.9116    122.3929   2.9048436809e+02   5.3286632305e+00    0.1368589   0.06437949 -48.02   0.01240231    2.073    0.518
         2 -15.8961    212.7933    122.0666   2.9005752824e+02   5.1329260971e+00    0.1168423   0.07832455  71.04   0.01166541    2.060    0.515
         3 -16.2487    198.7016    118.8413   2.9020102502e+02   5.2454335870e+00    0.1837744   0.05977356 -65.33   0.01319261    3.437    0.709
         4 -16.5691     91.4030    120.7596   2.9144956782e+02   5.8028422568e+00    0.1777619   0.09459438 -64.01   0.01329257    1.929    0.482
         5 -14.0855    174.0936     35.4290   2.8999737127e+02   6.3165728849e+00    0.0418543   0.03585206  58.57  0.002716629    1.298    0.229
         6 -12.9288    248.3362     25.4747   2.8908336543e+02   6.0259717483e+00   0.02793256   0.02066495 -78.59  0.002140319    1.554    0.356
         7 -12.9691     20.1745     22.6728   2.9170116388e+02   7.2895859009e+00   0.03111068    0.0273024  81.96   0.00263884    1.294    0.227
         8 -12.1457     12.1731     12.1508   2.9173238881e+02   7.4508230671e+00   0.02205279   0.01516472 -72.59  0.001934095    1.614    0.380
         9 -11.9983    188.8473      2.2208   2.8963283026e+02   6.6097590728e+00   0.02741765   0.01160314  28.07   0.00237449    2.270    0.559
        10 -13.3924    248.7552      6.8833   2.8896962814e+02   6.2324044612e+00   0.04321855   0.02033304 -62.81  0.003886897    2.155    0.536
        11 -11.4468    239.4706    218.9982   2.9031568832e+02   3.8980918121e+00   0.01316559  0.008504007  41.70  0.001370466    1.614    0.380
        12 -14.0504    248.7877    243.1821   2.9034936615e+02   3.5756889697e+00   0.05037156   0.02025711 -55.18  0.003322864    2.302    0.566
        13 -14.6486    229.7828    244.5733   2.9057595720e+02   3.6626430964e+00   0.06739648   0.03800816 -40.28  0.004766148    1.872    0.466
        14 -14.8001    221.6778    236.8567   2.9062427013e+02   3.7932240705e+00   0.05712713   0.03640061 -44.41  0.004678454    1.563    0.360
        15 -14.6394    225.6002    226.3789   2.9051818187e+02   3.8899567424e+00   0.04356728   0.03775395 -59.78  0.003012716    1.164    0.141
        16 -12.8067    192.1530    247.1035   2.9102349718e+02   3.8371938324e+00   0.02954133   0.02364012  58.88   0.00209534    1.428    0.300
        17 -10.9270    187.4412    241.4915   2.9104509406e+02   3.9257756394e+00   0.01249755   0.01110485  85.92 0.0009126022    1.263    0.208
        18 -13.9869    177.5000    246.6803   2.9118964704e+02   3.9209610707e+00    0.0309152   0.02290452 -87.24  0.002097565    1.646    0.392
        19 -15.1296    164.3771    246.2366   2.9133810260e+02   3.9966840366e+00   0.05267498   0.04026998  21.45  0.003789298    1.305    0.234
        20 -19.5406     52.0359    148.6772   2.9206624535e+02   5.7000731274e+00     1.010711    0.2306922 -64.75   0.05920265    5.133    0.805
        21 -11.6114     11.0190    207.7712   2.9288202876e+02   5.2541939248e+00   0.02813661   0.01663917 -56.54  0.002862854    1.634    0.388
        22 -10.8055    111.7457    209.9714   2.9173364156e+02   4.6885482471e+00   0.01365727  0.007714172 -12.42  0.001168507    2.613    0.617
        23 -11.7521     87.8634    205.9090   2.9198530071e+02   4.8627792743e+00   0.01755233   0.01132639 -88.17  0.001706555    2.113    0.527
        24 -10.0439    107.4168    206.4451   2.9176305207e+02   4.7515660461e+00  0.006413513   0.00613119 -24.75 7.850669e-05    1.014    0.014
        25 -12.4521     92.0200    203.3770   2.9192269415e+02   4.8689534620e+00   0.02136672   0.01366231 -84.91  0.002087922    2.073    0.518
        26 -11.6029    163.9700    202.7742   2.9109017558e+02   4.4882526990e+00   0.01376193  0.008104929 -62.19  0.001374549    1.707    0.414
        27 -13.5357    168.5559    194.3170   2.9098815786e+02   4.5587419081e+00   0.03841976   0.03083731  86.60  0.002738795    1.482    0.325
        28 -12.2803     89.7632    197.0450   2.9191195360e+02   4.9524236696e+00   0.01713596  0.009767154  40.77 0.0006328961    1.817    0.450
        29 -11.6014    222.2715    191.8464   2.9035537609e+02   4.2965368622e+00   0.01765274   0.01237641 -60.64  0.001808886    1.425    0.298
        30 -10.6141    118.4950    191.0086   2.9154570435e+02   4.8658116508e+00   0.01081194  0.008774273 -24.77 0.0007098808    1.280    0.219
        31 -12.3201    108.2030    189.6768   2.9165659613e+02   4.9362201167e+00   0.02296299   0.01800249 -55.88  0.001461318    1.257    0.205
        32 -11.7793    113.9576    191.2849   2.9159960794e+02   4.8871288556e+00    0.0149862   0.01460919 -74.57  0.001581015    1.082    0.075
        33 -15.9391     28.6715    134.2217   2.9225198629e+02   5.9883162480e+00   0.08323043   0.07849153 -31.83  0.007205135    1.032    0.031
        34 -11.6240     92.2424    187.8046   2.9182971808e+02   5.0431870615e+00   0.02802591   0.01095832  35.37   0.00129238    2.444    0.591
        35 -13.9278    124.4634    182.5005   2.9142745703e+02   4.9294957659e+00   0.04636982   0.03266486  26.56  0.005128504    1.403    0.287
        36 -15.0086    129.0358    165.3963   2.9127526581e+02   5.0974886535e+00   0.09148799   0.03939036 -67.24  0.007593554    2.606    0.616
        37 -14.1514    142.6603    175.7670   2.9117856515e+02   4.9072659516e+00   0.03919642   0.03796744  -9.29  0.003048064    1.011    0.011
        38 -13.3401    142.5387    167.2505   2.9113040545e+02   5.0038225498e+00   0.03954354   0.02473812  40.14  0.003509386    1.644    0.392
        39 -14.0702    142.2719    151.2522   2.9104034319e+02   5.1854001884e+00   0.03981222   0.03300783 -67.31  0.002894528    1.255    0.203
        40 -13.2744    134.7687    144.7367   2.9108890920e+02   5.2992221996e+00   0.03136619   0.02856468  75.04  0.003148768    1.220    0.181
        41 -10.3105    103.4969    184.3644   2.9167998154e+02   5.0213881660e+00   0.01123954  0.006096839  24.04  0.001071399    1.841    0.457
        42 -10.8422     35.4224    183.7099   2.9246122274e+02   5.3945357515e+00   0.01229168  0.008495246 -69.10 0.0009765897    1.545    0.353
        43 -15.6249    209.1790    160.2058   2.9032165860e+02   4.7233524180e+00    0.1168216   0.09615416  65.08   0.01237024    1.406    0.289
        44 -15.5627    158.7150    100.2673   2.9055354077e+02   5.6705399300e+00    0.1066662   0.04997246 -49.82  0.008270836    2.047    0.511
        45 -11.2518    206.6460    248.1189   2.9086266938e+02   3.7475939194e+00   0.01506324   0.01085259  34.54  0.001646038    1.387    0.279
        46 -14.8008    164.4625    124.0035   2.9062573392e+02   5.3723834389e+00   0.07950117   0.03211654 -64.46  0.005593997    2.602    0.616
        47 -11.8613      9.7860    232.0471   2.9303664999e+02   4.9872165466e+00   0.01496616    0.0136291   4.90  0.001052572    1.091    0.083
        48 -13.4458    185.5459    222.4483   2.9095618640e+02   4.1503742023e+00   0.03656922   0.03178568  18.05  0.003070777    1.143    0.125
        49 -10.7759     95.3507    175.5529   2.9172270668e+02   5.1644799426e+00   0.01577056  0.008820969 -39.10  0.001501699    1.922    0.480
        50 -10.7383     97.5200    170.9385   2.9167087582e+02   5.2047853592e+00   0.01553954  0.007843717 -44.41 0.0009523487    2.015    0.504
        51 -12.7390     19.8992    172.8587   2.9257739879e+02   5.6000430879e+00   0.02070419   0.01452574 -57.13  0.001265701    1.398    0.285
        52 -11.3019    118.6706    173.9273   2.9144438234e+02   5.0572541730e+00   0.01475502   0.01025959 -37.00  0.001019749    1.489    0.328
        53 -15.5931     29.6923    105.6467   2.9207416999e+02   6.3046870724e+00   0.09756703   0.08142088  -8.35   0.01166416    1.250    0.200
        54 -12.4999    179.9798    168.3894   2.9070562206e+02   4.7889853957e+00   0.02428555   0.01641879  50.33   0.00256156    1.675    0.403
        55 -12.5181    174.4050    163.2894   2.9074013309e+02   4.8764936570e+00   0.02682415   0.01313731  29.54  0.002491653    1.969    0.492
        56 -11.0561     14.8577    167.2607   2.9260312126e+02   5.6901398753e+00   0.01456857   0.01209957 -62.06  0.001067946    1.220    0.180
        57 -12.5588    163.5466    161.4344   2.9085443680e+02   4.9559866746e+00    0.0321266   0.01823146 -26.68   0.00292619    2.273    0.560
        58 -12.9922     68.6968    144.3005   2.9184854464e+02   5.6598597551e+00   0.03699033   0.02129319  54.08  0.003453627    2.218    0.549
        59 -12.4144     91.8969    156.5131   2.9165187232e+02   5.3975283266e+00    0.0173559    0.0116555 -32.06  0.001023841    1.621    0.383
        60 -15.8594    106.0582    149.2397   2.9144622469e+02   5.4032199751e+00   0.08119363   0.06891812 -30.48  0.005811626    1.183    0.155
        61 -12.4139    195.8825    194.7509   2.9067602105e+02   4.4063817980e+00   0.03462209   0.02390735  41.45  0.003763934    1.504    0.335
        62 -11.3572     15.6398    148.8718   2.9248745779e+02   5.8931433407e+00   0.01696912   0.01405131  -2.57  0.001286953    1.259    0.206
        63 -11.1213    153.5054    159.8289   2.9096080265e+02   5.0282405715e+00   0.01260698   0.01116492  27.76 0.0008795982    1.130    0.115
        64 -15.8711    195.1610    135.5048   2.9033904552e+02   5.0770853557e+00    0.0758168    0.0651269 -68.10  0.008676811    1.215    0.177
        65 -13.7011    110.9116     94.8796   2.9107364305e+02   5.9891135276e+00   0.05694807   0.03116664 -63.51  0.005516017    1.864    0.463
        66 -13.7768    106.9454     86.8680   2.9107271686e+02   6.1006602429e+00   0.04764432   0.02982181  17.58  0.004902457    1.666    0.400
        67 -12.0700    246.5663     99.1911   2.8953504695e+02   5.2073129830e+00   0.02486829   0.01234244 -82.64  0.001867797    3.549    0.718
        68 -11.5538    250.1042     95.3715   2.8947199917e+02   5.2310778589e+00   0.01252262  0.009808059 -73.17  0.001127593    1.386    0.278
        69 -12.4643    181.8525     86.7407   2.9020778598e+02   5.6976650489e+00   0.02880908   0.01843586 -16.63  0.002313771    1.961    0.490
        70 -12.8182    174.1332    150.0875   2.9066634076e+02   5.0265704179e+00   0.02850853   0.01471169  20.90  0.002370815    2.012    0.503
        71 -10.6328    250.4022     88.2254   2.8942679046e+02   5.3097892959e+00  0.009044999  0.006330897 -78.03 0.0009478491    1.670    0.401
        72 -11.5536    217.6743     84.7755   2.8978348252e+02   5.5259034547e+00   0.01613193   0.01480197  41.88  0.001258015    1.134    0.118
        73 -12.9560    202.1658     74.6177   2.8990280686e+02   5.7240872486e+00    0.0306252   0.02719004  78.09   0.00240553    1.271    0.213
        74 -12.6000    242.5047     71.0274   2.8941713066e+02   5.5458967464e+00   0.01422954   0.01107954  72.73  0.001592062    1.571    0.363
        75 -12.5659    161.5273     34.9238   2.9013940556e+02   6.3902326318e+00   0.04496128   0.03043251  63.30  0.004599887    1.913    0.477
        76 -12.8191    175.6821     54.6855   2.9009164155e+02   6.0915160010e+00   0.04595902   0.01752391 -57.08   0.00383091    2.431    0.589
        77 -12.2155    176.0165     25.8662   2.8991924952e+02   6.4136312517e+00   0.02522622   0.01313965 -50.35  0.001320595    1.845    0.458
        78 -13.9723    182.3398     44.1342   2.8995316430e+02   6.1741025288e+00   0.05754894   0.02848612  24.33  0.004096369    2.020    0.505
        79 -12.7788    197.0188    201.5665   2.9070262094e+02   4.3235287010e+00   0.02529346   0.02151811 -15.25  0.001864884    1.212    0.175
        80 -13.1441    191.7508     57.1656   2.8992084130e+02   5.9766769810e+00   0.03097973    0.0251644  42.25  0.002215875    1.281    0.219
        81 -12.3225    190.9916     50.7074   2.8989183265e+02   6.0533845968e+00   0.02155289   0.01704194   7.20  0.001685812    1.316    0.240
        82 -12.8881    248.5414     55.9617   2.8925948504e+02   5.6824422690e+00   0.02521432   0.01803564 -67.38  0.001970878    1.470    0.320
        83 -11.2610     13.2876     53.7393   2.9196178330e+02   6.9770270746e+00   0.01805042   0.01478926  13.98  0.001480637    1.230    0.187
        84 -12.4998    159.4902     48.5778   2.9024273315e+02   6.2477542329e+00   0.01658639   0.01307958  25.16 0.0009603546    1.257    0.205
        85 -12.4373    240.1375     42.4801   2.8927735030e+02   5.8794845754e+00   0.01890965   0.01539726 -89.68  0.002197022    1.433    0.302
        86 -11.8865     19.3904     41.1044   2.9181763842e+02   7.0864653832e+00   0.03071801   0.01446866  23.71  0.002757066    2.137    0.532
        87 -12.3285     24.1693     35.0190   2.9172691848e+02   7.1292856695e+00   0.02848901   0.01930876 -32.33  0.002361046    1.594    0.373
        88 -11.6612    250.4344     36.5626   2.8912413498e+02   5.8900726284e+00   0.02209631  0.005457983 -59.56  0.001506388    3.614    0.723
        89 -12.5419    244.4961     37.9980   2.8920091731e+02   5.9061799362e+00   0.02020482    0.0140055  48.45  0.001916807    1.593    0.372
        90 -13.7515    190.0674    208.9748   2.9082575838e+02   4.2776554704e+00   0.05559682   0.02408353 -59.03  0.004879858    2.209    0.547
        91 -12.5225    185.9867    204.9575   2.9084935777e+02   4.3449013024e+00   0.02964199   0.01594697 -65.06  0.002286351    1.938    0.484
        92 -12.1832    240.0426    224.4895   2.9034108798e+02   3.8332183164e+00   0.01759629   0.01337965 -38.26   0.00108219    1.325    0.245
        93 -10.5093     30.4831    223.9263   2.9275112626e+02   4.9678369302e+00   0.01669168  0.008514576 -14.31  0.001237517    3.538    0.717
