#   1 NUMBER                 Running object number                                     
#   2 MAG_AUTO               Kron-like elliptical aperture magnitude                    [mag]
#   3 X_IMAGE                Object position along x                                    [pixel]
#   4 Y_IMAGE                Object position along y                                    [pixel]
#   5 X_WORLD                Barycenter position along world x axis                     [deg]
#   6 Y_WORLD                Barycenter position along world y axis                     [deg]
#   7 A_WORLD                Profile RMS along major axis (world units)                 [deg]
#   8 B_WORLD                Profile RMS along minor axis (world units)                 [deg]
#   9 THETA_WORLD            Position angle (CCW/world-x)                               [deg]
#  10 FWHM_WORLD             FWHM assuming a gaussian core                              [deg]
#  11 ELONGATION             A_IMAGE/B_IMAGE                                           
#  12 ELLIPTICITY            1 - B_IMAGE/A_IMAGE                                       
         1 -12.0565     51.7637     34.6327   2.9137004179e+02   7.0849788812e+00   0.06286354   0.05232923  -7.54  0.005108601    1.314    0.239
         2 -10.4633     68.3146     76.3963   2.9142710817e+02   6.5045447231e+00   0.05222783   0.01979337 -56.02  0.004233611    2.428    0.588
         3 -12.1064     39.7653     48.0240   2.9159039369e+02   6.9987997432e+00   0.06131801    0.0450651  78.84  0.006476099    1.680    0.405
         4 -11.9688     58.2577     69.7782   2.9150482365e+02   6.6394887996e+00   0.08190308   0.03910399 -75.58  0.006517683    2.826    0.646
         5 -11.1246     97.8872     42.8939   2.9088122584e+02   6.7224429305e+00   0.05689338   0.04187578 -43.77  0.003090201    1.373    0.272
         6 -12.2022    183.0605     26.9307   2.8979232483e+02   6.4134231680e+00   0.06003678   0.03370274   9.17  0.005322829    2.324    0.570
         7 -11.0681    147.6272     26.0824   2.9020014164e+02   6.6291182294e+00   0.04083832   0.02987028  -5.58  0.004327815    1.631    0.387
         8 -10.6136    125.0843     34.2412   2.9051202339e+02   6.6652699726e+00   0.05131957  0.008647951 -56.88  0.003089951    4.387    0.772
         9 -12.5008     86.7312     52.2136   2.9106729843e+02   6.6788398520e+00   0.08505385    0.0308883 -57.51  0.004266194    2.532    0.605
        10 -12.2179    134.7119      5.0314   2.9022419351e+02   6.9481508196e+00   0.05778911   0.03033365  27.71   0.00538847    1.895    0.472
        11 -10.9465    124.1306      3.0149   2.9033550577e+02   7.0329126751e+00   0.02011311   0.01545912  -2.18  0.001076769    1.485    0.327
        12 -11.3827    148.7033     15.8478   2.9012607032e+02   6.7415428143e+00   0.04453494   0.03090895 -51.73  0.004120432    1.408    0.290
        13 -12.2198    162.5535     10.6936   2.8993361586e+02   6.7208454956e+00   0.09632937   0.06002989 -68.47  0.009630364    1.689    0.408
        14 -12.4252     71.2596     30.9871   2.9112055100e+02   7.0146463006e+00    0.1157424   0.05736208  23.44   0.01032825    2.112    0.527
        15 -11.8247     68.5944     20.6698   2.9108976490e+02   7.1497506377e+00   0.06864531    0.0344671   2.79  0.005051221    3.521    0.716
        16 -11.9404    130.5482     20.0950   2.9036330946e+02   6.7976577232e+00   0.05335139   0.02846808  28.12  0.003408839    1.859    0.462
        17 -11.0679    113.4973      9.1083   2.9049619759e+02   7.0239217287e+00   0.04835236   0.03861107  14.13  0.005511153    1.315    0.239
        18 -10.6866    123.7019     10.2101   2.9038376010e+02   6.9519840051e+00   0.01754296   0.01443061  52.33   0.00111778    1.289    0.224
        19 -12.1042     91.4209     17.8578   2.9080640047e+02   7.0503301166e+00    0.0460601   0.02613072 -31.93   0.00310561    2.226    0.551
        20 -11.3400    117.2364     15.7223   2.9049231593e+02   6.9255564077e+00   0.01474264   0.01277211  45.33 0.0003837755    1.184    0.155
        21 -13.1962     99.8949      6.7380   2.9064069971e+02   7.1302175171e+00    0.0429311   0.02408676 -74.14   0.00224144    2.100    0.524
        22 -12.0241     93.3139      8.5477   2.9072838863e+02   7.1473418372e+00    0.0314642   0.02433729   2.61  0.003322724    1.446    0.308
        23 -11.8570     21.0411     43.4276   2.9178153003e+02   7.1601141569e+00   0.05076065   0.02909076  67.79  0.004278657    2.718    0.632
        24  99.0000     31.3136     11.4293   2.9146978268e+02   7.4721983825e+00   0.03314329   0.01347943 -61.99  0.002719478    2.409    0.585
        25 -11.8992     78.0285      7.4823   2.9090044525e+02   7.2481528255e+00   0.02883163    0.0188015 -44.30  0.000513939    1.562    0.360
        26 -12.2805      9.6302     26.5973   2.9181404111e+02   7.4211777572e+00   0.08167588   0.02657583  20.54   0.00534966    4.017    0.751
        27 -12.2762     19.1374     13.6991   2.9162566809e+02   7.5160612059e+00   0.03088454   0.02985732 -24.74  0.003894419    1.033    0.032
        28 -12.2880     41.3074     16.2155   2.9138172993e+02   7.3590240467e+00   0.06339058   0.03954192 -72.13  0.006275123    1.762    0.432
        29 -12.5766     50.3173     10.9670   2.9124499691e+02   7.3678947317e+00     0.020451   0.01560697  19.14 0.0003800866    1.355    0.262
        30 -12.6589     63.2901      4.3962   2.9105403229e+02   7.3691568163e+00    0.1035839   0.02419811  27.72   0.00660071    4.058    0.754
        31 -12.0151     29.1513     26.0477   2.9158268081e+02   7.3150717713e+00    0.0611233   0.03515689 -48.12  0.004960194    1.724    0.420
        32 -11.0702      9.0597     19.4039   2.9177761744e+02   7.5079282333e+00   0.02754587   0.01390509  28.06  0.002519269    1.961    0.490
        33 -11.1782      3.0192      3.0384   2.9175015130e+02   7.7325446991e+00   0.02628538   0.01544841  14.35  0.002096873    1.965    0.491
        34 -11.2315      2.9021     18.6503   2.9184506184e+02   7.5521221593e+00   0.02288642   0.01230377 -49.91  0.001290782    1.816    0.449
        35 -13.0061      6.3064     10.1418   2.9175429858e+02   7.6312310161e+00   0.06588925   0.04421151 -13.38   0.00651938    1.915    0.478
        36 -11.5303    127.5106     15.2932   2.9036988178e+02   6.8709577591e+00   0.05989033   0.02816594   2.68  0.003839049    4.668    0.786
        37 -10.7176    244.2134     19.6743   2.8903688865e+02   6.1414902472e+00   0.03259414   0.01572036  32.87  0.002937181    2.002    0.500
        38  -9.2879    221.9152     11.4722   2.8924691451e+02   6.3664465862e+00   0.01909818   0.01260263  86.77  0.001496262    2.030    0.507
        39 -10.0004    217.1342     14.8602   2.8932295225e+02   6.3550411659e+00   0.03016268   0.01390007 -44.36  0.002255607    2.316    0.568
        40 -10.0694    212.2307     14.6877   2.8937898878e+02   6.3855937249e+00   0.02887099   0.01582402 -59.79  0.002403171    1.774    0.436
        41  -9.2441    231.0389     16.9800   2.8917391013e+02   6.2494823690e+00   0.01807912    0.0118759  87.19   0.00140893    2.044    0.511
        42 -10.4877    202.4433     18.5881   2.8951640726e+02   6.3973721720e+00   0.02929876   0.01852928 -28.01  0.002821424    1.955    0.488
        43  -9.9288    177.8711     20.1190   2.8981180935e+02   6.5225620450e+00    0.0159111    0.0126125 -79.73  0.001327316    1.375    0.272
        44  -8.9757    178.2076     14.9680   2.8977690384e+02   6.5803130282e+00     0.013637   0.01099367 -14.22   0.00153512    1.386    0.279
        45 -10.4781     54.6545     18.1071   2.9123717537e+02   7.2600254929e+00   0.02570998      0.01532 -32.63  0.001657175    2.024    0.506
        46 -12.1940    112.0580     22.2297   2.9059182823e+02   6.8801007841e+00   0.03699864   0.02805155  41.57  0.001654891    1.341    0.254
        47  -8.6580     61.5428     15.7867   2.9114280627e+02   7.2471479403e+00  0.007994704  0.006435828 -84.69 0.0002725662    1.378    0.274
        48 -11.7815    223.2713      1.9637   2.8917388007e+02   6.4686889123e+00     0.022374   0.01425841  23.57  0.002274233    1.611    0.379
        49  -9.5628    230.1863      2.6569   2.8909758810e+02   6.4203631477e+00   0.02273151   0.01180852 -28.99  0.001822051    2.856    0.650
        50  -9.6341    237.1458     14.4046   2.8908736273e+02   6.2437306260e+00   0.01571363   0.01072863  48.26  0.001635068    1.568    0.362
        51 -10.1260    232.8010     11.0189   2.8911752034e+02   6.3082701471e+00   0.02194107   0.01576059 -81.21  0.001761277    1.599    0.375
        52  -9.4692    242.7506     13.0656   2.8901410879e+02   6.2265705506e+00   0.01312032   0.01251497  14.43  0.000820728    1.057    0.054
        53  -8.4364    243.3205      9.6780   2.8898708234e+02   6.2624843813e+00  0.006882544  0.006569507 -29.67  0.000377021    1.050    0.048
        54  -9.1888    227.0148      9.0023   2.8917269991e+02   6.3653480573e+00   0.01419584   0.01162678  64.48  0.001261434    1.360    0.264
        55 -10.3507    189.9548      8.3216   2.8960006240e+02   6.5890155654e+00   0.01265862   0.01122386 -10.71 0.0003138581    1.192    0.161
        56 -10.7994    195.9282      4.3518   2.8950659496e+02   6.6002542676e+00    0.0460629   0.02941765 -48.59  0.004722829    1.549    0.354
        57 -11.7067    209.6291      3.6829   2.8934302861e+02   6.5282413247e+00    0.0284134    0.0165453  39.14 0.0005562256    1.718    0.418
        58  -8.9262    180.5251      7.8044   2.8970680168e+02   6.6498605676e+00   0.01914258   0.01070788 -75.24  0.001725706    2.158    0.537
        59  -9.9528    171.2239      1.3087   2.8977609722e+02   6.7792168631e+00    0.0130262  0.006108767  26.75  0.001129193    2.140    0.533
        60 -10.2186    173.5057      8.8077   2.8979462784e+02   6.6790487298e+00   0.01401464   0.01150967 -67.37 0.0005056676    1.235    0.191
        61 -10.2426    175.6008      4.1409   2.8974213447e+02   6.7209504628e+00   0.02092063   0.01407332  11.68  0.001703875    1.682    0.406
        62 -10.4137    247.8862      6.9944   2.8891782298e+02   6.2669426865e+00   0.03062603   0.01617132  59.64  0.002495137    2.813    0.644
        63 -10.9472     26.2398      4.8942   2.9148987933e+02   7.5772520134e+00   0.03573977   0.01232828 -47.46  0.002657111    2.958    0.662
        64  -9.4589    157.6721      7.2141   2.8996958692e+02   6.7895372134e+00   0.01345664   0.00971556  59.40 0.0007402229    1.602    0.376
        65  -9.8343    185.1791     14.2862   2.8969158329e+02   6.5476735555e+00   0.02066869   0.01214985  16.42  0.001962288    1.918    0.479
        66 -11.5111    204.2309      6.5803   2.8942332285e+02   6.5261072172e+00   0.02666866    0.0202942 -32.14 0.0005443256    1.420    0.296
        67  -9.9746    248.7537      3.7469   2.8888817494e+02   6.2994890372e+00    0.0200893   0.01068245  46.00  0.001828485    2.046    0.511
        68  -8.4921    189.5166      1.4339   2.8956371137e+02   6.6713717734e+00  0.006606717  0.006325158 -24.48 8.837454e-05    1.050    0.047
        69  -8.6982    146.0295      1.3505   2.9007006298e+02   6.9251193096e+00  0.009260907   0.00622163  26.05 0.0009543158    1.499    0.333
        70 -11.7576     38.9446     89.4129   2.9184770887e+02   6.5228931096e+00   0.08890255   0.05086501 -51.70  0.008674046    1.693    0.409
        71  -8.4007    124.3655    250.3116   2.9181336920e+02   4.1594778691e+00  0.007190381  0.004898997 -25.34 0.0007038841    1.760    0.432
        72  -8.0262      1.5054    250.4793   2.9324369491e+02   4.8659623471e+00  0.006562792  0.006424995 -32.73 0.0008102729    1.013    0.013
        73 -11.9527     53.3494     87.1226   2.9166592739e+02   6.4663859105e+00   0.07498679   0.03932008 -44.55   0.00632713    1.985    0.496
        74  -9.0648     60.3410    248.6724   2.9254834826e+02   4.5481773764e+00   0.00712399  0.004927601  61.54 0.0007051426    1.737    0.424
        75 -11.8470     17.3990    102.5965   2.9217792667e+02   6.4938950723e+00   0.06121243   0.03777927  89.25  0.005594479    2.280    0.561
        76 -11.4483     21.5213     96.5620   2.9209376851e+02   6.5402665455e+00   0.02667129   0.01991444 -12.96 0.0007276064    1.575    0.365
        77 -11.3323     33.9301     58.3869   2.9172058309e+02   6.9121457249e+00   0.03841786   0.02755695 -43.76  0.004156336    1.412    0.292
        78 -12.2582     46.1639     69.0349   2.9164151844e+02   6.7179319557e+00   0.08865852   0.02649745  26.93  0.006260795    3.314    0.698
        79 -11.2599     40.6811     63.3580   2.9167152995e+02   6.8154875932e+00   0.02895609   0.01900884 -19.65 0.0009512677    1.955    0.488
        80  -8.5576     25.5076    248.5523   2.9295295068e+02   4.7502718989e+00  0.006514187   0.00644681 -25.03 8.168917e-05    1.005    0.005
        81 -10.5558     30.7806     42.8862   2.9166453728e+02   7.1102591600e+00   0.02297497   0.01582688  52.85  0.001473376    1.621    0.383
        82 -10.5777    105.2130    116.4287   2.9123654139e+02   5.8261973312e+00   0.02073805   0.01069955  26.71  0.001882124    1.944    0.486
        83  -9.4921     41.5206    118.4613   2.9199130523e+02   6.1705213104e+00   0.01026719   0.01001161  73.10 0.0006057526    1.055    0.052
        84  -9.2737     39.3794    115.2166   2.9199689192e+02   6.2205746705e+00   0.01295406  0.008782838  77.66  0.001007458    1.957    0.489
        85  -9.7422     12.5000    117.0764   2.9232155315e+02   6.3538363984e+00   0.01721714   0.01011224  32.58   0.00169314    1.671    0.402
        86  -9.9766     63.7361    138.1412   2.9184985385e+02   5.8136173815e+00   0.01587088  0.008175123  41.79  0.001264203    1.994    0.499
        87  -9.1885    118.8736    115.8699   2.9107400264e+02   5.7536208438e+00   0.01055335   0.00892157 -25.71  0.000832866    1.254    0.203
        88 -10.1793     97.8042    114.8220   2.9131327615e+02   5.8877254639e+00    0.0154668    0.0131888  24.45    0.0010107    1.182    0.154
        89 -10.0017    132.6443    111.3477   2.9088646450e+02   5.7263903114e+00   0.02225158    0.0166227 -45.57  0.002207471    1.339    0.253
        90  -9.7934    134.0147    103.8900   2.9082580652e+02   5.8050642397e+00   0.02166458   0.01156726 -58.21  0.002037544    1.800    0.445
        91  -8.8663     45.4697    113.0597   2.9191296546e+02   6.2105137477e+00   0.01068533  0.008849425  24.82  0.001138309    1.217    0.178
        92  -9.1440    194.7487    112.3932   2.9016962100e+02   5.3539780255e+00  0.009446564  0.006439026  11.48 0.0009562765    1.654    0.395
        93  -9.9568    105.4261    109.6552   2.9119350339e+02   5.9036517523e+00   0.01550304    0.0136673 -43.04   0.00185552    1.130    0.115
        94 -10.8505     86.5223     99.6613   2.9135404654e+02   6.1290905410e+00   0.06341959   0.03197216   2.91  0.004700626    3.462    0.711
        95  -9.2303     34.7161    109.2628   2.9201571212e+02   6.3166486711e+00   0.01430696    0.0124097  30.33  0.001698848    1.156    0.135
        96  -8.7772     38.8032    107.1570   2.9195544991e+02   6.3175525315e+00  0.009684023  0.007179959 -39.68 0.0007316945    1.396    0.284
        97 -12.0632     27.9507     84.3605   2.9194579472e+02   6.6449694817e+00    0.0608161   0.04033833 -39.70  0.006266373    1.597    0.374
        98  -8.9692     97.4835    103.8534   2.9125134734e+02   6.0170012480e+00   0.01443036  0.007637526  43.85  0.001314554    1.993    0.498
        99  -9.6478    120.3938    108.9240   2.9101468398e+02   5.8255000768e+00   0.01172191  0.008922844  38.51 0.0007327247    1.321    0.243
       100  -9.3034    140.8795    101.5838   2.9073200423e+02   5.7920591219e+00   0.01315204  0.009990806 -73.41  0.001172699    1.396    0.283
       101  -9.0549      2.2823     75.2541   2.9219099172e+02   6.8985734193e+00   0.01342448   0.00861131   0.83  0.001015123    2.001    0.500
       102 -10.7356      4.0369     99.5532   2.9231568168e+02   6.6061828795e+00    0.0262429   0.01850369 -68.19  0.001809941    1.462    0.316
       103  -9.1248      9.3084     99.8431   2.9225589206e+02   6.5724744212e+00   0.01516432   0.01115962  30.32 0.0009449538    1.354    0.261
       104 -11.0416      5.0916     80.1802   2.9218763447e+02   6.8251860270e+00   0.02825137   0.01771928 -32.91  0.002190595    1.859    0.462
       105 -11.7053     13.1364     89.1079   2.9214708104e+02   6.6751625222e+00   0.02146527   0.01705423 -64.47 0.0006556703    1.261    0.207
       106 -10.4770      9.4830     85.5019   2.9216817474e+02   6.7380889217e+00   0.01186349   0.01112533 -36.01 0.0005532888    1.064    0.060
       107 -10.4617    114.5079    100.4784   2.9103268268e+02   5.9576762273e+00   0.01934774    0.0140551 -83.44   0.00204695    1.596    0.373
       108 -10.7946    117.5183     98.4692   2.9098555616e+02   5.9635801935e+00   0.02987777   0.01734526  41.28  0.002649469    1.754    0.430
       109  -8.4701     55.9074    101.4769   2.9172196315e+02   6.2848673115e+00  0.009856352  0.006456784  28.19   0.00071607    1.522    0.343
       110  -9.2649    151.0937     99.6760   2.9060157832e+02   5.7549891055e+00     0.011958   0.00932846 -77.22  0.001324922    1.383    0.277
       111 -12.3288      5.8378    114.7359   2.9238530820e+02   6.4193859717e+00    0.0677991   0.02348337 -44.81  0.004864472    3.242    0.692
       112  -9.9760    159.2951     96.8032   2.9048882348e+02   5.7407723629e+00   0.01826987   0.01577137  20.07  0.001681005    1.177    0.150
       113  -9.8187    187.9150     93.2152   2.9013406232e+02   5.6162806727e+00   0.01949668   0.01433318 -81.59  0.001361296    1.547    0.354
       114  -9.3201      8.8183     94.2675   2.9222830806e+02   6.6400781075e+00   0.02523863  0.007167996  41.99  0.001666394    3.797    0.737
       115 -11.5272     96.6687     62.4826   2.9101294533e+02   6.5021382008e+00   0.04762813     0.032113 -22.61  0.003514507    1.827    0.453
       116 -11.6846    118.8705     86.4819   2.9089794841e+02   6.0949555140e+00   0.04945483   0.02957275  37.89  0.003843594    1.663    0.399
       117 -10.6302    105.8429     53.7227   2.9085339109e+02   6.5507103264e+00   0.03187286   0.02466646  22.17  0.003434501    1.317    0.241
       118  -9.8438    114.3087     51.7062   2.9074255082e+02   6.5250778451e+00   0.02648263   0.01458672 -58.63  0.002531523    1.753    0.429
       119 -11.4755    123.3649     69.0908   2.9074126118e+02   6.2708274913e+00   0.06782672   0.02831996 -64.87  0.005530195    2.486    0.598
       120 -11.1712    116.4650     66.4799   2.9080604642e+02   6.3411131674e+00   0.05866428   0.02427595 -37.79  0.004229155    3.380    0.704
       121  -9.9396     88.7497     78.0621   2.9119870067e+02   6.3670689583e+00   0.02607198   0.01167902  27.36  0.002239618    2.219    0.549
       122 -10.7007    102.4074     70.8178   2.9099598993e+02   6.3721572468e+00   0.03092209   0.01999979  85.13  0.002067343    2.131    0.531
       123 -10.4624    108.9736     67.6347   2.9090032909e+02   6.3710956782e+00   0.02409514   0.01761222  -9.05  0.002543788    1.639    0.390
       124 -11.0162    112.4536     62.0616   2.9082631939e+02   6.4156358657e+00   0.03318046   0.02293672  -9.06  0.002126798    1.816    0.449
       125 -11.3684    105.2481     87.1814   2.9106095123e+02   6.1657084911e+00   0.03632589   0.02403793 -63.52  0.002774502    1.511    0.338
       126 -12.2816    100.3955     78.9546   2.9106823046e+02   6.2893272620e+00   0.06079058   0.03603232  46.71  0.005294457    1.823    0.451
       127  -9.0995    194.1464     90.2277   2.9004359798e+02   5.6147543128e+00   0.01247414  0.008603885 -48.09  0.001314013    1.436    0.304
       128  -9.3846     74.3180     88.9449   2.9143221745e+02   6.3241144251e+00    0.0164205   0.01150974   9.13  0.001269443    1.616    0.381
       129  -9.1470     76.7905     84.9544   2.9137948153e+02   6.3561729988e+00   0.01195869  0.009679433 -68.53 0.0006527958    1.260    0.207
       130 -10.0351    152.8315     87.3575   2.9050744860e+02   5.8879304415e+00   0.01614093   0.01212224  10.59  0.000909018    1.453    0.312
       131  -9.0894    238.0007     86.7047   2.8951229700e+02   5.4006275054e+00  0.009742604  0.008818331  23.48  0.001172532    1.113    0.101
       132  -9.9069    160.7565     82.1976   2.9038416939e+02   5.9018456358e+00   0.02112877   0.01683673 -57.41  0.002413083    1.233    0.189
       133 -10.7673    134.4573     81.0787   2.9068387555e+02   6.0673723232e+00   0.02944818   0.01634243 -57.79  0.002098281    1.735    0.423
       134  -8.7882    135.6592     63.5294   2.9056457131e+02   6.2641148522e+00   0.01318463   0.00813916 -80.83 0.0008558204    2.020    0.505
       135 -11.3039    148.0313     75.9771   2.9049508868e+02   6.0478831242e+00   0.04707135   0.02709677   9.16  0.004263294    2.216    0.549
       136 -10.5669    152.7591     68.0151   2.9039221218e+02   6.1128640899e+00   0.03591688   0.02194532  42.36  0.002999968    1.681    0.405
       137 -10.1869    138.6231     74.5089   2.9059591367e+02   6.1194883465e+00    0.0242434  0.009953005 -67.26  0.001839231    2.704    0.630
       138  -9.7427    132.1977     68.2228   2.9063308561e+02   6.2297083764e+00   0.02295412   0.01201625  43.04  0.001773308    1.993    0.498
       139 -10.0125    143.9246     70.8744   2.9051232067e+02   6.1309316263e+00   0.01431177   0.01316205  63.37 0.0007699446    1.145    0.126
       140 -10.2643    139.5543     67.7579   2.9054454954e+02   6.1924504743e+00    0.0243597   0.01741034 -24.20    0.0021603    1.637    0.389
       141  -9.3070    218.5116     77.9591   2.8968639854e+02   5.6154617524e+00   0.01907696  0.009240462 -38.74  0.001583619    2.484    0.598
       142  -9.7809     17.0020     82.4483   2.9206215406e+02   6.7302648042e+00   0.01670659  0.009328792  21.09  0.001241485    1.908    0.476
       143 -11.1369      3.2322     89.0550   2.9226236973e+02   6.7327887175e+00   0.03494275   0.02220851 -44.02  0.002951494    1.610    0.379
       144  -8.9900    206.5545     91.3004   2.8990564758e+02   5.5301967912e+00   0.01317885  0.006717051 -69.14  0.001151633    2.166    0.538
       145  -9.6586     36.8877     75.6543   2.9178940662e+02   6.6945701817e+00   0.01204031   0.01044785 -49.80 0.0005608338    1.135    0.119
       146 -10.0236     34.5714    245.9910   2.9283225827e+02   4.7278637906e+00   0.01648756  0.007913236 -35.89  0.001314748    2.734    0.634
       147  -9.2046     17.9882     74.0147   2.9200021507e+02   6.8225442080e+00   0.01414812   0.01239563  74.02  0.001155096    1.247    0.198
       148  -9.2102     20.9630     71.9032   2.9195285773e+02   6.8299302286e+00   0.01388073   0.01083511  48.87 0.0009277694    1.350    0.259
       149  -7.8443    193.0000     74.0346   2.8995969852e+02   5.8093206113e+00    0.0112005  0.003740225 -62.68 0.0008068152    2.973    0.664
       150  -9.7135    214.9007     71.2384   2.8968802300e+02   5.7144246479e+00   0.02096064  0.009657605 -63.72  0.001803819    2.193    0.544
       151  -9.4063      5.5305     70.7000   2.9212584204e+02   6.9327746273e+00   0.02047693    0.0136593  64.91 0.0006826644    1.905    0.475
       152  -5.7558      8.2964     50.4914   2.9197266855e+02   7.1515178080e+00   0.03084677   0.01517884  50.37  0.002594946    2.492    0.599
       153 -11.9273     16.1101     61.7562   2.9194881756e+02   6.9757259102e+00   0.05114862   0.02679847  11.76  0.003602026    2.474    0.596
       154 -11.0031     12.9038     56.5222   2.9195494426e+02   7.0549675496e+00   0.01775286   0.01249652  36.79  0.001387945    1.418    0.295
       155 -10.3593    250.2818     67.2885   2.8925281798e+02   5.5543026131e+00   0.02915731  0.007463677 -58.95  0.001982917    3.438    0.709
       156  -8.9584    152.5291     56.1679   2.9032375906e+02   6.2516776223e+00   0.01237149   0.01102171  64.23  0.001249838    1.200    0.167
       157 -10.8947    157.4725     51.0573   2.9023545856e+02   6.2822779573e+00   0.03807669   0.02192875  19.63  0.002660927    1.880    0.468
       158 -11.7256    141.7011     51.5969   2.9042250910e+02   6.3675443978e+00   0.04466863   0.02144248  15.35  0.002842824    2.639    0.621
       159 -10.7835    150.3949     51.3297   2.9031957301e+02   6.3201997025e+00   0.02448449   0.01561527 -33.90  0.001508823    1.796    0.443
       160 -10.7808    164.6276     57.0492   2.9018808337e+02   6.1712176247e+00   0.02880053   0.01848833 -40.63   0.00197623    1.648    0.393
       161  -9.4903    178.0791     60.3425   2.9005118059e+02   6.0548794410e+00   0.02351259   0.01297449 -40.78 0.0006050958    1.985    0.496
       162 -11.3076    174.2889     56.6137   2.9007292283e+02   6.1201582478e+00   0.05605763   0.02446792 -59.19  0.003023105    2.181    0.542
       163  -8.6316    189.3058     65.0027   2.8994844798e+02   5.9355780127e+00  0.009456138  0.008503665 -66.49 0.0008186449    1.119    0.106
       164  -9.8489     78.0267     61.7293   2.9122591437e+02   6.6187173264e+00   0.02200866   0.01539102 -47.48  0.002352097    1.420    0.296
       165  -8.5150     61.8807     62.8596   2.9142110100e+02   6.6988990641e+00  0.009370082  0.008400488 -35.81 0.0003475744    1.126    0.112
       166 -10.1805    221.3373     58.4486   2.8953626038e+02   5.8253119403e+00   0.02754587    0.0178544 -44.28  0.001981798    1.574    0.365
       167  -8.4314    219.1678     52.8548   2.8952786938e+02   5.9028023253e+00  0.009281794   0.00747047 -31.22 0.0003936788    1.320    0.242
       168 -10.4512    222.1294     48.0015   2.8946422524e+02   5.9418376716e+00   0.02672763   0.01997545  83.30  0.002854936    1.623    0.384
       169  -9.6180    149.2974     59.7412   2.9038287651e+02   6.2289687533e+00   0.01813501   0.01193806 -78.56   0.00143684    1.773    0.436
       170  -9.0288    211.2967    240.5366   2.9074462077e+02   3.7698675478e+00   0.01217718  0.005927425 -62.76   0.00107104    2.043    0.510
       171 -10.1171    142.0387    243.7257   2.9156858717e+02   4.1338255111e+00   0.01902584   0.01298017 -12.91  0.001004479    1.862    0.463
       172  -9.1500    113.2512    238.9899   2.9187514186e+02   4.3553035945e+00  0.009154933  0.005628746 -62.87 0.0008989744    1.618    0.382
       173 -10.2966    118.4217     41.5209   2.9063344313e+02   6.6194354770e+00    0.0480255   0.03156509  26.00  0.004990468    1.533    0.348
       174  -9.7356     12.8513    238.8799   2.9304278403e+02   4.9355903786e+00   0.01062668  0.008875427 -26.86 0.0009366436    1.273    0.214
       175  -9.2508     24.7676    235.5659   2.9288439361e+02   4.9055442564e+00   0.00973722  0.005901199  38.41 0.0009552846    1.647    0.393
       176  -9.5647     12.3706    232.6691   2.9301148167e+02   5.0105821122e+00   0.01463232   0.01031093  61.27  0.001085249    1.682    0.406
       177  -8.5791    227.1788    231.5765   2.9050658158e+02   3.7818500664e+00  0.009054286  0.006430138   6.92 0.0005614334    1.613    0.380
       178  -9.2320    136.6203    224.8190   2.9151878186e+02   4.3848863822e+00  0.009432284  0.006376277 -78.62 0.0006991606    1.702    0.413
       179  -8.3362    109.6844    224.6570   2.9183117436e+02   4.5425171840e+00  0.007164867  0.004852585 -29.75 0.0007048149    1.712    0.416
       180  -8.6103      1.3520    215.3211   2.9303668024e+02   5.2757114206e+00  0.007189579  0.004882287 -26.72 0.0007047706    1.749    0.428
       181  -7.9313    244.5379    204.5100   2.9014300450e+02   3.9953986452e+00  0.006594595  0.006391315 -33.45 0.0008092567    1.024    0.024
       182  -8.6722    234.0000    201.0069   2.9024441673e+02   4.0972282008e+00   0.01117515  0.003740427 -62.70 0.0008056717    2.965    0.663
       183 -10.4433     27.1562    191.5535   2.9259473601e+02   5.4035910352e+00   0.02152775    0.0158869 -64.67   0.00236026    1.360    0.265
       184 -11.3800     17.8306    186.3842   2.9267259997e+02   5.5173999801e+00   0.02253114   0.01735806 -12.09 0.0005672594    1.495    0.331
       185 -11.2046     88.0379     33.8105   2.9094164846e+02   6.8848467685e+00   0.02596258   0.01919274 -55.41  0.002863754    1.321    0.243
       186 -10.8770      6.2371    185.8132   2.9280428019e+02   5.5907623727e+00   0.02808218   0.01332837  50.05  0.002305764    2.604    0.616
       187  -9.7661     38.6905    177.1813   2.9237472825e+02   5.5042478669e+00   0.02197866  0.009133817 -64.89  0.001779919    2.489    0.598
       188  -9.1191      1.5190    177.9208   2.9281228347e+02   5.7096791788e+00   0.01023584  0.006479729 -63.02  0.001025913    1.571    0.364
       189  -9.4374     62.8356    167.9807   2.9203852542e+02   5.4719602960e+00   0.01462873    0.0110506 -76.97  0.001136889    1.438    0.305
       190  -8.8836    202.0451     68.4887   2.8982109746e+02   5.8210832679e+00   0.01025514  0.009118709 -64.29 0.0007151866    1.125    0.111
       191 -10.4158    201.2246     57.2560   2.8976314417e+02   5.9561479251e+00    0.0289265   0.01550683 -38.61  0.002590954    2.147    0.534
       192  -9.3132    158.4376     58.2926   2.9026767069e+02   6.1927292899e+00   0.02365355   0.01077924 -40.67  0.001920862    2.576    0.612
       193  -9.8729      3.1577     57.5069   2.9207465741e+02   7.0996428553e+00   0.01989257   0.01545165  72.37  0.002185944    1.513    0.339
       194 -11.1641    122.1806     55.5367   2.9067374037e+02   6.4350109188e+00     0.030503   0.02745436  11.57  0.002438073    1.138    0.122
       195  -8.9414    154.9226     34.8942   2.9016806102e+02   6.4845708703e+00   0.01122485   0.01058813  -3.61 0.0006155369    1.081    0.075
       196  -9.3502    126.3058     49.6975   2.9059059007e+02   6.4788632902e+00   0.02154471   0.01214285 -80.16     0.001864    2.347    0.574
       197  -9.3526    129.6976     46.6827   2.9053294058e+02   6.4941812051e+00   0.01418161   0.01162206 -40.56  0.000588179    1.237    0.191
       198 -11.1931    141.3872     40.5396   2.9035975786e+02   6.4976505019e+00   0.03556139   0.03076203  30.42  0.003803237    1.158    0.137
       199 -10.0531    147.7327     35.1459   2.9025338093e+02   6.5233918362e+00   0.02872575   0.01300818  19.18  0.002148183    2.589    0.614
       200 -10.4312    130.7952     39.9540   2.9047973577e+02   6.5658834074e+00    0.0264777   0.01597825 -39.21  0.001678245    1.810    0.448
       201 -10.4919    134.9649     34.0796   2.9039583044e+02   6.6098443860e+00   0.01548805   0.01168443  12.59 0.0004623982    1.427    0.299
       202 -10.1823     71.6445     54.5085   2.9125710850e+02   6.7394372958e+00   0.02738458   0.02011668  79.66  0.001020476    1.681    0.405
       203 -10.5507     76.4470     52.1019   2.9118663552e+02   6.7396124822e+00   0.03773387   0.02050174  66.53  0.002983441    3.085    0.676
       204 -10.0343    188.6853     48.8649   2.8985869505e+02   6.1263777834e+00   0.01613179   0.01286472  83.57 0.0005050616    1.450    0.310
       205  -8.7245    192.7269     53.9801   2.8984238068e+02   6.0435547387e+00  0.008902309  0.008581668 -74.84 0.0002862657    1.053    0.050
       206  -8.9674     25.2955     38.1839   2.9170043354e+02   7.1964605623e+00  0.009994807  0.008474009  -3.96  0.001155979    1.272    0.214
       207  -6.8494     11.7938     41.8938   2.9188035908e+02   7.2311877391e+00   0.02750019    0.0208726  11.30  0.003035273    1.423    0.297
       208  -9.0687      8.8651    167.7160   2.9266590258e+02   5.7860744903e+00   0.01180808  0.008320582  20.32  0.001176342    1.474    0.322
       209 -10.0980     15.2157     31.4062   2.9177758589e+02   7.3332039408e+00   0.01391781  0.009073545  32.22 0.0007669464    1.515    0.340
       210 -10.6365     26.0342     53.3318   2.9178251535e+02   7.0163611596e+00   0.01827235   0.01334431   2.40  0.001162147    1.583    0.368
       211 -10.1739     28.5372     49.4853   2.9173025680e+02   7.0465881113e+00   0.01243345   0.01094284 -37.01 0.0005917299    1.148    0.129
       212  -8.1432     99.6264     51.7499   2.9091407022e+02   6.6095993605e+00  0.008596096  0.006313778 -80.12 0.0002811733    1.533    0.348
       213  -8.9700    183.2033     50.1389   2.8993019157e+02   6.1434667433e+00  0.009476414  0.007831701  66.20 0.0007324272    1.348    0.258
       214 -10.1998    186.5761     53.2296   2.8990948921e+02   6.0880151985e+00   0.02183673   0.01161196 -35.52   0.00189895    2.317    0.568
       215  -8.7528    236.7944     48.8141   2.8929852732e+02   5.8470314125e+00  0.009268381  0.007775295  67.99  0.000579431    1.323    0.244
       216 -10.1627    206.8617     44.1236   2.8961857750e+02   6.0756510470e+00   0.02939994   0.02005863  47.12  0.002692856    1.555    0.357
       217 -10.2969    194.6653     30.9810   2.8968152996e+02   6.2989784830e+00   0.01694732   0.01386206 -46.60  0.001127842    1.214    0.176
       218 -10.8857    202.9233     37.7669   2.8962619511e+02   6.1722663292e+00   0.02584517   0.01904766 -10.46  0.002638553    1.620    0.383
       219 -10.3744    199.8163     31.3754   2.8962392513e+02   6.2644421111e+00   0.01922434   0.01306786  49.55 0.0003307266    1.596    0.373
       220  -9.7730     60.8908     54.4950   2.9138253769e+02   6.8017295177e+00   0.01770128   0.01429743 -64.79  0.001191527    1.243    0.195
       221  -8.3840    248.4928     44.9778   2.8913941932e+02   5.8233536891e+00   0.00975398  0.004741532 -40.38 0.0007416851    2.372    0.578
       222  -9.3833    232.4783     43.4942   2.8931672481e+02   5.9338347418e+00    0.0217413   0.01166097 -25.41  0.001748306    2.878    0.653
       223  -9.6511    233.8288     39.7662   2.8927858820e+02   5.9691813713e+00    0.0158398   0.01068681 -23.79   0.00157963    1.816    0.449
       224 -11.8407    164.2800     62.5819   2.9022536316e+02   6.1090410746e+00   0.03505599   0.03209542 -46.39  0.001725077    1.080    0.074
       225  -8.4547    167.5792     44.2245   2.9007664412e+02   6.3028496426e+00  0.009768736  0.005760932 -49.94 0.0009449943    1.661    0.398
       226  -8.9215    215.0440     42.0199   2.8951069600e+02   6.0524270466e+00     0.011261   0.00755431 -29.75 0.0009865356    1.741    0.426
       227  -9.2923    196.7856     41.7793   2.8972177938e+02   6.1614466504e+00   0.01280804  0.008214287  61.87 0.0006986134    1.985    0.496
       228 -10.2379    191.8766     39.1003   2.8976283017e+02   6.2210601108e+00   0.02662638   0.01533674 -41.89  0.001192842    1.851    0.460
       229 -10.8919    162.1166     38.8988   2.9010828834e+02   6.3963492789e+00   0.02460307   0.01360208 -59.57  0.001718641    1.756    0.431
       230  -9.8073    180.7902     39.0966   2.8989192268e+02   6.2855583684e+00   0.01909535   0.01454516  72.65  0.002066068    1.566    0.361
       231  -9.0093     77.0739     41.2369   2.9111416501e+02   6.8620902549e+00   0.01199795  0.008414053  43.65 0.0009093157    1.471    0.320
       232 -10.9436     16.5863     35.8194   2.9178800484e+02   7.2740895159e+00   0.02073794    0.0155435  86.61  0.001707264    1.599    0.375
       233  -8.8705    173.1517     38.8865   2.8997963953e+02   6.3323872923e+00   0.01038295    0.0085644  63.55 0.0008347903    1.342    0.255
       234  -9.6493    168.5863     36.3635   2.9001766348e+02   6.3881718721e+00   0.01481357   0.01290418 -74.87  0.001132979    1.190    0.160
       235 -10.1959    109.8465     38.0990   2.9071292456e+02   6.7088244813e+00     0.016974   0.01066777 -72.31 0.0006963746    1.750    0.429
       236 -10.6095    108.3661     30.0687   2.9068198106e+02   6.8105632692e+00   0.03124932   0.01322785  35.78  0.002063081    2.264    0.558
       237  -9.4381    102.0221     31.4913   2.9076454098e+02   6.8308045737e+00   0.01490707  0.008216969  31.32 0.0009099644    1.775    0.437
       238 -10.1361    210.9700     32.4527   2.8950056265e+02   6.1870474526e+00   0.02582146   0.01353957 -46.20  0.001829773    1.941    0.485
       239 -10.1471    246.2077     33.1987   2.8909510679e+02   5.9731729474e+00   0.02072332   0.01267555  15.30  0.000472511    1.849    0.459
       240 -10.9808    237.5258     32.7700   2.8919349167e+02   6.0287293798e+00   0.02679786   0.01856586  29.30  0.001945028    1.437    0.304
       241  -9.0824    242.3010     31.3382   2.8912933888e+02   6.0174977255e+00   0.01002364  0.006591569 -57.53  0.000587554    1.480    0.324
       242  -8.4250    222.1624     35.8046   2.8939047509e+02   6.0830388604e+00  0.009208954  0.007613743 -29.67 0.0006625914    1.280    0.219
       243  -9.1569     38.7970     33.1056   2.9151231382e+02   7.1775385900e+00    0.0232432   0.01325431   8.61  0.001863587    2.265    0.558
       244  -9.2385     13.4168    164.8153   2.9259556895e+02   5.7936052982e+00   0.01349479   0.01006943  54.55   0.00146076    1.476    0.323
       245 -10.5765      2.5353    159.9393   2.9269336250e+02   5.9129156030e+00   0.03251521   0.01591856 -71.56  0.002756974    2.397    0.583
       246 -10.2181     22.2275    138.2059   2.9233419426e+02   6.0522273990e+00   0.01777633   0.01049254 -32.28  0.001561864    2.067    0.516
       247 -10.6119     16.8454    158.5036   2.9251798813e+02   5.8472521163e+00   0.02526032   0.01551305 -22.56  0.002328763    2.183    0.542
       248 -11.8000     19.7614    147.9686   2.9242118363e+02   5.9529411622e+00   0.04242347    0.0319296 -41.21  0.003387441    1.359    0.264
       249  -8.8967     55.8264    155.1805   2.9204380536e+02   5.6612083617e+00   0.00982386  0.007683874 -31.12  0.001084958    1.372    0.271
       250  -8.6046     52.7673    151.6137   2.9205816819e+02   5.7203208348e+00  0.009469915  0.005912724  37.01 0.0009430373    1.591    0.371
       251 -10.5308     34.5992    150.1382   2.9226113986e+02   5.8422346135e+00    0.0181762   0.01525535  27.67  0.001118931    1.196    0.164
       252 -11.9880     36.7119     27.5438   2.9150333139e+02   7.2541086756e+00   0.01660234   0.01227328  24.10  0.001820203    1.371    0.270
       253 -10.7758     38.9854    145.8937   2.9218467856e+02   5.8662938628e+00   0.02264643   0.01838879 -67.68  0.001466513    1.250    0.200
       254  -9.6742     66.9809    148.4696   2.9187373311e+02   5.6748370777e+00   0.01277971  0.009580674 -89.11 0.0009146692    1.568    0.362
       255  -9.0029     60.9278    147.4276   2.9193805830e+02   5.7218912297e+00   0.01696192  0.007460536 -44.51  0.001390409    2.436    0.589
       256  -9.5776      1.2743    145.1602   2.9262000085e+02   6.0919966296e+00   0.01746983  0.006607599 -62.05 0.0009431568    2.578    0.612
       257 -10.4989    226.5497     28.7757   2.8929713601e+02   6.1389557786e+00    0.0284463   0.01860572  86.51  0.002723159    2.070    0.517
       258  -9.7442      5.0104    147.1925   2.9258854907e+02   6.0468743636e+00   0.01430572   0.01158136 -41.34  0.001215382    1.249    0.200
       259 -10.7630    156.1469     24.8748   2.9009356737e+02   6.5936541883e+00   0.06663425   0.01422248  30.29  0.004242809    4.016    0.751
       260  -9.3512    241.1787     23.3654   2.8909440190e+02   6.1164159088e+00   0.01859904   0.01173351  79.15  0.001468899    2.301    0.565
       261  -9.8371      7.0309    142.9131   2.9253947782e+02   6.0849989755e+00   0.02110563   0.01350469  49.36  0.002115481    1.717    0.417
       262  -9.6206    219.1521     25.1440   2.8936136078e+02   6.2241234574e+00   0.02188527  0.007974157  32.21  0.001522041    2.569    0.611
       263 -10.0562     47.1893    137.4326   2.9203852288e+02   5.9173370772e+00   0.02962896  0.008944605  43.85  0.001947696    3.887    0.743
       264  -9.2809    215.8578     20.9942   2.8937472722e+02   6.2913969116e+00    0.0294297   0.01046416  35.90  0.002306086    2.639    0.621
       265 -11.3119     55.2026    131.7674   2.9191125660e+02   5.9369511003e+00   0.05058762   0.01371827 -56.04  0.003576367    3.182    0.686
       266  -8.9871     27.8488    115.9203   2.9213559596e+02   6.2788648674e+00   0.01134308  0.008080815 -44.09 0.0002897455    1.420    0.296
       267  -8.4684    201.3712     25.2826   2.8956916921e+02   6.3260208222e+00  0.008812617  0.006355588 -74.80 0.0007117292    1.507    0.336
       268 -10.2283     98.0755     22.4570   2.9075635104e+02   6.9584588588e+00   0.01409442   0.01172703  29.59 0.0005901322    1.203    0.169
       269  -9.3643    229.9440     20.7544   2.8920936914e+02   6.2121320747e+00   0.02032554   0.01449151  65.99  0.002108159    1.709    0.415
       270  -9.2034     28.4177    121.7360   2.9216369173e+02   6.2079986167e+00   0.01962843  0.009413991 -72.39  0.001617979    2.531    0.605
       271  -9.3618    197.9310     16.8160   2.8955828558e+02   6.4441683188e+00   0.01271425   0.01104587  21.07  0.000829841    1.166    0.142
       272  -9.7828     18.9129    119.6966   2.9226238362e+02   6.2864572162e+00   0.03083638   0.01575199 -41.73  0.002210981    2.150    0.535
       273  -8.8229    196.6188     20.7495   2.8959723302e+02   6.4062149835e+00   0.01100438  0.007822054 -10.00  0.001122869    1.730    0.422
       274 -10.2827     26.6898    127.6217   2.9221898581e+02   6.1495480040e+00   0.02039293   0.01765477  39.86  0.002425788    1.169    0.145
       275 -10.4113      3.5565    135.3769   2.9253506144e+02   6.1925985011e+00   0.02467298   0.02017754  87.61  0.002272392    1.377    0.274
       276 -10.0479      9.0334    134.7273   2.9246731133e+02   6.1686318134e+00   0.02341735   0.01184091  17.88 0.0008346032    2.281    0.562
       277 -10.7058     20.2115    128.4434   2.9229944804e+02   6.1773164674e+00   0.04389442   0.02365708 -27.59  0.003240673    2.685    0.627
       278 -10.6989     11.9397    125.6509   2.9237926417e+02   6.2574041533e+00   0.01861131   0.01694041 -33.17  0.001133315    1.111    0.100
       279  -8.9974     98.4872    135.4961   2.9142902108e+02   5.6435630764e+00  0.006557066  0.006447527 -34.41 0.0002396963    1.005    0.005
       280 -10.8590     64.8959    130.4216   2.9179020447e+02   5.8966394345e+00   0.03087217   0.01502356  35.94  0.002786417    1.998    0.500
       281  -8.6789     78.4983    127.5008   2.9161417110e+02   5.8520177149e+00   0.01133554  0.008392702  74.57 0.0007230549    1.650    0.394
       282 -10.5541     72.3367    128.8892   2.9169429957e+02   5.8714780839e+00   0.02412633     0.017091 -55.41  0.001670528    1.375    0.272
       283  -9.4020     74.4731    125.4452   2.9164880337e+02   5.8991593645e+00   0.01756578  0.009225592  35.71  0.001635461    1.861    0.463
       284 -10.6442     12.9754    130.0159   2.9239322930e+02   6.2007059692e+00   0.02105225   0.01664156 -37.74  0.001638701    1.307    0.235
       285  -9.0665     95.5079    130.9312   2.9143643403e+02   5.7138352144e+00   0.01050985  0.006422757 -61.03  0.001037499    1.608    0.378
       286 -10.3089     37.4442    128.0974   2.9209640554e+02   6.0820363293e+00   0.02477325   0.01139448 -39.56   0.00200316    2.621    0.618
       287 -10.1197     47.9715    125.4580   2.9195787744e+02   6.0520004554e+00   0.01939893  0.007750951 -56.69  0.001598038    2.322    0.569
       288 -11.2627     67.6200    122.5080   2.9171113923e+02   5.9728737819e+00   0.03930604   0.01624333 -41.08  0.002997444    2.935    0.659
       289 -10.1219     63.9689    114.0000   2.9170283893e+02   6.0928215413e+00   0.02794578  0.009029041  41.96  0.001986999    3.281    0.695
       290  -9.8887     92.2975    120.1646   2.9140943796e+02   5.8575005531e+00   0.01944614    0.0101709 -45.15  0.001771325    1.973    0.493
       291 -11.9703     70.3432    107.8891   2.9159195396e+02   6.1270098777e+00    0.1519318   0.01737079  29.40  0.007901897    6.039    0.834
       292  -8.9209     25.3265     67.0011   2.9187258930e+02   6.8617171584e+00   0.02118949   0.01899373 -32.77  0.002271101    1.134    0.118
       293 -11.1348     48.5289     25.4433   2.9135271892e+02   7.2102865101e+00   0.02550665   0.01148182  27.03   0.00219506    2.216    0.549
       294 -11.4752     87.4605     89.6447   2.9128312436e+02   6.2400109228e+00   0.05213997   0.03729108  46.40  0.004683757    1.467    0.318
       295 -10.0593     56.3929     48.3889   2.9139844902e+02   6.8985896918e+00   0.04347226   0.02853085 -20.33  0.004243164    1.948    0.487
       296  -8.3742    235.6707    249.6804   2.9051623584e+02   3.5224206487e+00  0.007090013  0.004903985 -27.52 0.0006059901    1.687    0.407
       297 -10.5735     27.7133    102.0062   2.9205404944e+02   6.4413321121e+00   0.02811808   0.02340303  -7.39  0.003026623    1.315    0.239
       298 -11.0210     78.5117     75.5257   2.9130292827e+02   6.4557222825e+00   0.04382603    0.0225366  29.12  0.001674222    1.913    0.477
       299 -11.2790     81.1259     68.9684   2.9123314116e+02   6.5167501484e+00   0.04067194   0.01942219  16.19  0.001239752    2.590    0.614
