#   1 NUMBER                 Running object number                                     
#   2 MAG_AUTO               Kron-like elliptical aperture magnitude                    [mag]
#   3 X_IMAGE                Object position along x                                    [pixel]
#   4 Y_IMAGE                Object position along y                                    [pixel]
#   5 X_WORLD                Barycenter position along world x axis                     [deg]
#   6 Y_WORLD                Barycenter position along world y axis                     [deg]
#   7 A_WORLD                Profile RMS along major axis (world units)                 [deg]
#   8 B_WORLD                Profile RMS along minor axis (world units)                 [deg]
#   9 THETA_WORLD            Position angle (CCW/world-x)                               [deg]
#  10 FWHM_WORLD             FWHM assuming a gaussian core                              [deg]
#  11 ELONGATION             A_IMAGE/B_IMAGE                                           
#  12 ELLIPTICITY            1 - B_IMAGE/A_IMAGE                                       
         1 -14.4133      5.2655    108.1825   1.2464862666e+02   5.1848077150e+01     2.334311    0.7039546 -87.15  0.008765879    3.731    0.732
         2 -13.6478    208.9666     34.1837   5.1629729128e+01   2.8477583536e+01     1.345039     1.319683  20.57  0.006196207    1.098    0.089
         3 -13.4777      4.6298     10.3909   1.0490175810e+02   7.3400742183e+01     1.606679    0.3746617 -53.35   0.00699305    2.808    0.644
         4 -13.9601    226.8352     16.9241   4.4842046539e+01   2.6042446914e+01     1.160326    0.9680681  23.15  0.001227724    1.456    0.313
         5 -10.5300     60.2605    238.9608   1.2300832473e+02   1.9953871258e+01     0.469195     0.133044  38.70  0.002308641    2.907    0.656
         6 -11.4025    162.0080    249.8590   1.0670056698e+02   4.4306777058e+00    0.4144189    0.1382932  33.26   0.00177694    3.322    0.699
         7 -13.9162    127.7624    240.6812   1.1157514572e+02   1.0658538127e+01     1.595337    0.7898866  45.69  0.009552165    1.534    0.348
         8 -10.5314     81.4344    247.5458   1.2005916144e+02   1.5999256528e+01    0.3680471    0.1571957 -79.15  0.002033208    3.203    0.688
         9 -11.6481     87.9088    248.6224   1.1906283150e+02   1.5004327464e+01      0.58363    0.2392083  45.85  0.002934292    1.759    0.432
        10 -13.0713     87.9469    239.5956   1.1836385025e+02   1.6366238474e+01    0.7358854    0.4758516  49.36  0.005245439    1.170    0.146
        11 -11.9708    117.2959    249.8291   1.1424056256e+02   1.0863094258e+01    0.7365055    0.2408397  46.22  0.003765322    2.255    0.556
        12 -12.3944    122.5809    249.0653   1.1327871097e+02   1.0227648786e+01    0.8494343     0.241402  40.75  0.003979151    2.655    0.623
        13 -12.8824     59.2588    247.0151   1.2366291016e+02   1.8807200881e+01     1.772345    0.4867026  43.06  0.009369948    2.495    0.599
        14 -13.6457      3.3970    192.0578   1.3042665881e+02   3.4171814251e+01     2.778529    0.6739018 -89.29   0.01136987    4.333    0.769
        15 -11.6320    180.3449    243.4980   1.0285427152e+02   2.4849778981e+00    0.2673535    0.1783312  22.29  0.001795353    1.479    0.324
        16 -11.4586     74.1069    243.7384   1.2101110679e+02   1.7506509924e+01    0.4010953    0.2007229 -64.29  0.002612187    2.367    0.578
        17 -11.3747    245.2919    242.2885   9.2121585357e+01  -6.6823416665e+00     0.202258    0.1127217  -3.30  0.001287944    1.972    0.493
        18 -11.6516     97.2556    239.3780   1.1674449140e+02   1.5152028866e+01     0.378312    0.2622612 -47.78  0.002366878    2.121    0.528
        19 -11.9358    101.7077    240.0506   1.1603337802e+02   1.4441420477e+01    0.3572255     0.232948  85.65  0.001168505    1.811    0.448
        20 -12.7364    104.7186    236.9826   1.1523836027e+02   1.4489778504e+01    0.4828921    0.2524202  51.37  0.002982509    1.508    0.337
        21 -12.4610    100.0378    248.4000   1.1701988797e+02   1.3432215104e+01     1.099001    0.2838496  38.39  0.004785275    3.348    0.701
        22  -9.5055     66.5840    233.2240   1.2155902909e+02   2.0113565406e+01    0.3146746    0.1285983 -59.07   0.00176661    3.018    0.669
        23  -9.7521     43.0776    237.7676   1.2578230037e+02   2.2127986318e+01    0.1570981     0.124005 -51.75  0.001224983    2.077    0.518
        24 -10.6175     84.0714    230.1848   1.1828214367e+02   1.8372355489e+01    0.2046281    0.1800858  74.54  0.001142192    1.236    0.191
        25 -12.1283    104.2849    229.8709   1.1465791359e+02   1.5653358014e+01    0.4894069    0.2483861  33.52  0.002710501    2.078    0.519
        26  -9.6320     52.2179    231.5273   1.2390279144e+02   2.2114431246e+01    0.1689701    0.1195929  87.68 0.0007451854    1.326    0.246
        27 -12.1583     90.2767    223.8852   1.1663272354e+02   1.8572864670e+01     0.457588    0.3617604 -64.59  0.003357136    1.538    0.350
        28 -13.0515      3.1265    225.4237   1.3171765033e+02   2.8200786474e+01    0.8297171    0.3567412 -85.98  0.003386617    2.000    0.500
        29  -9.9450     56.4128    228.2534   1.2297806859e+02   2.2169243615e+01    0.2173111    0.1738971  89.08  0.001384802    1.291    0.226
        30 -10.7661     79.1110    226.0470   1.1882684455e+02   1.9706983848e+01    0.3533751    0.1310399 -64.32  0.001857978    2.981    0.665
        31 -11.1451     99.4188    224.4970   1.1502755463e+02   1.7202850921e+01    0.2284163    0.1404838 -81.41  0.001416356    1.959    0.490
        32 -10.4535     71.7533    219.7047   1.1964319788e+02   2.1736655785e+01    0.3142243    0.1953126  53.49  0.002104833    1.252    0.201
        33 -10.7664     68.9175    237.6432   1.2146506920e+02   1.9110953525e+01    0.2513832    0.2100785 -42.51  0.001359641    1.997    0.499
        34  -9.3561     60.1047    220.2389   1.2178312442e+02   2.3096721589e+01    0.1496516     0.123694  56.15  0.000385417    1.223    0.182
        35 -10.3834     50.9655    218.8093   1.2331516197e+02   2.4432699710e+01    0.2783068     0.119216  67.17  0.001210166    2.315    0.568
        36 -14.7340     10.3022    244.9201   1.3124434104e+02   2.4353585633e+01     2.351716    0.9240291  35.39   0.01498588    2.551    0.608
        37 -10.5457     73.0822    237.0530   1.2071547603e+02   1.8684967908e+01    0.3130015     0.151108  58.20  0.001555549    1.711    0.416
        38  -9.0957    106.5454    216.5262   1.1291554863e+02   1.7498011293e+01    0.1187678   0.09297063  57.15 0.0001031507    1.037    0.036
        39  -9.5042     87.9704    212.9692   1.1605503733e+02   2.0752214339e+01    0.1860584    0.1116213  68.07 0.0007167655    1.648    0.393
        40  -9.5148     99.8591    210.2881   1.1352837069e+02   1.9537919728e+01    0.2108701    0.1010691  66.10 0.0009605304    2.823    0.646
        41 -10.9066     62.9023    209.2867   1.2044818125e+02   2.4701104681e+01    0.2984914    0.1522195  46.83  0.001791189    1.589    0.371
        42  -9.9390     56.1648    208.3782   1.2163671775e+02   2.5688896399e+01    0.3223844    0.1277383 -70.74  0.001721593    2.525    0.604
        43  -9.0339     64.2666    205.3267   1.1987048807e+02   2.5256862512e+01   0.09542745   0.08702278 -52.72 0.0001731312    1.571    0.364
        44  -9.7871    106.8541    203.4347   1.1141893888e+02   1.9710135281e+01    0.1999293    0.1664041 -65.64 0.0006005996    1.374    0.272
        45  -9.4979     73.6180    201.7023   1.1775319189e+02   2.4728578948e+01    0.2827985    0.1286331 -63.98  0.001093768    2.301    0.565
        46 -10.0508    250.5152    200.4869   8.4590291301e+01  -3.2471944311e+00    0.1913398   0.09771587 -14.95 0.0006280298    2.120    0.528
        47 -10.3525     45.9697    198.1987   1.2281236924e+02   2.8783360693e+01    0.3331666    0.1589374  41.06  0.001859786    1.865    0.464
        48 -10.4960     35.9689    191.9907   1.2430157907e+02   3.1080427842e+01    0.3965818    0.1549509  51.38  0.001586765    2.076    0.518
        49  -9.1002     88.1954    201.2671   1.1485412987e+02   2.2823275805e+01    0.1662917    0.1118417  64.72 0.0004014407    1.338    0.253
        50 -12.0567     48.8803    191.5691   1.2174382051e+02   2.9730955341e+01    0.2835811    0.2639688 -42.57 0.0007114093    1.611    0.379
        51 -12.3163     21.7494    226.7690   1.2875231460e+02   2.6208257864e+01    0.2368349    0.1659743  71.65 0.0005493379    1.067    0.063
        52 -10.1031    198.5066    245.4848   1.0007392228e+02  -4.1750835212e-01     0.111479   0.08255327  31.11 0.0003286686    1.021    0.020
        53 -10.0315     20.1619    191.5590   1.2729703849e+02   3.2758850929e+01    0.3391888    0.1208417  70.85  0.001626426    2.878    0.653
        54  -8.8769    191.5438    191.5044   9.3214820186e+01   7.5283378968e+00    0.1280128    0.1093291  27.50 0.0001028417    1.019    0.018
        55  -9.1696    109.1937    191.2197   1.0947191867e+02   2.1574050947e+01    0.1682163    0.1231461  63.20  0.000272923    1.278    0.217
        56  -8.7211     57.3049    190.2866   1.1995901090e+02   2.8984313741e+01   0.09795251   0.09054876 -45.98  0.000409976    1.565    0.361
        57  -9.2198     15.4984    189.9331   1.2808779454e+02   3.3510826525e+01    0.1576183   0.08499312 -82.72  0.001023419    1.573    0.364
        58  -9.1329     67.4289    188.0761   1.1770348459e+02   2.8152117951e+01    0.2108593    0.1469777 -18.86  0.001045831    3.427    0.708
        59 -12.2042     55.9192    184.0874   1.1969335050e+02   3.0384059023e+01    0.2831611    0.2132111  58.58 0.0006380572    1.141    0.124
        60 -13.0862     34.6292    205.8602   1.2544137779e+02   2.8589668811e+01     1.028127    0.6497937  74.01   0.00726282    1.253    0.202
        61  -9.8976     37.2062    179.9073   1.2318573172e+02   3.3353265909e+01    0.1970642    0.1576903  43.31 0.0009596553    1.393    0.282
        62  -9.3239     45.4679    178.0988   1.2133486190e+02   3.2818943171e+01    0.1937442    0.1267352  63.12 0.0006621875    1.291    0.225
        63  -9.3111     59.0447    177.0813   1.1838183255e+02   3.1428516078e+01    0.3509532    0.1041498  47.06   0.00149512    2.864    0.651
        64  -8.4289     82.4479    176.4743   1.1328719636e+02   2.8453094639e+01     0.126936    0.1048518  71.14 9.536109e-05    1.034    0.033
        65 -14.9162     20.7499    219.4352   1.2859195254e+02   2.7570782443e+01     1.077876    0.8429717  69.57  0.009067097    1.175    0.149
        66 -10.8430    249.0182    172.6807   7.9679303514e+01   2.1930072741e-01    0.3049592    0.1962022  26.37  0.001775362    1.419    0.295
        67 -10.8031     68.5462    172.1655   1.1581761937e+02   3.1240495910e+01    0.2188687    0.1942156 -89.05 0.0003666916    1.153    0.133
        68  -9.2156     18.3383    172.3138   1.2651483303e+02   3.6766185645e+01    0.1760591    0.1364734 -72.11  0.001105526    1.381    0.276
        69 -11.1284     19.8277    168.4272   1.2595439415e+02   3.7433410151e+01    0.2406464    0.1830265 -62.04 0.0002719079    1.543    0.352
        70 -11.3375     12.1666    171.9184   1.2774598650e+02   3.7393707730e+01    0.3533938    0.1485305  64.07  0.001946318    2.082    0.520
        71 -12.7048      9.0893    165.7217   1.2801663143e+02   3.8927673315e+01    0.6819614    0.4826041  18.37  0.004720979    2.077    0.519
        72 -10.3380      2.8650    172.9831   1.2966023064e+02   3.7950391163e+01    0.1992087    0.1266129  48.64 0.0007126743    1.461    0.315
        73 -10.8290     53.1955    170.9865   1.1904331131e+02   3.3403340620e+01    0.2725854    0.2368612 -79.08  0.001068966    1.234    0.189
        74 -10.6246     27.0920    171.6902   1.2466520718e+02   3.6070717831e+01    0.2316027     0.204449  19.51  0.000526658    1.646    0.392
        75 -10.5301     40.3982    168.1125   1.2155325265e+02   3.5455905915e+01    0.2650701    0.2260377  81.03  0.001910461    1.128    0.113
        76 -12.1245     76.7073    164.2406   1.1305662292e+02   3.1813304687e+01    0.5001149    0.4278718 -89.23  0.001897788    1.080    0.074
        77 -11.1083    248.3443    157.4949   7.6738311984e+01   2.2560027292e+00    0.3866318    0.2004594  54.51  0.001777423    2.708    0.631
        78 -10.4297     23.9274    161.9422   1.2462296712e+02   3.8418613740e+01    0.1733718    0.1362811  81.46 0.0005545057    1.040    0.038
        79  -8.7207     49.5408    161.4133   1.1889879390e+02   3.5870567432e+01    0.1214258   0.09903213  79.18 7.471031e-05    1.013    0.013
        80  -8.9150     43.0859    161.1109   1.2032210940e+02   3.6659454383e+01    0.1695268    0.1136388  69.52 0.0004627259    1.312    0.238
        81 -11.0895    245.4807    162.4620   7.8216624962e+01   2.1028022712e+00    0.2402468    0.1714795 -28.70  0.001419176    1.389    0.280
        82 -11.5726      3.3265    156.9251   1.2872042726e+02   4.1219713984e+01    0.5502834    0.2093365  75.45  0.002744715    2.493    0.599
        83 -11.1354     26.4410    155.8841   1.2359431871e+02   3.9482579812e+01    0.2916296    0.1776843  46.22   0.00120197    1.580    0.367
        84 -11.2841     21.8319    155.9506   1.2462871985e+02   3.9893028801e+01    0.2723003    0.1672814 -76.09  0.001528847    1.383    0.277
        85 -11.2982      9.2074    156.2113   1.2741631517e+02   4.0911922966e+01    0.3825805    0.1114596  55.24   0.00173008    3.155    0.683
        86 -10.8235    249.5950    160.8038   7.7216639431e+01   1.6154066359e+00    0.3193291    0.1154821 -32.17  0.001361924    2.601    0.616
        87  -8.4386    228.3101    155.6285   7.9681414804e+01   6.0815011352e+00    0.1257098    0.1066982 -63.81 0.0007033889    1.772    0.436
        88 -11.2915     12.6556    153.4431   1.2648039939e+02   4.1222942419e+01    0.2578286    0.1586677  64.80 0.0009309942    1.392    0.281
        89 -10.8544    249.5940    150.9728   7.5179321085e+01   2.8931805212e+00    0.3256472    0.2356976 -26.04   0.00191649    1.296    0.228
        90 -11.0362     91.7324    149.7087   1.0747216629e+02   3.2759816313e+01    0.2936389    0.2726983 -86.79 0.0009460272    1.086    0.079
        91 -10.8902     23.8103    149.7444   1.2368431569e+02   4.1062872744e+01    0.2059285    0.1614245  89.81 0.0007560142    1.053    0.050
        92 -12.7643      4.0718    142.8914   1.2770138393e+02   4.4164051396e+01    0.5426834    0.3615293 -81.37     0.003009    1.198    0.165
        93 -13.2124      9.2327    142.6070   1.2649502049e+02   4.3843135642e+01    0.7511641    0.2342629 -77.83  0.003475223    2.557    0.609
        94 -10.4684     79.7943    148.5729   1.1018876731e+02   3.4793583445e+01    0.2272027     0.201151  82.93 0.0003874625    1.016    0.016
        95 -10.0241     38.9735    148.8582   1.2006228344e+02   3.9783611521e+01     0.198249    0.1860298 -56.78 0.0003833586    1.373    0.272
        96 -11.6522     68.3892    143.7264   1.1228926013e+02   3.7459119275e+01    0.6083893    0.3295312  72.12  0.002070424    2.382    0.580
        97  -8.9204    235.9844    146.0035   7.6330124436e+01   6.0256494334e+00    0.1625743    0.1393581  -0.82 0.0004230348    1.011    0.011
        98  -9.5202     95.2712    145.7384   1.0596860784e+02   3.3078095610e+01     0.197232    0.1706258  76.39  0.001161995    1.084    0.077
        99 -12.8159    241.8371    120.4274   6.9625622290e+01   8.5658302388e+00      1.25571    0.9497816 -79.75  0.006254492    2.286    0.562
       100 -10.8005    249.0226    141.1712   7.3171082093e+01   4.3048495285e+00    0.4676199    0.2125973  37.48  0.002103413    2.287    0.563
       101 -11.8556    247.9501    136.4180   7.2297545959e+01   5.1486421170e+00    0.5734733    0.3944152   9.99   0.00308684    1.547    0.353
       102 -11.4104    249.1770    131.9719   7.1118828127e+01   5.5340952922e+00    0.4951981    0.2978161 -14.95  0.002469878    1.690    0.408
       103  -8.9402     35.3472    142.2964   1.2025806221e+02   4.1621218047e+01       0.1151   0.08627101 -46.49 0.0005411699    1.676    0.403
       104  -9.7420     45.0361    139.7351   1.1758658644e+02   4.1190454413e+01    0.1683332    0.1441162  81.24 0.0003337107    1.068    0.064
       105 -10.1025    105.8822    135.4725   1.0150112056e+02   3.3593305770e+01    0.4192217    0.2928761  -5.79  0.001791507    2.751    0.637
       106 -12.2219     16.6921    132.7871   1.2392267721e+02   4.5440947783e+01    0.2878576    0.2517932  48.36  0.001911309    1.344    0.256
       107 -12.9847     15.7368    120.5311   1.2301599548e+02   4.8299309867e+01    0.6668123    0.2996811  64.27 0.0008417049    2.474    0.596
       108 -11.2859    142.8954    249.3469   1.0986908037e+02   7.2818565028e+00    0.4175437    0.1504346  48.86  0.002090036    2.387    0.581
       109 -10.3653    249.7801    117.5893   6.7751824431e+01   7.4220301938e+00    0.2578529    0.2202623 -31.33 0.0007567363    1.178    0.151
       110 -12.2494    247.9831    112.8565   6.6914625055e+01   8.4391443559e+00    0.6100456     0.453843  37.02   0.00339868    1.415    0.293
       111 -10.4467    247.5724    144.5128   7.4123443520e+01   4.1139063295e+00    0.2446901    0.1943418 -22.19 0.0006950922    1.174    0.148
       112  -9.3087     44.1767    130.1396   1.1662086987e+02   4.3485565729e+01    0.1761301    0.1266972  78.85 0.0005043722    1.305    0.234
       113 -12.3880      2.9357    132.4592   1.2725669295e+02   4.6529717106e+01    0.4614429    0.2002767 -77.17  0.002545842    1.775    0.436
       114 -12.9118    248.4859    101.5727   6.4155575640e+01   9.9396548060e+00     1.037429     0.502908 -27.37   0.00458059    1.881    0.468
       115  -9.6709    162.4648     80.4580   7.3709833123e+01   3.3190607351e+01    0.1547064    0.1513242 -40.40 0.0001159753    1.029    0.028
       116 -11.4164    154.7026    246.9468   1.0760936179e+02   5.8653606980e+00     0.297763    0.2019939 -43.24  0.002095013    1.971    0.493
       117 -11.2119    150.1653    247.7249   1.0846516753e+02   6.4322245852e+00    0.2721327      0.19273 -54.09  0.001963949    1.901    0.474
