#   1 NUMBER                 Running object number                                     
#   2 MAG_AUTO               Kron-like elliptical aperture magnitude                    [mag]
#   3 X_IMAGE                Object position along x                                    [pixel]
#   4 Y_IMAGE                Object position along y                                    [pixel]
#   5 X_WORLD                Barycenter position along world x axis                     [deg]
#   6 Y_WORLD                Barycenter position along world y axis                     [deg]
#   7 A_WORLD                Profile RMS along major axis (world units)                 [deg]
#   8 B_WORLD                Profile RMS along minor axis (world units)                 [deg]
#   9 THETA_WORLD            Position angle (CCW/world-x)                               [deg]
#  10 FWHM_WORLD             FWHM assuming a gaussian core                              [deg]
#  11 ELONGATION             A_IMAGE/B_IMAGE                                           
#  12 ELLIPTICITY            1 - B_IMAGE/A_IMAGE                                       
         1 -13.0459     37.7337     50.3668   9.7618663152e+01   6.2527782948e+01    0.8110974    0.5713744 -26.15  0.003994613    1.302    0.232
         2  99.0000     24.2715     26.6642   9.5131947642e+01   6.8277721454e+01    0.9610634     0.617038  62.70  0.003817044    5.871    0.830
         3 -10.8087     20.3628     17.8893   9.3420073164e+01   7.0126504767e+01    0.5596894     0.515047 -81.82  0.002664404    1.886    0.470
         4 -11.2646     61.8932     16.6650   7.3724050191e+01   6.5006048790e+01    0.6178153    0.3144313   2.23  0.002398775    3.517    0.716
         5 -12.9976    130.1054     22.4641   5.5972020844e+01   4.9989626947e+01    0.6835402     0.451117  52.10  0.001693728    1.364    0.267
         6 -11.3803     85.6144     21.8690   6.7607599206e+01   6.0025101839e+01    0.6716678    0.5713615 -74.47  0.003836466    1.825    0.452
         7 -11.0551    120.1012     21.5108   5.7878763374e+01   5.2510636398e+01    0.3987923     0.251654  -2.13  0.001094608    1.933    0.483
         8 -10.9298    164.9199     16.6344   4.7643658526e+01   4.1809163277e+01    0.2952877    0.2060798 -29.56  0.001523564    1.542    0.351
         9 -11.6347      4.1419     18.4743   1.0226521659e+02   7.1211165764e+01    0.3635723    0.2615211   4.16  0.002625316    1.479    0.324
        10 -10.7837      9.9434     15.7871   9.8046581859e+01   7.1307694871e+01    0.2343341    0.1303024 -29.62  0.000837547    1.440    0.306
        11 -11.5762     75.2706     16.1268   6.8516941321e+01   6.2722612469e+01    0.3988924     0.250931  40.83  0.001673431    1.487    0.328
        12 -10.5301     76.7075     11.1075   6.5702451103e+01   6.3032572444e+01    0.3045444    0.1902024 -18.14  0.001243464    1.577    0.366
        13 -10.0888     70.5314     13.9226   6.9172524172e+01   6.3856764607e+01    0.2491003     0.165202 -16.42 0.0009873534    1.439    0.305
        14  -9.9965     73.2275     10.5812   6.6642373662e+01   6.3748110228e+01    0.2486063    0.2037519  12.73 0.0006359331    1.017    0.017
        15  -9.8812     74.2954      7.3207   6.4728064077e+01   6.3898860786e+01    0.2028303    0.1495096  12.09 0.0005780189    1.221    0.181
        16  -9.8596     42.6541      7.9762   7.7608445484e+01   6.9056236472e+01    0.2152156     0.196925 -51.26  0.001116709    1.817    0.450
        17 -10.9672     30.9307     13.2442   8.5881178990e+01   6.9797123768e+01    0.2752038    0.1424944 -31.23 0.0004209683    1.636    0.389
        18 -10.6024     40.0112     11.0111   8.0378186955e+01   6.9009399224e+01     0.262822    0.1890361 -40.95 0.0008957511    1.695    0.410
        19 -10.6599     55.1002     13.1050   7.4755188919e+01   6.6559140219e+01    0.4544911    0.1860499 -37.25  0.001365786    2.511    0.602
        20 -10.2103     51.2734     10.4882   7.5069820672e+01   6.7482801212e+01    0.4251555    0.2020848  -4.23  0.001571986    4.096    0.756
        21 -10.5123    158.2815     13.5530   4.7689017387e+01   4.3834731897e+01    0.2969767     0.143023 -40.80  0.001275897    2.220    0.550
        22 -12.3967     15.1847     31.0475   1.0123037131e+02   6.8208025048e+01    0.5463241    0.3811606 -18.70   0.00157627    1.307    0.235
        23  -8.9475    113.5036      7.5766   5.3962683948e+01   5.5494614876e+01    0.2109256    0.1837792  44.25 0.0006546539    1.036    0.035
        24 -10.5051    118.3960     12.6790   5.4867502091e+01   5.3855981415e+01    0.3728466    0.2040633  45.61  0.001283824    1.621    0.383
        25 -10.0750    117.2277      8.9780   5.3685687104e+01   5.4488900620e+01    0.2844469    0.1807286 -34.93 0.0009538701    1.758    0.431
        26 -10.0402    100.0420     12.7204   5.9397113774e+01   5.8053485533e+01    0.2331449    0.1838825  -4.75 0.0007404384    1.275    0.216
        27 -11.1454      6.3949      9.2056   9.7159812946e+01   7.2652805112e+01    0.4011086    0.1398831 -42.63 0.0007717134    2.095    0.523
        28 -10.8665    132.5669     11.1090   5.1324480762e+01   5.0572581822e+01    0.3704383    0.2569467  47.07  0.000971077    1.294    0.227
        29 -12.0330    235.2587      9.7997   3.7913996220e+01   2.5106577410e+01    0.3583815    0.1929056  79.57   0.00183784    1.784    0.440
        30 -10.5340    164.5732      5.6383   4.4273578443e+01   4.2981753763e+01    0.2473806    0.1927822  78.17 0.0007406439    1.181    0.153
        31 -11.5277    146.6310      7.8839   4.7686762561e+01   4.7351734147e+01    0.4607659    0.3719781 -79.92  0.002591614    1.367    0.269
        32  -9.5457    107.6367      9.7207   5.6204503665e+01   5.6650131139e+01    0.1753705    0.1216442 -28.57 0.0009399797    1.565    0.361
        33  -9.9761     59.0547     10.0625   7.1653982621e+01   6.6302095944e+01    0.1923859    0.1561609   3.85  0.001069749    1.024    0.024
        34 -11.5325     11.3598      2.8402   9.1228207620e+01   7.3269972409e+01    0.3345802    0.1911074 -15.29  0.001494386    1.568    0.362
        35 -11.2705     22.6049      7.4444   8.7307853179e+01   7.1545890270e+01    0.3557516    0.2815158  43.45  0.001116455    2.083    0.520
        36 -10.6189     17.4407      5.8060   8.9288942529e+01   7.2290610252e+01    0.3055457    0.1719522 -46.84  0.001322145    2.003    0.501
        37  -9.6015     11.5751      9.7641   9.4483792292e+01   7.2182399036e+01     0.155866    0.1277405  32.19 0.0004531871    1.772    0.436
        38 -10.1380    127.1620      8.1861   5.1308434921e+01   5.2172830878e+01    0.1772596    0.1577629 -71.87 0.0004199271    1.314    0.239
        39 -10.5378     81.0888      6.3405   6.2060566385e+01   6.2675070766e+01    0.2125403     0.169592  -9.19 0.0001877875    1.229    0.186
        40 -10.2999     84.9216      5.1041   6.0320914734e+01   6.2019414194e+01    0.2934355    0.1810409  55.83  0.001003507    1.644    0.392
        41  -9.5685     67.6619      7.4736   6.7117377344e+01   6.5110584377e+01    0.1713561    0.1009457  32.55 0.0009223438    1.530    0.347
        42  -9.7519    180.2007      5.8046   4.2328251285e+01   3.8970870420e+01     0.293004    0.0745823 -32.28  0.001030034    3.491    0.714
        43 -10.3746    232.4867      4.8906   3.7011135277e+01   2.6272637537e+01    0.1802087    0.1156698 -36.04 0.0005135142    1.531    0.347
        44 -10.7088    228.3125      4.9391   3.7356541427e+01   2.7233771010e+01    0.2281731    0.1520947 -83.48 0.0008499572    1.380    0.276
        45 -10.5044     92.1621      6.0584   5.8670190748e+01   6.0415586347e+01    0.4400814     0.218479  16.43  0.001173069    2.734    0.634
        46 -11.6737    241.6195      2.7321   3.5837509585e+01   2.4430703407e+01    0.4014123    0.1928832 -71.35  0.001559781    2.165    0.538
        47 -12.3240     31.8721      2.0552   7.9650754639e+01   7.1233709414e+01    0.2663028    0.1816064  14.40 0.0006804472    1.300    0.231
        48 -10.4055     26.3997      2.9402   8.2944207703e+01   7.1769592159e+01    0.2325416    0.1456071  25.17 0.0007476762    1.583    0.368
        49 -10.2366     73.3146      2.2763   6.2624237476e+01   6.4588357318e+01    0.2056794     0.181525  42.95 0.0004339401    1.288    0.223
        50  -9.6799    166.9854      1.5784   4.2712879084e+01   4.2727715377e+01    0.3012941    0.1591312 -87.69  0.001299708    2.248    0.555
        51  -9.8900    127.0622      2.1685   4.9091734399e+01   5.2717746750e+01    0.2223681     0.155176  42.86  0.001209749    1.296    0.229
        52  -9.3041    113.2927      2.7070   5.2068828306e+01   5.5968704468e+01    0.1233244    0.1017652 -68.48 0.0001666559    1.554    0.356
        53 -10.1300    138.4444      9.9325   4.9804938639e+01   4.9222607615e+01     0.250585    0.1855609  85.90 0.0007790226    1.503    0.335
        54  -9.5268     20.4423      1.4774   8.5362654860e+01   7.2613940291e+01    0.1160254   0.08427549 -12.41 0.0001662574    1.018    0.017
        55  -9.2510    188.4677    209.5059   9.2248512234e+01   2.7455784681e+00     0.133864    0.1147039  25.10 -9.006229e-06    1.012    0.012
        56 -10.0218     72.6298    250.0796   1.1985274615e+02   1.4358434729e+01    0.1679914     0.149087  27.78   0.00125934    1.602    0.376
        57 -10.4629      5.6067    235.3007   1.3032566119e+02   2.4705844140e+01    0.2278642    0.1753099  40.33  0.001329664    1.615    0.381
        58 -12.5488     17.4632    238.9293   1.2855898789e+02   2.2872334490e+01     1.136465    0.2194082  43.62  0.005479143    3.135    0.681
        59 -12.9057     20.7945    248.7214   1.2848289875e+02   2.0795289331e+01    0.9481406    0.2083673  39.15  0.004553656    3.402    0.706
        60 -12.8412      6.9193    244.6217   1.3049935676e+02   2.2921505975e+01    0.6544795    0.4186682  49.59  0.003911715    1.381    0.276
        61  -9.7015     34.5255    201.3332   1.2320947740e+02   2.8348057395e+01    0.1472298    0.1409437  -1.21 0.0005825874    1.605    0.377
        62 -10.1898    215.4792    194.9212   8.4311216251e+01   3.0520546479e-01    0.1886676    0.1257417 -30.18 0.0003700888    1.526    0.345
        63  -9.6231    211.3087    188.5275   8.3880668193e+01   2.0479538761e+00    0.2381717    0.1548737 -11.94 0.0009103417    1.806    0.446
        64  -9.5765      1.5224    188.4549   1.2879473438e+02   3.4210751125e+01    0.1120349   0.08177618  81.36 0.0002590136    1.011    0.011
        65  -9.2380    218.3089    186.3192   8.2101105740e+01   1.1489990736e+00    0.1412359   0.09622709   5.12 0.0004921624    1.640    0.390
        66  -9.4639     61.6428    184.8742   1.1600449224e+02   2.8649633622e+01    0.1853576     0.106499 -84.43 0.0009429525    1.763    0.433
        67 -10.9160     16.5163    183.5081   1.2551939136e+02   3.3949166230e+01    0.2795001    0.1646916 -86.27  0.001734492    1.376    0.273
        68 -10.3518     15.4719    180.5182   1.2552235358e+02   3.4690747530e+01    0.2002504    0.1639814  87.21    0.0007675    1.125    0.111
        69  -9.9447    167.1819    183.6136   9.2005332766e+01   1.1173190186e+01    0.2094553    0.1261598  32.15 0.0009315038    1.675    0.403
        70  -9.5903      2.1354    180.3957   1.2821486273e+02   3.5858418925e+01    0.1497409   0.08004871  51.37 0.0005946681    1.692    0.409
        71 -10.1299    244.2751    178.3530   7.5753086589e+01  -2.1185422159e+00     0.243274    0.1406432 -20.94  0.001086071    1.721    0.419
        72 -10.7127    224.1461    178.4803   7.9424831832e+01   1.3483230447e+00    0.2447913    0.2161562 -10.90 0.0003932758    1.097    0.088
        73  -8.9706     36.4578    178.4552   1.2089952338e+02   3.3069371753e+01    0.1225348   0.09926631  85.31  0.000264497    1.031    0.030
        74  -9.4405     70.2014    177.6120   1.1321180077e+02   2.9131251906e+01     0.162187    0.1259145  26.02 0.0005109959    1.606    0.377
        75  -9.7617     46.6838    177.4140   1.1853881515e+02   3.2159304174e+01    0.2296471    0.1049638  40.38   0.00113289    2.101    0.524
        76 -10.0282    200.5567    176.2538   8.3558561110e+01   6.0914284153e+00    0.1971127    0.1305186 -23.62 0.0009460797    1.644    0.392
        77 -10.0603    100.9747    176.0129   1.0578642669e+02   2.4837951003e+01    0.1956316    0.1785976  72.82            0    1.013    0.013
        78 -11.1217     17.8985    173.0011   1.2445378681e+02   3.6117838371e+01    0.3846719    0.1755189  64.88  0.001969502    2.168    0.539
        79 -10.7769     12.7886    170.3690   1.2534849415e+02   3.7150221571e+01    0.3048678     0.123535  85.91  0.001419085    2.493    0.599
        80  -9.5542     75.1907    170.9995   1.1117576191e+02   2.9941569092e+01    0.1787519    0.1554411  -5.23  0.001035014    1.624    0.384
        81  -9.7259      4.8283    168.0422   1.2687823504e+02   3.8316349471e+01     0.190578   0.09700573 -59.77  0.001090141    1.956    0.489
        82 -11.2235     32.7976    167.3681   1.2066928207e+02   3.5952282362e+01    0.3782111    0.2004847  17.93  0.001839081    2.988    0.665
        83 -11.7740     35.9752    163.2849   1.1952760134e+02   3.6561437482e+01    0.5870388    0.2996075  44.52  0.003108635    1.926    0.481
        84 -11.9391     36.9381    157.9213   1.1872853856e+02   3.7705332259e+01    0.2549683    0.1876585 -82.11 0.0003211216    1.138    0.121
        85  -9.6086     67.1922    165.1852   1.1230789914e+02   3.2397362414e+01    0.1938742    0.1400527  71.20    0.0010023    1.362    0.266
        86 -11.0104     51.3122    164.1339   1.1599787710e+02   3.4656202098e+01    0.4243195    0.2497865 -63.27  0.002266259    1.559    0.358
        87  -9.4056    200.4685    162.5722   8.0705541018e+01   8.5347305793e+00    0.1440005    0.1346329  10.61 0.0001768516    1.043    0.042
        88 -11.1495     45.8266    161.2689   1.1697374768e+02   3.5960377628e+01    0.4650706    0.3372682 -35.77  0.002626977    1.931    0.482
        89 -11.9012     22.6557    157.0489   1.2202258906e+02   3.9290698250e+01    0.5005461    0.3880183  70.84  0.003343778    1.179    0.152
        90 -10.1033    247.3020    158.3002   7.1053111008e+01   4.0222408582e-01    0.1374098   0.09502536   1.91 0.0002759236    1.585    0.369
        91 -10.4636     12.0492    153.5324   1.2417419884e+02   4.0995422486e+01    0.2537035    0.2029178  -5.71  0.001700527    1.899    0.473
        92 -10.3039    177.9137    151.3306   8.2992333464e+01   1.5310716663e+01    0.2999776    0.2658139  84.87  0.001053711    1.390    0.280
        93 -10.9574     12.6223    146.8292   1.2345005818e+02   4.2487030029e+01    0.2591873    0.1450793  51.44 0.0005780456    1.818    0.450
        94 -10.2392    207.1535    146.2163   7.5727060544e+01   1.0145147324e+01    0.2238639    0.1948964   7.25 0.0007646888    1.138    0.122
        95  -9.5383    220.3705    144.1447   7.2717295579e+01   7.8146527574e+00      0.20253    0.1274481 -44.19 0.0007426934    1.649    0.394
        96 -10.4295      2.8581    143.7549   1.2551055405e+02   4.3903792396e+01    0.2120739    0.1237417 -68.79  0.001295885    1.396    0.284
        97  -9.0989     38.3294    142.2952   1.1653631653e+02   4.1253263783e+01    0.1258736   0.08970609 -43.88 0.0007024862    1.633    0.388
        98  -9.5599     49.9531    141.5290   1.1338723449e+02   4.0179548025e+01    0.1722489    0.1147051 -14.25 0.0008096943    2.602    0.616
        99 -10.8155     19.5218    140.4854   1.2113482224e+02   4.3410266163e+01    0.2602367   0.09947267 -73.00  0.001194912    2.113    0.527
       100 -11.0797     15.3206    139.8482   1.2212302906e+02   4.3895595242e+01    0.3488751    0.1610093   9.23   0.00155431    3.950    0.747
       101 -11.2942      3.4722    136.3059   1.2473027659e+02   4.5567436259e+01     0.509569    0.1802224 -57.02  0.002135816    2.466    0.595
       102  -8.9563    143.6801    137.3017   8.7767814147e+01   2.5546879340e+01    0.1568422    0.1240746  83.78  0.000621368    1.626    0.385
       103 -11.0527     22.0297    136.1099   1.2001808208e+02   4.4232233970e+01    0.2593711    0.2010037  61.17  0.001680046    1.329    0.247
       104 -10.8126      9.0951    136.8188   1.2338236295e+02   4.5063959495e+01    0.1961101    0.1453008 -75.75 0.0002903764    1.087    0.080
       105  -9.4034    122.5482    135.4729   9.2731035437e+01   3.0271069651e+01    0.1510655    0.1482864 -76.72  8.71886e-05    1.011    0.011
       106  -9.4112    249.9619    134.2317   6.5342431286e+01   3.7202214775e+00    0.1676691    0.1154686  46.08  0.000874514    1.624    0.384
       107 -10.2055    107.1623    133.1834   9.6323805541e+01   3.3718763514e+01    0.2530156     0.248921 -22.65  0.001410556    1.095    0.086
       108 -10.1780     33.0660    133.5306   1.1679390647e+02   4.3866517909e+01    0.3065881    0.1551773 -81.47 0.0005014226    1.928    0.481
       109 -11.1251     37.3088    130.4908   1.1523047392e+02   4.4187873819e+01    0.3264302    0.2929944 -64.71  0.001195145    1.145    0.126
       110  -9.5406     79.6402    133.2767   1.0392047357e+02   3.8268975890e+01    0.1476909    0.1048608  70.65 0.0007008452    1.661    0.398
       111 -10.0761     55.0910    132.9919   1.1070011812e+02   4.1644774583e+01    0.3147342    0.1831158  42.26   0.00148877    1.828    0.453
       112 -10.3779     73.9072    129.3717   1.0478659803e+02   4.0057438922e+01    0.2665936    0.1923271 -56.50 0.0006391667    1.277    0.217
       113 -11.1329      2.0040    125.1005   1.2407046335e+02   4.8243572689e+01    0.3295413    0.1392875 -75.08 0.0009570722    1.805    0.446
       114 -11.6312     10.4616    122.7036   1.2157753529e+02   4.8261141342e+01    0.2830892    0.2204382  62.51  0.000935115    1.366    0.268
       115  -9.6614     81.9980    125.2894   1.0167212372e+02   3.9849180025e+01     0.191708      0.18342 -79.73 0.0004439505    1.045    0.043
       116  -8.9668     33.3064    125.6899   1.1566334057e+02   4.5725832317e+01    0.1304823    0.0875424  74.40 0.0002848167    1.615    0.381
       117  -9.9010    219.7870    124.4014   6.8199967122e+01   1.1414328344e+01    0.1962225    0.1372095  36.19  0.000471513    1.536    0.349
       118  -9.7186    225.9769    124.0000   6.7000495914e+01   1.0177037217e+01    0.2256484    0.0839836  50.03 0.0007941041    2.885    0.653
       119  -9.6332     21.1943    121.5333   1.1848762286e+02   4.7755618030e+01    0.1528565    0.1175892 -17.16 0.0009403339    1.753    0.430
       120 -11.3803     23.0782    107.3322   1.1595536970e+02   5.0985395284e+01    0.4351978     0.288145  70.81  0.002454632    1.762    0.433
       121  -9.7095     10.3807     99.2098   1.1865472276e+02   5.3767093060e+01    0.2213032    0.1163841 -66.74 0.0005667961    1.450    0.310
       122 -11.3452     17.0221    115.3631   1.1886955431e+02   4.9532355488e+01    0.3743189     0.236386 -46.06  0.001223811    1.616    0.381
       123 -12.1875     15.4393    108.7817   1.1845394956e+02   5.1197700325e+01    0.5477256    0.4066065 -34.24    0.0019271    1.557    0.358
       124 -11.3428     13.1571    103.3701   1.1838974300e+02   5.2621515978e+01    0.4436018    0.2224966  19.93  0.001699018    2.522    0.603
       125  -9.9937    249.8596    118.6320   6.1823672042e+01   6.2490382626e+00    0.1788746    0.1350051  67.42 0.0009409435    1.742    0.426
       126  -9.7796    220.1025    116.8627   6.6318198603e+01   1.2679708375e+01    0.2250833    0.1974874 -56.98 0.0005432345    1.249    0.199
       127  -9.0259    201.2586    117.3382   6.9951773794e+01   1.6779362648e+01    0.1534658    0.1180591  -1.48 0.0005237262    1.580    0.367
       128 -10.1028     86.0088    116.5417   9.8617930895e+01   4.1330895979e+01    0.2231607    0.1836397 -55.84 0.0004744748    1.131    0.116
       129  -9.5263     24.3437    117.3152   1.1703128117e+02   4.8509585542e+01    0.1308836   0.08028431 -44.36  0.000704793    1.712    0.416
       130  -9.3111    214.1493    115.5868   6.7077248327e+01   1.4211594440e+01    0.2050619    0.1378696  36.48 0.0006319814    1.639    0.390
       131  -9.2073    165.7284    115.3554   7.7011923611e+01   2.5370328849e+01    0.1606883    0.1256057 -73.31 0.0006847361    1.640    0.390
       132 -10.4745    249.0259    112.3102   6.0494919697e+01   7.4333004859e+00    0.1900514    0.1786012 -31.35 0.0007372196    1.084    0.078
       133 -13.1882     55.2878    110.1385   1.0654913180e+02   4.7173330454e+01    0.3276596    0.2831324 -51.85 0.0006079579    1.090    0.083
       134 -10.7106     61.9044    107.0539   1.0385477009e+02   4.7099176964e+01    0.2637646    0.2002757 -36.27 0.0007076311    1.389    0.280
       135  -9.6043      2.8024    112.5945   1.2256600961e+02   5.1093995518e+01    0.2121126    0.1234119 -88.47 0.0006415973    1.535    0.349
       136 -12.1640      3.2109    106.5087   1.2175341264e+02   5.2482653088e+01    0.3566305    0.3061172 -80.12  0.002138864    1.125    0.111
       137 -12.2379      3.0789    100.1853   1.2101808172e+02   5.3953402344e+01    0.3100828      0.23305  85.34 0.0004484557    1.305    0.234
       138 -12.0286     35.6166    108.4190   1.1229979374e+02   4.9664510442e+01    0.4577539    0.2743005  78.34  0.001627459    2.221    0.550
       139 -10.9183     35.6240    102.6918   1.1128808539e+02   5.1033192369e+01    0.3865601    0.2595733 -12.11  0.002066988    2.055    0.513
       140  -9.0551    207.3409    110.7227   6.7118883837e+01   1.6619357759e+01    0.1503788    0.1199919 -76.66 0.0003579042    1.621    0.383
       141  -9.2666     91.3499    108.2868   9.5078500733e+01   4.2415694304e+01    0.1501465    0.1154553 -15.15 0.0007022392    1.660    0.398
       142 -10.9096    243.9085    104.5029   5.9441060302e+01   9.7335791469e+00     0.242188    0.1810078 -23.64 0.0007683691    1.304    0.233
       143 -11.0376    247.6218    102.2594   5.8363313515e+01   9.3370177686e+00    0.2471295     0.203035  56.41 0.0009789127    1.386    0.279
       144  -9.9041    223.2137    103.9364   6.2597603772e+01   1.4254652837e+01    0.2247158    0.1875012 -51.49 0.0004830445    1.220    0.180
       145 -10.1062    119.2387    102.4612   8.5409240081e+01   3.8495044008e+01    0.3067062    0.2118046 -43.57 0.0008657032    1.413    0.292
       146 -10.3309    145.2564     99.5200   7.7641776461e+01   3.3415962102e+01    0.4900161     0.302509 -64.21  0.001822374    2.374    0.579
       147 -11.3095     19.6181     96.9557   1.1540247608e+02   5.3689633691e+01    0.4163127    0.3812458  70.60  0.002591294    1.259    0.206
       148 -10.0426     40.7896     97.1051   1.0855238291e+02   5.1869752404e+01    0.2504089    0.1477648 -48.88 0.0006774951    1.485    0.326
       149 -11.0070     92.6713     95.2808   9.1294256202e+01   4.5205754371e+01    0.5279111    0.1999402 -46.51  0.001867237    2.469    0.595
       150 -10.0368    250.1322     95.8418   5.6502545228e+01   9.8507606619e+00    0.2106024    0.1732875 -52.42 0.0005838001    1.206    0.171
       151 -11.2859     66.9219     97.4220   1.0006036910e+02   4.8727892482e+01    0.4917985    0.1725519 -53.56  0.001450994    2.460    0.593
       152 -10.7007     22.9241     86.7477   1.1251383157e+02   5.5831111911e+01     0.288401    0.1763677 -55.68  0.001065432    1.296    0.228
       153 -10.5469     31.4199     93.4115   1.1092021028e+02   5.3602616635e+01      0.24955    0.1661033 -77.25 0.0006498399    1.494    0.331
       154 -10.8850     25.7548     91.2385   1.1239854013e+02   5.4573375363e+01    0.2865029    0.2275768 -10.49  0.001051167    1.523    0.344
       155 -10.5674    162.7378     91.9393   7.1275235053e+01   3.0799642522e+01    0.2975165    0.2393156  19.50 0.0005761435    1.457    0.314
       156 -12.3367    165.2160     85.6735   6.8906302296e+01   3.1396588025e+01    0.7491295     0.725412  25.30  0.002707755    1.047    0.045
       157 -11.2248     10.8387     90.9592   1.1728153782e+02   5.5654437033e+01    0.2729347    0.2256134  10.51 0.0008983861    1.536    0.349
       158 -11.1770     62.1013     98.7683   1.0194442072e+02   4.9050954478e+01    0.3380994    0.3007285  27.76 0.0009664139    1.266    0.210
       159 -10.3236     47.3592     91.8435   1.0524523883e+02   5.2432028332e+01    0.2655685    0.1430801 -50.88  0.001198546    1.568    0.362
       160 -12.0228    158.6308     89.7557   7.1592313214e+01   3.2221243032e+01    0.5153913    0.3561127 -31.23  0.002255272    1.508    0.337
       161 -10.1078     46.3516     83.6938   1.0369390688e+02   5.4431066345e+01     0.276558    0.2214748 -86.66  0.001445007    1.497    0.332
       162  -9.8845     42.8198     82.7838   1.0472186552e+02   5.5008932987e+01    0.2883745    0.1581495  52.52  0.001190375    2.680    0.627
       163 -11.4160      4.4247     85.4900   1.1854782880e+02   5.7260178308e+01    0.3357674    0.1980735 -60.63  0.001215562    1.275    0.216
       164 -11.0198     66.9672     84.9855   9.6865638142e+01   5.1598102969e+01    0.3812771    0.2367975 -28.32  0.001047641    1.905    0.475
       165 -10.8881     87.9675     83.3708   8.9399103726e+01   4.8684366067e+01    0.2771468    0.2032523 -52.14 0.0003001593    1.344    0.256
       166 -10.6240      2.9966     78.9617   1.1800620299e+02   5.8809948316e+01    0.3254271    0.1792269  38.05  0.001878543    2.296    0.565
       167 -11.9402      6.9755     73.9784   1.1574598352e+02   5.9733224600e+01    0.6859051     0.356811  11.38  0.003843322    2.456    0.593
       168 -12.3771     16.3874     67.9856   1.1104892452e+02   6.0527008407e+01    0.4146726    0.2183396 -55.83  0.002299404    1.440    0.305
       169 -11.6954     20.9726     65.5193   1.0871661647e+02   6.0762131810e+01    0.8701366    0.4935167  85.19  0.003748894    3.544    0.718
       170 -11.3115     13.0011     81.3238   1.1493763591e+02   5.7738407629e+01     0.353416    0.2013505 -86.95  0.001128579    2.050    0.512
       171 -10.9933     12.7804     77.6273   1.1433744736e+02   5.8590963710e+01    0.2538837    0.1930219 -63.66 0.0009358501    1.075    0.069
       172  -9.6010     58.3047     93.3330   1.0191559902e+02   5.0812182978e+01     0.144826    0.0957327 -32.36 0.0003529277    1.662    0.398
       173  -9.8454    132.9139     83.1791   7.6026887384e+01   3.9606439446e+01    0.2300434    0.2114148 -76.95 0.0006231138    1.224    0.183
       174  -9.3102    117.5367     83.5176   8.0381360825e+01   4.2935764514e+01     0.153679    0.1481055 -18.71 0.0001423619    1.004    0.004
       175 -10.8237     75.8219     82.0961   9.3049775491e+01   5.0948225174e+01     0.391605    0.2305353 -67.83  0.001137532    2.442    0.591
       176 -10.8650     30.7956     81.8714   1.0877948427e+02   5.6335548402e+01    0.2849411     0.187703 -37.30  0.001341965    1.471    0.320
       177  -9.4715    196.0379     82.2608   6.1714632997e+01   2.4397469520e+01    0.1900746    0.1328173  55.24 0.0003934635    1.463    0.317
       178 -11.2040    103.3651     91.5303   8.6958270667e+01   4.4085530755e+01    0.4551981    0.3048674  71.63            0    2.451    0.592
       179  -9.5086     36.3533     92.3111   1.0905386814e+02   5.3423055514e+01    0.1385618   0.08446788 -36.48 0.0007044534    1.726    0.421
       180  -9.5505     20.6996     81.6441   1.1230262848e+02   5.7165169081e+01    0.1667685    0.1293687  -0.95 0.0006129609    1.567    0.362
       181 -11.8155     21.2955     77.4732   1.1125014192e+02   5.8073329353e+01    0.4079989    0.3134824 -39.45  0.001562395    1.218    0.179
       182 -11.0069     57.0199     70.0163   9.6156708502e+01   5.6236057537e+01    0.3512203    0.2149492  15.77  0.001713256    2.020    0.505
       183 -10.2237     54.1921     74.2684   9.8421314192e+01   5.5660018261e+01    0.2800141     0.203796 -60.69    0.0007533    1.385    0.278
       184 -11.7834     62.4991     71.6329   9.4634937814e+01   5.5167339593e+01    0.3307302    0.2360331 -36.05  0.001492143    1.283    0.220
       185 -11.1880     60.6483     77.8429   9.7099292099e+01   5.4054740215e+01    0.4744248     0.327019 -36.13  0.001360214    1.373    0.272
       186 -10.0422     58.0035     74.2241   9.7023178930e+01   5.5195517469e+01    0.2432761    0.1972953  21.39 0.0004421914    1.363    0.266
       187  -8.8390    112.2836     79.6745   8.0717558586e+01   4.4832840146e+01    0.1496575    0.1226441 -78.13 0.0002035536    1.601    0.375
       188 -11.2042     91.9250     77.6762   8.6387760641e+01   4.9211304370e+01    0.4288924    0.3396969  38.09  0.002222412    1.329    0.248
       189  -9.1515     71.2937     79.6689   9.3893989336e+01   5.2168048609e+01    0.1364063    0.1118532 -88.47 0.0002333938    1.633    0.388
       190  -9.2702    121.6629     76.2845   7.6944329760e+01   4.3505549818e+01    0.1519044    0.1246707 -87.76 0.0007013664    1.627    0.385
       191 -10.9000    109.2984     75.0012   8.0120640716e+01   4.6399838872e+01    0.3771383    0.2906884  13.36  0.001625816    1.521    0.342
       192  -9.9016     49.3073     76.2847   1.0075282705e+02   5.5784518110e+01    0.2038555    0.1693328 -33.23 0.0003595473    1.120    0.107
       193 -12.0822     44.7600     75.1976   1.0212882191e+02   5.6525017952e+01    0.2283163    0.2204592  28.23 0.0002845396    1.228    0.186
       194 -10.3810    138.0094     74.5122   7.1999752013e+01   4.0105271338e+01     0.341726    0.2651159  88.58  0.001170215    1.762    0.432
       195  -9.5427    145.5140     74.0180   6.9973194676e+01   3.8400383339e+01    0.2429055    0.1544302 -35.34  0.001030388    1.587    0.370
       196 -12.1172    102.6466     72.4236   8.1312491050e+01   4.8262304143e+01    0.4837621    0.3014986 -37.11  0.000498777    1.565    0.361
       197 -11.1907     77.2296     71.3050   8.9307548067e+01   5.3057712926e+01    0.3873883    0.3284038  46.18  0.001667063    1.361    0.265
       198  -9.5401     38.3087     72.3064   1.0377284536e+02   5.7821019870e+01    0.1957434    0.1060088 -44.86 0.0006129127    1.561    0.359
       199 -10.6008     36.6013     68.5393   1.0343632956e+02   5.8814967043e+01    0.3209492    0.2431268 -52.56  0.001615014    1.128    0.114
       200  -9.6652     31.3304     68.3105   1.0539762148e+02   5.9339761317e+01    0.1822216    0.1559358 -43.05 0.0006926205    1.056    0.053
       201  -9.8195     31.0075     65.4920   1.0479558264e+02   5.9984276206e+01    0.2188614    0.1649635  61.57 0.0006380096    1.895    0.472
       202  -9.3800    128.8029     71.6222   7.3484393756e+01   4.2797670642e+01     0.200583    0.1475381  59.02 0.0002357835    1.500    0.333
       203 -10.8082    167.6160     70.0013   6.3742878588e+01   3.3633447658e+01    0.2685267    0.2199534  56.06  0.000330088    1.214    0.176
       204  -9.8536    144.3111     69.6254   6.8880308050e+01   3.9493820342e+01    0.2656581    0.1920055  40.08 0.0005652168    1.410    0.291
       205 -10.6626     68.7725     68.0355   9.1258296035e+01   5.5043345185e+01    0.4872318    0.1632503 -46.49  0.001232017    2.654    0.623
       206 -11.1347     50.4530     68.6017   9.8189591234e+01   5.7342060023e+01    0.3610438    0.2415898 -29.38  0.001326224    1.498    0.332
       207 -10.9966     51.1221     63.3423   9.6362188817e+01   5.8384643900e+01    0.5476602    0.2995115 -66.51  0.002346525    2.656    0.624
       208  -9.9348     47.2778     57.3050   9.5968603383e+01   6.0088873958e+01    0.2330625    0.1938047 -59.66 0.0007714074    1.353    0.261
       209 -10.3570     43.7680     57.0378   9.7286861463e+01   6.0537359978e+01    0.2198492    0.1728702 -13.70 0.0002350013    1.268    0.212
       210 -10.0425    140.3043     68.9660   6.9654010134e+01   4.0581527362e+01    0.2145579    0.2004048 -13.60 0.0002473853    1.081    0.075
       211 -11.6407     94.2973     67.1250   8.2205453150e+01   5.0931616192e+01    0.6279422    0.2839027 -39.72  0.002467758    2.134    0.531
       212  -9.8265      3.7981     47.3720   1.1135931730e+02   6.5636504717e+01     0.278084    0.1185502 -37.45 0.0009615115    2.014    0.504
       213 -10.6516      6.9781     41.4202   1.0837891883e+02   6.6693292645e+01    0.2921556    0.1151872 -54.61  0.000665304    1.830    0.454
       214 -11.6226      5.3498     58.7895   1.1335397770e+02   6.3151174124e+01    0.2836837    0.1922524 -59.00 0.0001951319    1.144    0.126
       215 -10.9396      5.6242     51.6988   1.1163109411e+02   6.4646004279e+01    0.3848141    0.1785145 -49.77   0.00142021    1.559    0.359
       216 -10.8790     60.3112     66.1350   9.3754677375e+01   5.6632778346e+01     0.280372    0.1506192 -48.35 0.0007768396    1.658    0.397
       217 -10.6891     77.1519     63.9650   8.6941768158e+01   5.4577321193e+01     0.374187    0.2663624 -45.20  0.001371363    1.345    0.257
       218 -12.4083      3.7881     64.9479   1.1522844663e+02   6.1888554335e+01    0.3754455    0.3012227  82.88  0.001308589    1.495    0.331
       219  -9.6011    222.7074     62.9666   5.2303405600e+01   2.1082186812e+01    0.2003618    0.1658599 -44.74 0.0002913356    1.122    0.109
       220 -10.9114     84.1483     61.2826   8.3594748143e+01   5.3922340406e+01    0.4770704    0.3183841  27.66  0.002333972    1.613    0.380
       221 -11.0176     87.1231     56.2909   8.0819767711e+01   5.4336143849e+01    0.3501346    0.2415834 -26.71 0.0002913064    1.438    0.305
       222 -10.9984     87.4124     52.2877   7.9264574257e+01   5.5011913740e+01      0.34132    0.2161402 -41.73  0.001360405    1.571    0.363
       223 -10.1838     11.2408     61.7242   1.1165822027e+02   6.2207646170e+01    0.3461978    0.1096381 -58.08  0.001579207    2.189    0.543
       224 -11.3916    201.3577     61.8262   5.5189972117e+01   2.6451217419e+01    0.2514191    0.2398516  64.98 0.0002799852    1.079    0.073
       225  -9.6800    189.9533     62.2490   5.7206784823e+01   2.9250505454e+01    0.2012573    0.1906127  60.76  0.001091018    1.068    0.064
       226 -10.1415    155.2964     61.3655   6.3714573470e+01   3.8204359180e+01    0.3308426    0.1969174 -18.25  0.001300034    2.172    0.540
       227 -10.4559     26.5707     49.6414   1.0213019842e+02   6.3700805124e+01    0.5696318    0.2454302 -66.19  0.002304529    3.330    0.700
       228 -10.1926     31.1668     45.1129   9.8692607411e+01   6.4206908648e+01     0.257471    0.1878636 -36.21  0.001097775    1.100    0.091
       229 -11.1605     29.8150     60.8027   1.0401148855e+02   6.1097947287e+01    0.6154758    0.2712567   9.52   0.00266222    3.339    0.700
       230 -12.3352    226.3048    245.8830   9.1121678892e+01  -8.2884850002e+00    0.5789773    0.3291198  10.61  0.003269105    1.921    0.480
       231 -11.3539     58.2481     59.0298   9.2245178010e+01   5.8375051690e+01    0.3411607    0.2680648  32.37  0.001980403    1.422    0.297
       232 -10.4546    147.1893     56.8099   6.4063417453e+01   4.0982448800e+01    0.2413391    0.2364501 -61.36 0.0003481571    1.069    0.065
       233 -10.0512    129.8054     56.1286   6.8053679113e+01   4.5322035587e+01    0.2616512    0.1982056 -26.19 0.0006013633    1.359    0.264
       234 -11.1761     75.2955     56.1264   8.4893762973e+01   5.6414971998e+01    0.2309246    0.2068363 -31.62   0.00030132    1.111    0.100
       235  -9.5268    190.1858     56.2401   5.5452925924e+01   3.0126199981e+01    0.2073431    0.1639399 -58.63 0.0009167922    1.309    0.236
       236  -9.7745    122.8037     56.5779   7.0057649411e+01   4.6878207433e+01    0.1964059    0.1456664  61.14  0.000324577    1.512    0.338
       237 -10.6023     61.8542     53.8356   8.9084539507e+01   5.8909165988e+01    0.3728956    0.2173071 -41.53  0.001862568    1.533    0.348
       238 -10.6313    100.2955     55.2950   7.6167367365e+01   5.1978332297e+01       0.3157    0.1965575  38.10  0.001457669    1.618    0.382
       239 -10.9892     12.3628     51.1248   1.0863437070e+02   6.4400523863e+01    0.2559223    0.2081072 -69.54 0.0004735161    1.333    0.250
       240 -11.4678     11.7190     43.9894   1.0696845269e+02   6.5906590556e+01    0.4492548     0.183952 -44.62  0.001739539    1.821    0.451
       241 -11.9755    128.4997     50.2181   6.6341889313e+01   4.6593366693e+01    0.5391814    0.3643375   1.10    0.0023364    2.001    0.500
       242 -11.0856     70.2992     50.4861   8.4678715757e+01   5.8277497884e+01     0.451372    0.3613652  76.29  0.002349927    2.121    0.528
       243  -9.8093     17.0011     51.9003   1.0686912891e+02   6.3946973510e+01     0.176093    0.1389242 -44.28            0    1.022    0.021
       244 -11.0601    104.3013     49.3946   7.2779058962e+01   5.2165451915e+01    0.3894475    0.3122131 -26.31   0.00206331    1.224    0.183
       245 -11.6524    150.1451     71.8828   6.8197081331e+01   3.7660904357e+01    0.3693045    0.2702104 -39.96 0.0003249239    1.374    0.272
       246 -10.2470     45.1126     48.1289   9.3774788918e+01   6.2170424509e+01    0.1977583    0.1577986 -28.94 -0.0006383859    1.042    0.041
       247 -11.3223     78.2322     48.0213   8.0860976269e+01   5.7411921813e+01    0.4095156    0.2431516 -22.04  0.001552379    1.891    0.471
       248 -10.4797     53.2192     49.9664   9.1108270594e+01   6.0825716781e+01    0.2176275    0.1838509  15.58 0.0009567955    1.247    0.198
       249  -9.5849    166.9440     48.5317   5.7293927931e+01   3.7246980449e+01    0.2236731    0.1434835  59.45 0.0004062761    1.503    0.335
       250 -11.0305    151.8484     47.6800   6.0045841855e+01   4.1233107067e+01    0.3561012    0.2904152  10.46  0.001074979    1.413    0.292
       251 -10.1994    156.0404     46.6894   5.8852639591e+01   4.0313594822e+01    0.3013799    0.2722618 -46.66 0.0007646443    1.154    0.133
       252 -10.9205    120.2061     46.4579   6.7170382903e+01   4.9123768398e+01    0.5336391    0.3265305  -7.88 0.0008651663    2.281    0.562
       253 -10.3254    124.5290     42.0544   6.4448009139e+01   4.8780472666e+01    0.2778458    0.2108042  22.37 0.0006458692    1.418    0.295
       254 -10.1744    142.7168     45.6899   6.1372708132e+01   4.3823574892e+01    0.2986048     0.239246 -73.54 0.0008775372    1.546    0.353
       255  -9.8286    112.9788     46.2821   6.9092555980e+01   5.0789111761e+01    0.2096667    0.1799835  39.20 0.0007305933    1.127    0.113
       256 -10.4345     85.9188     45.7108   7.7295055205e+01   5.6433412015e+01    0.2455402    0.1780312 -21.55 0.0008841249    1.350    0.259
       257 -10.8336     91.8012     43.1692   7.4350244326e+01   5.5729966910e+01    0.4893926    0.2092253 -44.17   0.00189089    2.651    0.623
       258 -10.2253     89.3146     38.9858   7.3522909449e+01   5.6880001283e+01    0.3217101    0.1781058 -30.75    0.0010343    1.779    0.438
       259 -10.1514     51.1871     44.8518   9.0079034959e+01   6.2056818723e+01    0.2614091    0.1676005 -26.95 0.0006692589    1.462    0.316
       260 -11.6506     51.9207     39.3666   8.7684434632e+01   6.2961829813e+01    0.5821065    0.3656912  31.89  0.002038195    1.705    0.414
       261 -10.9413     57.7458     34.7028   8.3403793546e+01   6.2957546205e+01    0.3105009    0.2626206  10.97  0.001439656    1.151    0.131
       262  -9.6206     52.6754     34.4020   8.5376243406e+01   6.3723256633e+01    0.3014039    0.1424221  20.47 0.0009523701    2.824    0.646
       263  -9.9035    175.0365     43.9655   5.4423626118e+01   3.5817240199e+01    0.2246504    0.2097866 -68.55  0.000647293    1.077    0.072
       264  -9.1066    218.2126     43.0365   4.7780521739e+01   2.5045376943e+01    0.1794812    0.1093279 -32.64  0.000363821    1.623    0.384
       265  -9.9860    163.1651     42.1741   5.6011322251e+01   3.9132506348e+01    0.1980343    0.1689864 -67.35 0.0004307468    1.270    0.212
       266  -9.9812    111.4495     41.7136   6.7824040111e+01   5.1834183521e+01     0.435023    0.1683554  53.71  0.001572253    2.676    0.626
       267  -9.5230     61.7587     37.6608   8.3001179166e+01   6.1866649718e+01     0.309128   0.08928897 -43.05  0.001092395    3.366    0.703
       268 -10.6443     65.8141     41.1723   8.2820205205e+01   6.0645778769e+01    0.3873037    0.2199541  32.99  0.001925986    1.819    0.450
       269 -10.9024     68.9836     38.2902   8.0453679430e+01   6.0629489943e+01    0.4777167    0.3381082 -39.75  0.002201143    1.429    0.300
       270 -11.9960    232.8371    244.8529   8.9812951652e+01  -9.1056244642e+00    0.6731418    0.2541546 -28.56  0.003260763    3.054    0.673
       271 -10.4999    147.5892    245.2284   1.0555832364e+02   4.0186817960e+00     0.147358    0.1153614 -31.23 0.0009519818    1.680    0.405
       272 -10.8611      8.2721     32.4835   1.0507896038e+02   6.8380414878e+01    0.4015412    0.3040633 -77.65  0.002644585    1.826    0.452
       273 -10.8876     23.5219     41.3364   1.0083495666e+02   6.5608196418e+01    0.3665499    0.2169275  33.34 0.0009557061    2.095    0.523
       274 -10.8301     20.5098     37.5226   1.0093838162e+02   6.6585538069e+01    0.2723754    0.1587045 -34.71    0.0010401    1.413    0.292
       275 -12.0838     27.7129     38.0084   9.7788093046e+01   6.5893627274e+01    0.3950194    0.2989367 -29.48  0.001531531    1.061    0.058
       276 -11.7697     24.3413     35.0815   9.8299023255e+01   6.6739608088e+01    0.3030827    0.1984816  -2.38 0.0005590376    1.618    0.382
       277 -10.8126    101.8611     23.7184   6.3470121136e+01   5.6411435401e+01    0.3697319    0.1881495 -25.23  0.001661831    2.036    0.509
       278 -11.0667     96.4057     40.7768   7.1943634308e+01   5.5188761215e+01    0.6303608    0.3193727 -30.38  0.002345848    1.992    0.498
       279 -10.3979    101.7396     36.9733   6.8820391522e+01   5.4652174091e+01    0.3863123    0.2455016   3.74  0.001717486    2.084    0.520
       280 -11.2052    105.6540     34.5747   6.6734479213e+01   5.4152790572e+01    0.3443193    0.2927846  77.10  0.000629635    1.525    0.344
       281 -11.1436     98.2380     31.6070   6.7737890407e+01   5.6157457553e+01    0.5302752    0.2985299  21.40   0.00223278    2.341    0.573
       282 -11.1897    101.3849     28.6681   6.5619291773e+01   5.5884419849e+01    0.3479852    0.2649531 -37.70 0.0009903199    1.449    0.310
       283 -11.2889     63.9627     60.0428   9.0417849707e+01   5.7382110697e+01    0.3474605    0.2017113  32.49  0.001156997    1.861    0.463
       284 -10.3191     42.8225     37.5632   9.0861188167e+01   6.4418316208e+01    0.3174528    0.2000753 -58.35  0.001645467    2.148    0.534
       285  -8.8986    148.6756     40.2937   5.8264619622e+01   4.3099636482e+01    0.1492135    0.1144645 -73.12 0.0007018718    1.619    0.382
       286 -12.0136     81.7544     35.6185   7.4722054034e+01   5.8835703101e+01    0.5911431    0.3469498 -29.39  0.001974429    1.652    0.395
       287 -11.2794     78.4835     32.7799   7.4693830567e+01   5.9866803778e+01    0.6497406    0.3536437  -3.73  0.002500302    3.160    0.684
       288 -10.0576     83.7232     30.3644   7.1866984165e+01   5.9246670059e+01    0.1929021    0.1649679  40.22 0.0005346059    1.250    0.200
       289  -9.1432    199.6898     37.6856   4.8790028499e+01   3.0356431574e+01    0.1426376    0.1082486  32.17 0.0007030421    1.632    0.387
       290 -10.5377    181.1850     36.6092   5.1204948116e+01   3.5230299670e+01    0.3226604    0.2047404 -74.50  0.001402587    2.010    0.503
       291  -9.1360    155.4735     35.5029   5.5320710702e+01   4.2013412662e+01    0.1499766    0.1343576  39.63  0.000119194    1.112    0.101
       292  -9.5772    110.9898     34.9508   6.5380437324e+01   5.2918166766e+01    0.2015688      0.17246 -74.53 0.0004637158    1.560    0.359
       293 -10.9669    248.2478     33.6066   4.2214082416e+01   1.9335306898e+01    0.3174511    0.1847674  84.72  0.001613271    1.868    0.465
       294 -11.1813    193.0899     32.8390   4.8354916027e+01   3.2661636709e+01    0.3761233    0.2283112  47.22 0.0004112457    1.772    0.436
       295  -9.6962     65.9058     33.1274   7.9502564802e+01   6.1965167622e+01     0.183207     0.165437 -28.19 0.0003602598    1.255    0.203
       296 -11.0450    177.2688     31.3203   5.0242331431e+01   3.6920815236e+01    0.3026772     0.217848 -44.36 0.0009783712    1.423    0.298
       297  -9.6430    125.3763     32.0617   6.0584669337e+01   4.9964390211e+01    0.2359089    0.1789666   5.35  0.001193795    1.477    0.323
       298 -10.8986     49.4868     30.5021   8.5103764620e+01   6.4806430694e+01    0.4041468    0.2067349 -31.41  0.001359729    1.791    0.442
       299  -9.1398    156.4942     31.5664   5.3841696891e+01   4.2256907204e+01    0.1453975    0.1351054  60.21 -2.470356e-06    1.009    0.009
       300  -9.4748    145.1550     31.1810   5.5903966425e+01   4.5196844081e+01    0.1992809    0.1673636 -60.19  0.001054315    1.347    0.258
       301 -11.5257    139.4449     30.6133   5.6888607074e+01   4.6703127335e+01    0.2670679    0.2378619  26.47 0.0002442524    1.125    0.111
       302 -12.4511     75.0044    240.0042   1.1861828731e+02   1.5795406136e+01    0.6299769    0.4802471 -57.66  0.004352396    1.706    0.414
       303 -11.1115     61.1896     24.4134   7.7572878281e+01   6.4046121737e+01    0.6161087    0.2183941 -32.50  0.002514477    2.737    0.635
       304 -10.3278     59.4917     21.4628   7.6916374845e+01   6.4739034525e+01    0.1825634     0.154282  22.25 0.0005732605    1.212    0.175
       305 -10.4425    232.1393     27.8653   4.2438059870e+01   2.3711857105e+01    0.2038815    0.1551911 -66.16  0.000266726    1.201    0.167
       306 -10.2633    152.0915     27.8593   5.3436111439e+01   4.3841697145e+01    0.2192284    0.1911687 -81.27 0.0004191157    1.245    0.197
       307 -11.1160    112.0767     25.0949   6.1255927045e+01   5.3959452901e+01    0.3651136    0.1916694 -30.71 0.0005070216    1.966    0.491
       308  -9.8389    113.9852     20.2207   5.8856481149e+01   5.4091887337e+01    0.2315633    0.1910357 -36.80  0.001303813    1.360    0.264
       309 -10.6441    214.9037     27.1462   4.4089682960e+01   2.7915694631e+01    0.2178871      0.16912 -67.88 0.0005058655    1.221    0.181
       310 -10.3497    243.0269     26.4886   4.1071471262e+01   2.1392785355e+01    0.1853062    0.1207418  76.02 0.0003636515    1.532    0.347
       311 -11.7728    237.3769     25.2501   4.1309377509e+01   2.2825351139e+01    0.2625557     0.210818 -53.84 0.0003801101    1.106    0.096
       312 -10.3430    156.5147    241.5259   1.0338749911e+02   3.1490206164e+00    0.1247632   0.09984834  37.88  0.000130348    1.014    0.014
       313 -10.7937     70.6367     25.9408   7.4608255521e+01   6.2260125369e+01    0.3079424    0.1766991  38.29 0.0008178781    1.700    0.412
       314 -10.5535     10.1039     25.0982   1.0162079379e+02   6.9652312502e+01    0.2374139    0.1482016 -13.34  0.000704857    1.564    0.361
       315 -10.3134    197.1086     24.8980   4.5613194617e+01   3.2618294960e+01    0.2052313      0.18577 -86.15 0.0003190783    1.006    0.006
       316 -10.2115    195.5599    238.6190   9.5585818984e+01  -2.7142086004e+00     0.261731     0.169893  20.90  0.001465304    1.458    0.314
       317  -9.5727     97.3499     23.7548   6.4785293720e+01   5.7378309421e+01    0.2011831    0.1869992  67.92 0.0004074486    1.325    0.246
       318  -9.9050     94.3021     22.6617   6.5234252249e+01   5.8156831260e+01    0.2402268    0.1827966  35.93 0.0008229353    1.194    0.163
       319  -9.5163    224.8720     24.0953   4.2257263852e+01   2.5883620107e+01    0.2427299     0.116204 -53.72 0.0008090399    2.081    0.519
       320 -11.4335     37.6670    244.1067   1.2547328571e+02   1.9744907293e+01    0.4422893    0.2496287  89.27  0.002964745    1.609    0.379
       321 -10.0558     34.0136     23.0327   8.8890567224e+01   6.7921153026e+01    0.1801874    0.1362308 -15.57  0.001180291    1.075    0.070
       322 -10.6421    171.1997     22.4006   4.8473864115e+01   3.9555701518e+01    0.2018885    0.1596569 -63.84  0.000410251    1.343    0.255
       323  -9.9034    155.9195     21.9674   5.0806351527e+01   4.3545694402e+01    0.2178967     0.160687 -67.00 0.0004134992    1.585    0.369
       324  -9.9729    185.4496     21.0177   4.6035603684e+01   3.6041150542e+01    0.1974672    0.1384523 -28.20 0.0004438898    1.537    0.349
       325  -9.9716     45.5328     20.5373   8.2432350118e+01   6.6907567947e+01    0.2046145    0.1722715   7.66 0.0007754914    1.172    0.147
       326 -10.0308     41.9229     19.7320   8.3695731732e+01   6.7500817044e+01    0.2295611    0.1544667  16.97 0.0008350547    1.444    0.308
       327 -10.2614    161.8775     19.8817   4.9143266902e+01   4.2243820942e+01    0.2104723    0.1929923  76.00  0.001221255    1.035    0.034
       328 -11.7456     30.0136    233.6924   1.2617474473e+02   2.2490592500e+01    0.4081299    0.2015601  86.60  0.002468276    1.846    0.458
       329  -9.4691     29.5634     20.0758   8.9738390465e+01   6.8880676799e+01    0.1730337   0.09758068 -38.55 0.0005901342    1.504    0.335
       330  -9.8887     24.2574    232.1743   1.2707712257e+02   2.3393834021e+01    0.2097926     0.140037  53.69 0.0006348226    1.255    0.203
       331 -10.2090    159.8852    235.8981   1.0198009695e+02   3.4586030360e+00    0.1936811      0.15136  22.81 0.0005448096    1.276    0.216
       332  -9.8384    151.0069     18.7398   5.0591795345e+01   4.5158133812e+01    0.1995471    0.1661285  60.88 0.0003699054    1.094    0.086
       333  -9.8094    108.3261     17.9235   5.9368384459e+01   5.5647009331e+01    0.1913043    0.1644367  19.72 0.0006437211    1.084    0.078
       334 -10.2024    215.2047     17.0186   4.1483067566e+01   2.9037760362e+01    0.4410158    0.1067909  61.87  0.001528308    3.435    0.709
       335 -10.6556     35.4947    239.5045   1.2557278543e+02   2.0816640580e+01    0.2539129    0.1792801 -59.48  0.001802259    1.920    0.479
       336 -10.1421    177.6336    234.9493   9.8427001114e+01   6.8972215134e-01    0.2270648    0.1534525  19.57  0.001043375    1.541    0.351
       337  -9.8535     69.3906     17.2804   7.1156532079e+01   6.3646281727e+01    0.1837023    0.1171514  -8.74 0.0004353413    1.601    0.375
       338 -11.3683    153.6678    233.8023   1.0289965791e+02   4.8081745650e+00    0.2352588    0.1910889 -24.45 0.0008811725    1.553    0.356
       339 -10.4921     86.4225    233.1109   1.1587360820e+02   1.5445687656e+01    0.2603889     0.114679  52.42 0.0009307049    1.940    0.484
       340 -10.1317    179.3189    243.6936   9.9368610096e+01  -8.2774799001e-01    0.1159032   0.08690888  57.34 0.0006792545    1.634    0.388
       341 -10.5364    250.3078    246.2885   8.7040529309e+01  -1.1668600771e+01    0.2330317    0.1254525 -26.26  0.001442518    1.903    0.474
       342 -11.2267     35.4820     15.0551   8.4521377141e+01   6.8999382128e+01    0.2760837    0.1773623  11.97 0.0003874698    1.525    0.344
       343  -9.8792     79.9739    231.5064   1.1694766831e+02   1.6651373768e+01    0.1787601   0.09776409  43.80 0.0004960928    1.537    0.349
       344  -9.2191    238.6465    201.2775   8.1235043690e+01  -4.4826396011e+00    0.1103466    0.1024956  57.32 0.0007008915    1.648    0.393
       345  -9.7647     50.5096     15.4667   7.7845682653e+01   6.6939991088e+01    0.2862876    0.1139241  40.68  0.001309847    2.622    0.619
       346 -11.1406      5.1473    226.8286   1.3003696696e+02   2.6303777656e+01    0.3968259    0.1423023  70.32  0.002114018    2.467    0.595
       347 -10.1324    190.5081    227.2975   9.4787840796e+01  -3.1206151866e-01    0.3404974    0.1253977 -41.34  0.001471836    3.172    0.685
       348 -10.0478    248.7932    227.5708   8.4187375607e+01  -9.3648377314e+00    0.2121355    0.1242231 -13.24 0.0008027868    1.691    0.409
       349 -10.6667     26.5878     14.0710   8.8470241058e+01   7.0140634229e+01    0.1877431    0.1346331  -4.60  0.001250764    1.214    0.176
       350  -9.8666    167.1578    233.8345   1.0028255661e+02   2.5776079362e+00     0.184383    0.1533846  46.32 0.0007097652    1.170    0.146
       351  -9.7880    130.2429    226.8474   1.0660104201e+02   9.8198153597e+00     0.219064     0.121038  67.95 0.0009544322    2.855    0.650
       352 -10.9866    120.1489    226.4867   1.0856985331e+02   1.1517433166e+01    0.1999387    0.1516601  65.29 0.0005876769    1.297    0.229
       353 -10.2455     88.8677    241.2371   1.1617576570e+02   1.3647305337e+01     0.191912    0.1473266 -37.02  0.001219507    2.109    0.526
       354 -10.3178     66.4570    226.2734   1.1904694625e+02   1.9472969094e+01    0.2558456    0.1352509  45.00 0.0008488317    1.589    0.371
       355 -10.1492     26.2695    224.9228   1.2631977935e+02   2.4541356620e+01     0.158101    0.1106705 -57.91 0.0007072758    1.920    0.479
       356  -9.2954     37.7159    224.6807   1.2425889002e+02   2.3322993708e+01   0.09537652   0.08294401 -62.69 0.0003520947    1.589    0.371
       357 -10.1281    123.4355    222.2570   1.0738062391e+02   1.1745533506e+01     0.202231     0.124067 -52.40 0.0007292208    1.913    0.477
       358 -10.2747     13.3951    222.2012   1.2841947143e+02   2.6381407169e+01     0.195074   0.08082601 -75.18  0.001129361    2.134    0.531
       359 -10.1401    141.4701    221.0858   1.0356812995e+02   8.9590224963e+00    0.2509429    0.1660027  27.69  0.001346223    1.611    0.379
       360  -9.1614     41.6781    220.7094   1.2326089469e+02   2.3633479808e+01   0.09541633   0.08797441 -54.65 0.0007011452    1.607    0.378
       361  -9.3584    250.4849    219.4445   8.2477887727e+01  -8.6320486708e+00    0.1228693      0.09239   7.66 0.0001650947    1.033    0.032
       362  -9.4381    174.4439    219.7844   9.6737371512e+01   3.5390031273e+00    0.2861646   0.08747358  32.65 0.0008755179    4.367    0.771
       363 -10.2026    109.6969    243.2685   1.1248895706e+02   1.0238827113e+01    0.2620723    0.1585081  65.04   0.00129303    1.744    0.427
       364  -9.9746     37.6727    217.6651   1.2379075909e+02   2.4690425082e+01    0.1806231    0.1312012  33.47  0.001214758    1.684    0.406
       365 -11.3176      9.6636    217.0080   1.2880555476e+02   2.7739528836e+01    0.2765658    0.1659875  66.93  0.001112824    1.253    0.202
       366 -11.3281    235.7831    214.9898   8.4263023962e+01  -5.8816768596e+00    0.4117684    0.2224476 -13.07  0.001781463    2.226    0.551
       367 -11.0029    241.0242    211.8637   8.2768171090e+01  -6.2747362833e+00    0.3079041    0.2473879  36.29  0.002004285    1.427    0.299
       368  -9.7052    194.4327    215.7272   9.2135273466e+01   7.4860920130e-01     0.170113    0.1192148 -20.82 0.0009490761    1.607    0.378
       369  -9.1469    201.6746    215.6893   9.0726518560e+01  -4.7089393869e-01    0.1341225   0.08965797  10.13 0.0007039567    1.658    0.397
       370  -9.3804    136.9560    215.7788   1.0374418297e+02   1.0665074694e+01    0.1803993   0.09465815  40.17 0.0008657358    1.647    0.393
       371  -9.3033    115.2101    215.0493   1.0813978972e+02   1.4417387254e+01    0.1544247    0.1038336 -60.22 0.0004914459    1.673    0.402
       372 -11.1383     21.2731    212.3175   1.2647132272e+02   2.7515449695e+01    0.3219261    0.1352043  56.77  0.001797323    1.961    0.490
       373 -10.1901    208.9787    212.0617   8.8697217492e+01  -1.1627110746e+00    0.1994903    0.1623285  15.52 0.0004742956    1.046    0.044
       374  -9.4507     76.3319    212.3053   1.1580415217e+02   2.0857435369e+01    0.1090544   0.09907087 -18.21 0.0007038125    1.660    0.398
       375 -10.0385      2.0243    212.0574   1.2989934904e+02   2.9405164300e+01    0.1694257    0.1048949  70.06 0.0007875969    1.190    0.160
       376 -12.3487      4.7572    207.5612   1.2919918384e+02   3.0043808171e+01    0.6078494    0.2308395  85.63   0.00317423    2.383    0.580
       377 -10.3973     10.7448    208.5846   1.2817507374e+02   2.9289321674e+01    0.1911592    0.1506536 -63.15 0.0005419043    1.622    0.383
       378 -11.2122     19.0707    203.1058   1.2631648646e+02   2.9591087234e+01    0.3791386    0.2353888 -88.23  0.002293775    1.315    0.239
       379 -10.3809    175.3834    202.6853   9.3717553199e+01   6.2022452443e+00    0.2369134    0.1901068  41.99 0.0005302581    1.159    0.137
       380 -10.9305     30.9086    215.8261   1.2492005821e+02   2.5805338930e+01     0.271044    0.1429275  39.58  0.001642462    1.832    0.454
       381  -9.5282    223.5916    201.8101   8.4080971464e+01  -2.1080416520e+00     0.164214    0.1193007 -42.35 0.0005396171    1.680    0.405
