#   1 NUMBER                 Running object number                                     
#   2 MAG_AUTO               Kron-like elliptical aperture magnitude                    [mag]
#   3 X_IMAGE                Object position along x                                    [pixel]
#   4 Y_IMAGE                Object position along y                                    [pixel]
#   5 X_WORLD                Barycenter position along world x axis                     [deg]
#   6 Y_WORLD                Barycenter position along world y axis                     [deg]
#   7 A_WORLD                Profile RMS along major axis (world units)                 [deg]
#   8 B_WORLD                Profile RMS along minor axis (world units)                 [deg]
#   9 THETA_WORLD            Position angle (CCW/world-x)                               [deg]
#  10 FWHM_WORLD             FWHM assuming a gaussian core                              [deg]
#  11 ELONGATION             A_IMAGE/B_IMAGE                                           
#  12 ELLIPTICITY            1 - B_IMAGE/A_IMAGE                                       
         1 -13.4182    212.3062      9.3984   5.1616729393e+01   3.0403800852e+01     2.063653     1.183506 -84.36  0.007374997    1.939    0.484
         2 -13.6247    171.5440     69.4693   7.5287111467e+01   3.2873109841e+01     3.807952     1.083706 -39.45  0.001686483    3.391    0.705
         3 -13.1299    202.0423     17.5296   5.4977315111e+01   3.2145155532e+01     2.498784     1.244037 -54.83   0.01043831    2.293    0.564
         4 -14.9769    244.5133    127.1764   7.7051910493e+01   6.7978586570e+00     4.777931     2.694448 -24.53   0.02267489    1.743    0.426
         5 -16.5516    240.9207     26.8656   5.3229883559e+01   2.1550512395e+01     9.640106     1.175612  59.21   0.02777274    5.386    0.814
         6 -15.4674    240.9286     84.9571   6.7618447416e+01   1.3790457826e+01     6.102379     4.175374 -39.75   0.03132346    1.373    0.272
         7 -14.9946    211.7724     67.9896   6.7632355642e+01   2.3080729960e+01     7.075581     3.237838 -62.53   0.01785239    6.234    0.840
         8 -14.2940    249.0930      4.1181   4.7118819864e+01   2.2164794424e+01    0.8716831    0.6657438  25.85  0.005140545    1.819    0.450
         9  -9.8918    159.8245     16.3313   6.0534100333e+01   4.3239617453e+01    0.2717229    0.2364502 -14.84 0.0005498907    1.239    0.193
        10  -9.7483    115.7881     12.4202   6.7824912514e+01   5.4604413979e+01    0.2885718    0.2665795  30.78  0.001370338    1.045    0.043
        11 -11.3498    120.2909      8.8879   6.5372405869e+01   5.3907367222e+01    0.5409779    0.4352491 -22.41  0.001720493    1.312    0.238
        12  -9.8424    171.9028      2.3741   5.4217509943e+01   4.1457201259e+01     0.283904    0.1953998 -43.97  0.000593827    1.542    0.351
        13  -9.8735    159.5114      7.8192   5.7735369247e+01   4.4177298340e+01     0.667817    0.1422774 -21.48  0.001886222    5.177    0.807
        14 -10.1833    188.4182      7.7081   5.3778699300e+01   3.6668202115e+01    0.6292552    0.2136233 -30.75  0.001919295    2.786    0.641
        15 -10.3678    184.0345      4.7726   5.3434806098e+01   3.8084894505e+01    0.6627233    0.3604189  69.87  0.003080472    1.678    0.404
        16 -14.7545    232.3662     11.6967   5.0292922920e+01   2.5258351998e+01     1.515474    0.8091467 -16.96  0.003818702    2.285    0.562
        17  -8.6809     58.3724      8.0955   8.3721953626e+01   6.6549714117e+01    0.1659976    0.1036974 -36.91 0.0005680317    1.685    0.407
        18  -9.7972    135.4594      4.5566   6.0626849278e+01   5.0613857946e+01    0.2448774    0.2110778  30.44  0.001422005    1.124    0.110
        19  -8.9698    128.8035      2.8533   6.1239077232e+01   5.2413508739e+01    0.2331724     0.162246 -12.11  0.001073905    1.554    0.356
        20  -9.1793    171.7186      9.0031   5.6336363956e+01   4.0887702954e+01    0.5288845     0.207984 -17.92  0.001966564    3.040    0.671
        21  -8.8231     79.9503      1.4238   7.2742208861e+01   6.3462864786e+01    0.1792865    0.1133737  46.16 1.408147e-05    1.479    0.324
        22  -8.3263    146.9091      1.0000   5.7365338184e+01   4.8033831506e+01    0.2359307    0.0724349  67.07 0.0008041428    2.954    0.662
        23  -8.7307     98.7822    164.1648   1.1495528777e+02   2.8809402955e+01    0.1530555    0.1512836 -11.11 0.0002281486    1.239    0.193
        24  -9.0498    165.0397    161.0584   9.9568922179e+01   1.7370874197e+01    0.2095898    0.1952988  47.40 0.0003240125    1.060    0.057
        25  -9.5348    195.9592    158.9319   9.2785669348e+01   1.1556154920e+01    0.2135699    0.1777421  87.27 0.0007903337    1.740    0.425
        26  -9.3461    159.6191    158.7340   1.0027592451e+02   1.8877127761e+01    0.2535223     0.188087 -57.43  0.001293249    1.565    0.361
        27 -10.0832    211.5867    156.9893   8.9372785339e+01   8.7660217715e+00    0.2653314     0.191198  43.86 0.0003381179    1.353    0.261
        28 -10.3900    191.7516    152.1791   9.2204798960e+01   1.3546726320e+01    0.5021982    0.2723384 -54.56   0.00201151    2.698    0.629
        29  -9.4127    203.7122    152.5098   8.9922319074e+01   1.1056810493e+01    0.2586263    0.2267936 -40.86 0.0009555393    1.269    0.212
        30 -10.5687    133.6502    145.3161   1.0346543708e+02   2.6623855810e+01      1.16931    0.2908943 -54.14  0.003003324    5.751    0.826
        31  -9.7999    151.9426    149.5843   1.0012910241e+02   2.2162986572e+01    0.2514226    0.2106488 -61.13 0.0005380592    1.325    0.245
        32 -13.2823    220.2410     56.6710   6.3335839113e+01   2.2658913847e+01     1.300603    0.8507295  70.23  0.005215008    1.651    0.394
        33 -11.3058    178.8369    144.8525   9.3274540038e+01   1.7518575696e+01    0.5814969    0.3301587 -46.34  0.002553356    1.925    0.481
        34  -9.0899    199.4362    145.2352   8.9176283739e+01   1.3143080238e+01    0.1971773    0.1346346 -47.71 0.0009442702    1.679    0.404
        35  -9.0033    143.6702    145.6745   1.0120622114e+02   2.4590512112e+01    0.1467077    0.1153616   2.88 0.0007050536    1.703    0.413
        36  -9.5347    192.0218    144.0844   9.0395008357e+01   1.4887575514e+01    0.2865429    0.1997969  51.63 0.0004932509    1.479    0.324
        37 -11.1774    188.7262    139.0611   8.9940916363e+01   1.6465423344e+01    0.4547204    0.4076865  22.98  0.001677756    1.070    0.065
        38 -10.7579    194.8399    198.6664   1.0048958770e+02   5.5506342944e+00    0.4404831     0.349135  76.53  0.002486903    1.986    0.497
        39  -9.4458    145.7711    136.1781   9.8701213996e+01   2.6086854916e+01    0.3256046    0.2158367 -87.86   0.00121113    2.765    0.638
        40 -12.0879    157.8056    140.2100   9.6828027946e+01   2.2798968813e+01    0.8858397    0.6259574  89.66  0.003806136    2.322    0.569
        41 -10.3216    174.5222    137.9037   9.2647449793e+01   1.9709385902e+01    0.2815495    0.2355613  79.19  0.001158759    1.498    0.332
        42 -10.9355    166.7357    137.0318   9.4139397549e+01   2.1533590638e+01    0.4905233    0.2709604 -50.71  0.001878051    2.062    0.515
        43  -9.8276    211.5464    136.5703   8.4915365601e+01   1.2057923731e+01    0.2979866    0.2561813   7.23  0.001052816    1.142    0.124
        44 -11.0038    179.5252    135.1117   9.0950182070e+01   1.9151248208e+01    0.4157712    0.3228118  84.26  0.001969799    1.842    0.457
        45 -10.2069    189.8383    131.5955   8.8001864278e+01   1.7550519900e+01    0.4110776    0.1691478  44.06  0.001495311    2.364    0.577
        46 -12.1328    134.7255    108.8557   9.4931758704e+01   3.4018597030e+01     2.030798     0.324957 -44.94   0.00457161    6.279    0.841
        47 -11.0872    136.1178    126.4406   9.8825910417e+01   3.0061874509e+01    0.7200578    0.3103402 -51.24  0.002658335    2.498    0.600
        48 -10.8456    132.2759    119.6369   9.8192134742e+01   3.2270180696e+01    0.5837787     0.421642  85.10  0.001659894    2.011    0.503
        49 -11.2581    160.2196    128.2049   9.3566673096e+01   2.4637130447e+01    0.5335314    0.3969961 -16.42  0.002500703    1.686    0.407
        50 -11.4837    154.4993    127.0054   9.4592725835e+01   2.6103643982e+01    0.6459554    0.4716512 -86.68  0.002840792    2.073    0.518
        51 -10.3249    150.2814    140.9150   9.8686733261e+01   2.4212012558e+01    0.3340366    0.2620619  65.42  0.001139214    1.432    0.302
        52 -11.0782    196.2805    119.7002   8.3873185082e+01   1.8224718323e+01     0.801738    0.5169596 -74.81  0.002926902    3.249    0.692
        53 -10.4569    202.7499    126.2429   8.4187220286e+01   1.5665127538e+01    0.4810438    0.3361439 -53.90  0.001833769    1.755    0.430
        54  -9.5577    205.0697    122.0008   8.2731324942e+01   1.5877098987e+01      0.31818    0.2901581  49.84 0.0009051081    1.155    0.134
        55 -10.3056    191.7071    192.5541   1.0002804366e+02   7.0175040785e+00    0.5458022    0.3113013 -64.85  0.001976207    4.876    0.795
        56  -8.2025    175.3404    125.6809   8.9633439190e+01   2.1813386296e+01    0.1519422    0.1214154 -87.27 0.0007049609    1.714    0.417
        57 -10.7989    141.2372    121.7684   9.6493579757e+01   2.9975829197e+01    0.5301313    0.3430494  75.40  0.001829784    2.560    0.609
        58  -8.5183    225.1036    122.0474   7.9105197433e+01   1.1539608110e+01    0.2042129    0.1709913 -75.64  0.000520818    1.633    0.388
        59  -9.3486    215.8132    115.8518   7.9264421622e+01   1.4535793471e+01    0.3357578    0.2505573  -6.96  0.001656116    1.508    0.337
        60 -11.2479    167.6053    114.1026   8.8478126264e+01   2.5735135947e+01    0.4689866    0.4201393  28.64 0.0006536869    1.123    0.109
        61 -10.5768    158.0316    114.5239   9.0747811162e+01   2.7803853213e+01    0.5316604    0.3309293 -62.86  0.002117416    2.289    0.563
        62  -9.7340    200.5832    115.9943   8.2127617822e+01   1.7900812244e+01    0.3466931    0.2183561  45.58  0.001136427    1.570    0.363
        63 -10.3143    206.0794    110.6425   7.9762016624e+01   1.7570325722e+01     0.609227    0.4144575  50.63  0.002892792    1.492    0.330
        64  -9.5053    174.5819    115.1119   8.7207251535e+01   2.3961894800e+01    0.3598125    0.2834193  87.92  0.001207491    1.729    0.422
        65  -9.0946      3.0080    117.0000   1.3255901184e+02   4.9992705542e+01     0.149904   0.06518403  21.67 0.0006603842    2.930    0.659
        66 -10.1279    126.8764    111.5180   9.7598664965e+01   3.5082211625e+01     0.577009    0.2319054 -56.06  0.001847674    3.339    0.700
        67 -11.5703    124.0652    103.4110   9.6280925588e+01   3.7366980606e+01    0.6263021    0.4717079  57.31  0.002542359    1.437    0.304
        68  -9.7649    141.6223    104.8588   9.2179179759e+01   3.3359769142e+01    0.2581497    0.2064146  34.58 0.0005775992    1.297    0.229
        69 -10.2939    147.6768    100.6792   8.9591179796e+01   3.2857607733e+01    0.4257481    0.3333115 -61.74 0.0007717158    1.472    0.320
        70 -11.7882      3.9576     91.6577   1.2954842698e+02   5.5517305364e+01    0.5432648     0.279979 -87.28  0.003028176    1.864    0.464
        71 -10.1695    121.0225     96.3441   9.5222414140e+01   3.9469994853e+01     0.553757    0.3220777 -66.27  0.002063907    2.717    0.632
        72 -10.8295    157.5520     94.6212   8.5605693798e+01   3.1772101506e+01    0.6040813    0.4572672  40.98  0.002876681    1.326    0.246
        73 -12.0202    155.5606     84.7175   8.3262614734e+01   3.4100159220e+01     0.591385     0.461872  67.74  0.002810075    1.455    0.313
        74 -10.2675    162.9133     83.3513   8.1204146160e+01   3.2589778467e+01     0.423076    0.2898762  48.10  0.001217499    1.440    0.305
        75 -10.6657    140.9844     91.0456   8.8575676410e+01   3.6263732347e+01    0.4673423    0.3134024 -38.11 0.0004076332    1.504    0.335
        76  -9.8566    167.2859     92.7924   8.2908959146e+01   2.9819266126e+01     0.394478    0.2018202  41.29  0.001506017    2.070    0.517
        77  -8.9508    172.0027     92.0480   8.1680769153e+01   2.8828841047e+01    0.2282819    0.2233869  22.13 0.0004651856    1.005    0.005
        78  -8.7818    115.3201     93.3156   9.5954087405e+01   4.1250274434e+01    0.1506512    0.1178543  -3.95 0.0007040194    1.657    0.396
        79 -10.3679    134.0063     97.1241   9.2025833244e+01   3.6584952494e+01    0.2924377    0.2781732 -51.35 0.0004668992    1.065    0.061
        80  -8.4767    194.4567     88.4961   7.6192645003e+01   2.4033081278e+01    0.1504389    0.1462196   0.11 0.0004322609    1.015    0.014
        81 -10.8795    173.1090     84.9533   7.9461544979e+01   2.9831486111e+01    0.5479689    0.3650781  35.86  0.001701897    1.646    0.393
        82 -10.4735    196.4563     96.2611   7.7886601827e+01   2.2240325346e+01    0.4319907    0.3429276  24.52  0.001298958    1.390    0.281
        83  -8.4029    128.3273     82.6766   8.9402879079e+01   4.0710868833e+01    0.1536873    0.1218861 -83.21 0.0007048945    1.692    0.409
        84  -9.5036    202.6790     80.4869   7.2529263918e+01   2.3357370824e+01    0.2844926    0.2208305 -62.00 0.0001769786    1.494    0.331
        85  -9.8915    125.6161     76.7521   8.8344281518e+01   4.2455022886e+01    0.3126176    0.2088244  57.33  0.001155783    1.678    0.404
        86  -8.7793    206.9447     82.9770   7.2456401563e+01   2.1928740779e+01    0.2227187    0.1699218 -60.82 0.0004320528    1.527    0.345
        87  -9.0838    114.9723     74.6192   9.0616505159e+01   4.5125296545e+01    0.1999941    0.1868773  41.96  0.001095367    1.100    0.091
        88 -10.9513    151.6923     72.2279   8.0440103395e+01   3.7288306860e+01    0.4857925    0.3088534 -52.37  0.001545174    1.827    0.453
        89  -9.9571    139.5734     73.3147   8.3681967084e+01   3.9962117793e+01    0.2962269    0.1429889 -42.32 0.0005960707    2.092    0.522
        90  -9.6720    121.6475     72.8210   8.8203571892e+01   4.4067637605e+01      0.27409    0.1884846 -48.37  0.001268541    1.518    0.341
        91 -10.2384      2.0120     67.6628   1.2675523457e+02   6.0857497234e+01    0.2625885   0.06779066 -59.96  0.001194862    2.445    0.591
        92 -13.4894     12.3798    185.9508   1.3558333668e+02   3.4836978988e+01    0.8342487    0.5872377  76.24  0.003892421    1.063    0.060
        93  -9.0895    216.4579    177.2780   9.2559158702e+01   4.7650936752e+00    0.1730562    0.1249309 -43.33 0.0008213994    1.663    0.399
        94  -9.9705    250.0033    174.7776   8.6216559523e+01  -8.0952585548e-01    0.3037534    0.1815681  -8.37  0.001297577    1.836    0.455
        95 -10.3231    201.1260    174.0469   9.4808803774e+01   8.1144057171e+00    0.3464543    0.2402001 -15.86  0.001809598    1.665    0.400
        96  -8.9164     72.5527     58.1463   9.8687945580e+01   5.6038306029e+01    0.1990817    0.1230873 -46.17 0.0008731126    1.496    0.331
        97 -10.4330      6.3238     54.5180   1.2275206610e+02   6.3449013134e+01     0.215188   0.08387401 -65.17  0.001085149    1.997    0.499
        98 -12.0267     68.5555    145.8662   1.1942423415e+02   3.7202318630e+01     1.222943    0.9608569 -61.49  0.005855244    1.253    0.202
        99  -9.8163    162.5337     32.9997   6.5592354038e+01   4.0582165408e+01    0.2349708    0.1871416  61.01  0.000582082    1.203    0.168
       100 -11.2808    110.7771     30.9402   7.6496593566e+01   5.3462558776e+01    0.3934991    0.2768676  28.72  0.001982292    1.460    0.315
       101  -9.4897    166.9715     30.5165   6.3991378720e+01   3.9745526276e+01    0.2565922    0.2132006 -29.25 -1.585787e-05    1.255    0.203
       102 -10.4948    159.4174     26.5953   6.4037416753e+01   4.2182730207e+01    0.4313452    0.2234324 -36.24  0.001835076    1.975    0.494
       103  -8.3941    186.2888     26.2621   5.9592909430e+01   3.5226436010e+01    0.2011629     0.157027 -60.55  0.001034134    1.360    0.264
       104 -12.6228     43.2717    166.8437   1.2782208114e+02   3.5683409310e+01    0.5884929    0.4525589  76.74  0.001534873    1.090    0.083
       105  -9.7267    108.7884     22.2214   7.3568903575e+01   5.5061433912e+01    0.1973114    0.1508312  17.04 0.0006049461    1.327    0.246
       106 -12.5837     50.1275    162.5405   1.2586144903e+02   3.5829528728e+01    0.7715679    0.5122585  81.28  0.002520911    1.414    0.293
       107  -8.2074    148.6702     19.2894   6.3503636041e+01   4.5790054601e+01    0.1442071    0.1089271 -69.76  0.000351551    1.621    0.383
       108 -12.3408    218.0102    188.4979   9.4395966237e+01   2.8919349131e+00    0.6520423    0.4412909  28.11  0.003708226    1.319    0.242
       109 -10.6403    204.8717    190.0728   9.7099513419e+01   5.0097487501e+00    0.3323261    0.1984332  60.75  0.001495144    2.692    0.629
       110 -11.9523     34.3766    181.8129   1.3100360355e+02   3.3541800609e+01    0.7617619    0.3411244  58.50  0.004141987    2.055    0.513
       111  -8.2865     72.6861    248.9933   1.2903422167e+02   1.6905860411e+01     0.139437   0.06887014 -46.81 0.0007039211    4.193    0.761
       112 -13.1594    192.2605     72.7599   7.2253990215e+01   2.7157957850e+01     2.360027     1.027223  35.32  0.007189744    3.776    0.735
       113 -11.9063    237.0918    246.2057   1.0062777073e+02  -6.9459537446e+00    0.2005161    0.1612552  20.64 0.0002212105    1.189    0.159
       114 -10.1731    149.2502    223.1730   1.1281245330e+02   9.7047548555e+00    0.2089205    0.1656256  45.25 0.0002510517    1.024    0.023
       115  -8.5201    129.2605     10.3864   6.4042386340e+01   5.1591731487e+01    0.1479608   0.09590665  25.24 0.0006974552    1.687    0.407
       116 -10.5344     38.2744    214.0079   1.3256617917e+02   2.6948249527e+01    0.2277921    0.1820748  -5.75  0.001542503    2.557    0.609
       117 -13.4085    249.9820     47.7885   5.7381939130e+01   1.6910070561e+01    0.6225081     0.376283 -43.97  0.002027906    1.506    0.336
       118  -8.2746    151.2731    208.6444   1.1044043097e+02   1.1643817824e+01    0.1226037   0.09196153  71.80 0.0003656446    1.644    0.392
       119 -12.5414     55.6511    158.3266   1.2412942586e+02   3.6088853201e+01    0.7003259     0.475678  83.57  0.001538392    1.410    0.291
       120 -11.0550    213.8191    167.4617   9.1109347023e+01   6.7155963996e+00    0.6667544    0.3712302  64.35  0.002450643    3.867    0.741
       121 -11.8284     25.0334    167.0456   1.3175784714e+02   3.7495583261e+01    0.4350655    0.2619531 -69.98  0.002783419    1.497    0.332
