#   1 NUMBER                 Running object number                                     
#   2 MAG_AUTO               Kron-like elliptical aperture magnitude                    [mag]
#   3 X_IMAGE                Object position along x                                    [pixel]
#   4 Y_IMAGE                Object position along y                                    [pixel]
#   5 X_WORLD                Barycenter position along world x axis                     [deg]
#   6 Y_WORLD                Barycenter position along world y axis                     [deg]
#   7 A_WORLD                Profile RMS along major axis (world units)                 [deg]
#   8 B_WORLD                Profile RMS along minor axis (world units)                 [deg]
#   9 THETA_WORLD            Position angle (CCW/world-x)                               [deg]
#  10 FWHM_WORLD             FWHM assuming a gaussian core                              [deg]
#  11 ELONGATION             A_IMAGE/B_IMAGE                                           
#  12 ELLIPTICITY            1 - B_IMAGE/A_IMAGE                                       
         1 -15.1947    224.8822     70.5619   5.0232174899e+01   2.0311409859e+01     5.780702     5.235208  62.02   0.02418668    1.203    0.169
         2 -13.5846    250.2301     33.6861   3.8879834175e+01   2.0019248712e+01     1.447839    0.9276998 -71.70 0.0007809839    1.529    0.346
         3 -14.0906    248.3566     11.3953   3.4294577262e+01   2.3067736661e+01      2.54537     1.489818  73.71   0.01497866    1.680    0.405
         4 -15.3923    245.3986     52.9746   4.3608667905e+01   1.8456505055e+01     9.412461     3.686299  60.86   0.04114197    2.685    0.628
         5  -9.5541    209.1151      6.5068   3.6336769187e+01   3.2281695423e+01     0.291925    0.2144494 -10.10 0.0007674989    1.834    0.455
         6  -8.8151    157.4840      8.1906   4.2603068521e+01   4.4644890249e+01    0.2393712    0.2111359  64.77  0.000581932    1.041    0.039
         7  -7.2892    122.3150      9.3031   4.8861514062e+01   5.3107449567e+01    0.1410226   0.08731959  35.66 0.0003424024    1.618    0.382
         8  -8.1619    122.9282    195.8076   9.9918340897e+01   1.6847881638e+01    0.1918287     0.178198  13.94 0.0003434428    1.193    0.162
         9  -9.2866     55.4152    188.3515   1.1441096796e+02   2.8550086395e+01    0.2219463     0.203381 -88.80 0.0004820434    1.150    0.131
        10 -12.6462     10.7714    166.6025   1.2254399374e+02   3.8125257193e+01    0.9043092    0.6870268  88.88  0.004280055    1.035    0.034
        11 -10.8986     40.8876    153.1995   1.1383757421e+02   3.8518464228e+01    0.3767481    0.3241996 -28.81  0.001130948    1.479    0.324
        12 -12.4834     48.2913    149.4900   1.1140275434e+02   3.8614962921e+01     1.023871    0.8756111  60.99  0.004901061    1.196    0.164
        13 -11.5174     55.5779    146.7080   1.0903991450e+02   3.8447314632e+01    0.6973985    0.5116385 -74.17  0.002008511    1.233    0.189
        14  -8.1266     56.6187    172.9552   1.1235336091e+02   3.1970085812e+01    0.1832272    0.1492627 -79.89 0.0004136173    1.100    0.091
        15  -8.0828    192.4738    153.4840   7.6077016297e+01   1.2382853265e+01    0.1465408    0.1407818 -18.72 -3.235135e-05    1.072    0.067
        16  -9.1543    232.5969    151.3214   6.7927252532e+01   5.0709808929e+00    0.2477499    0.2103536  -5.50 0.0003875302    1.118    0.106
        17  -8.5140    133.4847    148.7811   8.8618981006e+01   2.5330485517e+01    0.3611796     0.219531 -59.68  0.001501062    1.861    0.463
        18  -7.4722    151.2088    152.6267   8.5109631005e+01   2.0941102411e+01    0.2160492    0.1422378  30.56 0.0009340026    1.662    0.398
        19 -10.3887     69.4219    146.0941   1.0516179426e+02   3.6818271393e+01     0.459163    0.3137911  47.17  0.001686741    1.526    0.345
        20 -11.0393     66.8666    143.1426   1.0536796543e+02   3.7891953508e+01    0.7169766    0.3582223 -50.48  0.003128231    1.938    0.484
        21  -8.0236    250.7591    143.9751   6.3307634906e+01   3.0772029119e+00    0.1794368   0.09924076 -34.12 0.0005584816    1.558    0.358
        22  -8.9468    239.9064    143.4344   6.4954140306e+01   5.0815244510e+00    0.2491681    0.1724687 -40.75 0.0006930886    1.359    0.264
        23  -8.5997    131.8341    141.2748   8.7373490316e+01   2.7375276180e+01    0.2750514    0.2131407 -61.07  0.001113921    1.374    0.272
        24  -8.4764    143.1871    138.1521   8.3781994314e+01   2.5784123782e+01    0.2174608    0.1884038  81.80 0.0008433259    1.357    0.263
        25  -9.6973    242.1084    134.8796   6.2706661087e+01   6.1160141390e+00    0.4299999    0.1488672  51.73  0.001555645    3.615    0.723
        26 -10.1507    160.0141    130.6562   7.7896567193e+01   2.3863995773e+01    0.4454004    0.3380955  57.65  0.002066618    1.469    0.319
        27 -10.5106    166.0446    127.9780   7.5833272390e+01   2.3119764431e+01    0.4357335    0.2987891 -50.99  0.001930928    1.523    0.343
        28 -10.1628    223.5342    130.3116   6.4798533718e+01   1.0457086548e+01     0.434231    0.2573169  64.55  0.001823772    2.564    0.610
        29  -8.9386    249.0135    130.0511   6.0550455854e+01   5.6604582714e+00    0.2128757    0.1859292 -22.51 0.0007293481    1.039    0.038
        30 -10.5414    201.6762    128.1161   6.8318761374e+01   1.5359065390e+01    0.5604346    0.2160729 -43.04  0.001977342    2.494    0.599
        31  -9.7499    196.7546    128.2845   6.9328369355e+01   1.6375490732e+01    0.2686079    0.2365737 -29.90 0.0004944799    1.075    0.070
        32  -9.6529    139.2785    128.6869   8.2496048082e+01   2.8721798241e+01    0.4808354    0.2717845  56.13  0.001839127    2.169    0.539
        33 -10.1376    182.2707    126.4343   7.1860508658e+01   1.9878790146e+01    0.3728035    0.2391849 -48.22  0.001623511    1.595    0.373
        34  -9.7268    241.7607    127.2034   6.1050176493e+01   7.4694693926e+00    0.3529972    0.1903217  58.98  0.001554588    2.534    0.605
        35  -7.8699    227.3687    247.2842   8.7022386520e+01  -8.4538740083e+00    0.1237309   0.07284825   9.66  0.000701792    1.698    0.411
        36  -8.3034    166.1722    106.4066   7.0222361100e+01   2.7544855391e+01    0.2196055    0.1514197  63.11 0.0008336767    1.714    0.417
        37 -10.8459    148.1786    104.3867   7.3909128679e+01   3.2076146951e+01    0.5493224    0.4079996  15.40  0.001670389    1.754    0.430
        38  -9.6839    118.6946    105.6250   8.2037235514e+01   3.8184930046e+01    0.2842409    0.2481759  61.68  0.001427779    1.268    0.212
        39  -8.3424    243.9218    245.3019   8.3804606317e+01  -1.0412524858e+01    0.1610572    0.1123803  15.72 0.0003681008    1.122    0.109
        40  -8.1193    214.6561    234.8241   8.7326436300e+01  -5.0474169768e+00    0.1586089    0.1334582  -2.17 0.0006553614    1.142    0.124
        41 -12.7175    247.7620     58.5510   4.4608797432e+01   1.7173966379e+01    0.7439863    0.3989524 -40.10  0.002853334    1.592    0.372
        42  -8.1326    130.2795    103.6422   7.8305957809e+01   3.6193312577e+01    0.1590339    0.1251132 -78.19  0.000701282    1.662    0.398
        43  -9.6583    226.4429    123.2407   6.2655424086e+01   1.1125598582e+01    0.2498893    0.2091469  44.97  0.000899174    1.317    0.241
        44 -10.4229    120.6145    100.0687   7.9954650884e+01   3.9017834985e+01    0.4426319    0.3008387  42.99  0.001627607    1.511    0.338
        45  -9.0250    233.1591    210.5271   7.9718131612e+01  -4.3982840145e+00     0.220594    0.1811745   0.41 0.0004243918    1.038    0.036
        46  -9.5605    151.1344    110.5051   7.4848984596e+01   3.0123665471e+01    0.2677037    0.2096713 -62.50  0.001094627    1.459    0.314
        47  -9.7557    134.4431     98.7617   7.5827721131e+01   3.6330837689e+01    0.3041793    0.2950243 -34.45  0.001607368    1.017    0.017
        48  -9.7107    112.9036     95.9205   8.0973730731e+01   4.1504284861e+01    0.3551572    0.2154619 -47.49  0.001513372    1.619    0.382
        49  -9.3417    149.2322     96.1356   7.1340694320e+01   3.3532362267e+01       0.2988    0.2147529  82.17  0.001234097    2.055    0.513
        50  -9.8060    140.1285     94.6291   7.3172122969e+01   3.5919791953e+01    0.4370429    0.2721672  65.13  0.001411393    2.178    0.541
        51  -8.5662    130.8294     93.3937   7.5237865548e+01   3.8252289554e+01    0.2163552    0.1966244 -56.50 0.0005194889    1.152    0.132
        52  -8.5141    142.2881     91.0378   7.1583600321e+01   3.6156003479e+01    0.2301117    0.2029813 -41.60  0.001027151    1.122    0.109
        53  -9.7651    115.8694     90.7489   7.8605822919e+01   4.2009726807e+01    0.2956935    0.2034217 -69.01  0.001140746    2.091    0.522
        54 -10.0905    124.9934    106.2092   8.0447486172e+01   3.6753331678e+01    0.4424493    0.2153042 -46.02  0.001662058    2.009    0.502
        55  -9.8346    129.7544     88.3832   7.4044895435e+01   3.9520252230e+01    0.3400007    0.3038916  71.50  0.001308268    1.265    0.209
        56  -8.9916    115.8746    110.3181   8.4095595315e+01   3.7693026290e+01    0.2490939    0.1998288  65.71  0.001179232    1.483    0.326
        57  -9.5440    121.9021     88.1433   7.6118951655e+01   4.1282208759e+01    0.2395684     0.216526 -78.97 0.0007424303    1.285    0.222
        58  -9.9088    133.6406     83.6447   7.1589884539e+01   3.9597002150e+01    0.4371185    0.1785231 -46.15  0.001488557    2.574    0.612
        59  -9.9681    115.6788     84.3185   7.6721273262e+01   4.3389889962e+01    0.3103819    0.2271663 -60.37  0.001390621    1.640    0.390
        60  -8.9542    129.3638     82.6853   7.2424489655e+01   4.0748800753e+01    0.2820832    0.1954692 -60.48  0.001031396    1.809    0.447
        61  -8.8193    126.3359     82.3095   7.3123450112e+01   4.1496539466e+01    0.2967881    0.1497315 -36.09  0.001132017    2.035    0.509
        62  -8.5405    102.9024     82.3063   7.9900742222e+01   4.6397322344e+01    0.2962484    0.2121993 -32.57 0.0006146362    1.397    0.284
        63  -8.5514    140.9922    122.9841   8.0637754352e+01   2.9634950543e+01    0.2490261    0.1971997 -85.64 0.0007686182    1.668    0.400
        64 -10.3068    126.4475     75.5024   7.0966749784e+01   4.2792203919e+01    0.5777841    0.3471892  75.75  0.001932754    3.508    0.715
        65 -10.7223    132.4286     70.3814   6.7766202579e+01   4.2380055871e+01     0.456036    0.3300587  -5.74  0.002039474    1.792    0.442
        66  -9.6738    136.7497     63.5331   6.4482434444e+01   4.2572212369e+01    0.2831637    0.2054854 -33.60 0.0007713098    1.396    0.284
        67  -9.9055    134.9330    121.2039   8.1746360380e+01   3.1315837617e+01    0.4342848    0.2451341  47.50   0.00174011    1.842    0.457
        68  -9.3456    182.5464    120.9483   7.0433748351e+01   2.0914252593e+01    0.2482862    0.2122744  46.52   0.00125159    1.215    0.177
        69  -7.4259    102.2997     63.3365   7.3885375111e+01   5.0235144473e+01    0.1521415    0.1116017   1.33 0.0002166777    1.658    0.397
        70 -10.4143    158.3014     61.0816   5.8863467679e+01   3.7763023199e+01     0.360332    0.2455848 -38.91  0.001330748    1.474    0.322
        71  -9.8083    128.0240     56.6044   6.4363916319e+01   4.5771448771e+01    0.2872867    0.2007414 -49.14 0.0008410813    1.605    0.377
        72  -7.6756    122.4071     52.7660   6.4497496025e+01   4.7684241990e+01    0.2069262    0.1403129 -19.19 0.0009527687    1.658    0.397
        73 -11.2175    141.3905     59.1356   6.1956836793e+01   4.2197804190e+01    0.5671278    0.4141388 -57.95  0.002677111    1.629    0.386
        74 -10.3780    150.8849     48.3653   5.6421359866e+01   4.1542961718e+01    0.2967364    0.2165658 -40.21  0.001245213    1.412    0.292
        75  -9.7929    157.6481    121.1120   7.6061957539e+01   2.6419798832e+01    0.3193169    0.1944996 -55.14  0.001279545    1.877    0.467
        76 -10.1718    176.9697    113.4353   6.9703684753e+01   2.3664472323e+01    0.3711608    0.2094024 -47.77  0.001400944    1.815    0.449
        77 -10.4584    231.4781    116.7519   6.0308978132e+01   1.1245244676e+01    0.4057187    0.2886289 -40.35   0.00123633    1.266    0.210
        78 -10.3796    226.7625    114.4495   6.0540232861e+01   1.2599805536e+01    0.3821427    0.2881804 -46.46   0.00155857    1.273    0.214
        79 -10.7298    147.3438     57.4154   6.0058821313e+01   4.1033603584e+01     0.447823    0.2569929 -28.97  0.001908272    1.865    0.464
        80 -10.0387    185.7626    117.0424   6.8775088231e+01   2.0969353846e+01     0.456772    0.2954639 -89.00  0.001587293    3.294    0.696
        81 -10.8742    134.1955    108.7147   7.8658148218e+01   3.4244613887e+01    0.6673515    0.3368597 -42.12  0.002183537    1.952    0.488
        82  -8.7162    161.3817     28.4119   4.8220627749e+01   4.1557278178e+01    0.3907287    0.2047486  41.68 0.0004880762    2.153    0.536
        83 -10.1734    126.9712    114.6445   8.2166805626e+01   3.4456125517e+01    0.4196669    0.3431232  17.81  0.001822904    1.406    0.289
        84 -10.1000    188.8217    123.6932   6.9810563754e+01   1.8986771658e+01    0.4717438    0.2990167 -78.12  0.001596541    3.506    0.715
        85  -8.5316    129.6771     23.2920   5.2395395776e+01   4.9947827106e+01    0.1990109    0.1703507 -51.55 0.0005306675    1.327    0.247
        86 -11.0635    167.7489    113.7451   7.1813957427e+01   2.5694426590e+01    0.4659625    0.3751064  27.64  0.002229121    1.370    0.270
        87  -7.9160    202.9712    207.2301   8.4802841288e+01   8.6234153605e-01    0.1841801    0.1497732  22.33 0.0003855873    1.096    0.087
        88 -10.0185    170.8248    197.2111   8.9561634438e+01   8.1364815889e+00    0.2412253    0.2251605  39.67 0.0003178258    1.127    0.113
