#   1 NUMBER                 Running object number                                     
#   2 MAG_AUTO               Kron-like elliptical aperture magnitude                    [mag]
#   3 X_IMAGE                Object position along x                                    [pixel]
#   4 Y_IMAGE                Object position along y                                    [pixel]
#   5 X_WORLD                Barycenter position along world x axis                     [deg]
#   6 Y_WORLD                Barycenter position along world y axis                     [deg]
#   7 A_WORLD                Profile RMS along major axis (world units)                 [deg]
#   8 B_WORLD                Profile RMS along minor axis (world units)                 [deg]
#   9 THETA_WORLD            Position angle (CCW/world-x)                               [deg]
#  10 FWHM_WORLD             FWHM assuming a gaussian core                              [deg]
#  11 ELONGATION             A_IMAGE/B_IMAGE                                           
#  12 ELLIPTICITY            1 - B_IMAGE/A_IMAGE                                       
         1 -12.3843     12.3752     11.2817   1.1175975512e+02   7.0119319000e+01    0.6317956    0.4872789  49.98  0.004317767    2.748    0.636
         2 -12.0321      2.2097     34.4667   1.2461458119e+02   6.7240108857e+01     1.253237   0.08259138 -55.28  0.003074197   10.748    0.907
         3 -12.3726      2.3524      8.1104   1.1519214664e+02   7.1313930597e+01     1.070513      0.23552 -45.31  0.004835273    3.675    0.728
         4 -13.0541    193.8902     30.2764   6.8649863877e+01   3.3254261701e+01     1.200028    0.9397562  66.58  0.006381131    1.170    0.145
         5 -13.7718    207.1680     12.9691   6.2763874109e+01   3.2053074156e+01     1.469537       1.0212  40.50  0.008090874    1.874    0.466
         6 -10.2380    238.4917    247.9843   1.0931053686e+02  -1.2465925991e+01    0.1668282    0.1095273 -27.63 0.0006712931    1.602    0.376
         7 -10.9792    248.6152    249.0461   1.0770490235e+02  -1.4071400842e+01    0.2961089    0.2031443  31.38   0.00195055    1.291    0.226
         8 -11.6836    138.9049    249.9086   1.2815669328e+02   3.7031430463e+00    0.4964614     0.206813  40.26  0.002277722    2.093    0.522
         9 -14.4256     33.9841    246.8363   1.4659274053e+02   1.9851745042e+01     10.42223     3.570042  30.36   0.03072024    9.997    0.900
        10 -10.8685    111.0071    249.5284   1.3332663285e+02   8.3994185076e+00    0.2323106    0.1599203  87.11  0.001384087    1.606    0.377
        11 -11.1714    120.1399    238.2963   1.3027655730e+02   8.9233991052e+00    0.3082248    0.1690181 -69.90  0.001532518    2.267    0.559
        12  -8.9048    152.7249    212.9469   1.2007257546e+02   7.9005859018e+00    0.1806091    0.1695027  67.54 0.0002795995    1.076    0.071
        13 -10.2468     66.6083    250.0856   1.4134676324e+02   1.5010309565e+01    0.2251107    0.1404065  47.54 0.0003136215    1.436    0.304
        14 -12.4779     38.1515    229.9072   1.4467433900e+02   2.2613088404e+01    0.3083406    0.2514952 -85.84 0.0007518065    1.272    0.214
        15 -14.5414     44.6901    220.9308   1.4276987696e+02   2.3621966013e+01     1.899021     1.707665 -82.39  0.008617827    1.383    0.277
        16  -9.8248    193.9579    196.5985   1.0861830486e+02   3.0617326583e+00    0.7088267    0.3317978 -63.31  0.001481003   10.757    0.907
        17 -11.4353     64.2752    196.2229   1.3642150643e+02   2.6339133715e+01    0.3464259    0.2462529 -47.82  0.001155821    1.809    0.447
        18 -11.5761     69.8373    188.5789   1.3429358602e+02   2.7274342223e+01    0.2934716    0.2310219 -59.91 0.0006853781    1.353    0.261
        19 -10.7881     79.3872    176.2942   1.3045596102e+02   2.8695100639e+01    0.2416189    0.2207556 -74.96 0.0004277393    1.151    0.131
        20 -13.0394     66.4956    173.9644   1.3308779682e+02   3.1102323099e+01    0.5106941    0.2824283 -45.63  0.001584339    2.265    0.558
        21 -15.1272      4.9820    245.9608   1.5112011167e+02   2.3237356142e+01      17.6072          nan -74.75   0.03959419   15.414    0.935
        22 -11.7232     86.8009    167.1226   1.2728132561e+02   2.9695502724e+01     0.702855    0.5522616  61.10  0.003872754    1.251    0.201
        23  -9.1797    229.4827    229.5032   1.0778714660e+02  -8.6013284970e+00    0.1248943    0.1072175  16.95 0.0008096562    1.062    0.058
        24  -9.7157     99.2756    151.2918   1.2138002948e+02   3.1382568379e+01    0.2927621    0.2459937 -67.50 0.0007932364    1.122    0.109
        25  -9.1547    101.9707    147.0397   1.1985778245e+02   3.1921790174e+01    0.2735918    0.1808769 -33.39  0.000673535    1.996    0.499
        26 -11.8252     87.7906    150.4383   1.2412852003e+02   3.3495956287e+01    0.3001478    0.2501643 -46.35 0.0005087792    1.282    0.220
        27 -12.3736     67.4810    143.9689   1.2817406603e+02   3.8056418439e+01    0.7306942    0.4971269  72.54   0.00342889    1.735    0.424
        28  -8.8113    134.0000    147.9960   1.1202801136e+02   2.5570534693e+01    0.2550532   0.08687925 -49.70 0.0007996425    2.923    0.658
        29 -10.8070     38.5284    146.6141   1.3592530359e+02   4.0923040376e+01    0.2741082    0.1069058  37.30  0.001239317    2.745    0.636
        30 -11.6069     28.0657    145.2313   1.3830391948e+02   4.2284442810e+01    0.2704319    0.1983969  83.92   0.00168488    1.303    0.233
        31  -8.4869    192.2393    144.0291   9.7842067506e+01   1.3720845898e+01    0.1933549    0.1282582 -41.39 0.0003668998    1.497    0.332
        32 -11.7951     57.6792    131.5530   1.2856359760e+02   4.2277839262e+01     1.057992    0.3862061 -73.17  0.002983272    5.318    0.812
        33 -10.3309     97.6820    133.7868   1.1822191262e+02   3.5805967697e+01     0.266418    0.2358463 -23.45 0.0007761882    1.319    0.242
        34 -10.4266     50.2340    129.8044   1.3026510608e+02   4.3578074430e+01    0.2509157     0.200265  81.22 0.0006379281    1.337    0.252
        35  -8.4566    116.2963    129.3452   1.1229824722e+02   3.3423611278e+01    0.1536299    0.1207946 -17.37 0.0007033281    1.671    0.401
        36  -8.8424    107.1719    123.4901   1.1335004690e+02   3.6509367500e+01    0.1993135    0.1495396  40.00 0.0004487809    1.403    0.287
        37  -9.4884    110.4752    136.5107   1.1544483911e+02   3.2864411932e+01    0.3278857    0.2260531 -17.28  0.001346679    2.391    0.582
        38 -15.0530      9.7225    206.6337   1.4800564629e+02   3.0453694645e+01      5.06696     1.443198 -69.50   0.01640734    2.739    0.635
        39 -10.1471    168.1435    113.1108   9.5501387502e+01   2.5675352577e+01     0.359773    0.2865041 -84.01 0.0007617919    1.522    0.343
        40  -9.2811    203.5047    111.5158   8.7793603604e+01   1.7623236977e+01    0.1509748     0.148062 -27.08 0.0002789801    1.079    0.073
        41 -11.7245    125.4913    249.7545   1.3065781740e+02   5.9832865046e+00    0.5173737    0.2151915  40.36  0.002388614    2.137    0.532
        42  -9.1227    157.3130     76.6867   8.8012522850e+01   3.5342351037e+01    0.1551695    0.1187778 -78.30 0.0003423132    1.636    0.389
        43 -10.2599     88.1746    248.9465   1.3743439600e+02   1.2081800635e+01    0.2004186    0.1325264  67.29 0.0007497676    1.295    0.228
        44 -12.3808     99.7862    246.3026   1.3504703879e+02   1.0771885442e+01    0.5337308    0.4054727  56.27  0.002424642    1.087    0.080
        45 -11.3586     82.3779    248.3622   1.3841789700e+02   1.3058011729e+01    0.3497604    0.2409242  41.47  0.002196121    1.515    0.340
        46 -10.2606     82.5186    243.4763   1.3792148765e+02   1.3947251351e+01     0.189882    0.1031076 -56.08  0.001031719    2.214    0.548
