#   1 NUMBER                 Running object number                                     
#   2 MAG_AUTO               Kron-like elliptical aperture magnitude                    [mag]
#   3 X_IMAGE                Object position along x                                    [pixel]
#   4 Y_IMAGE                Object position along y                                    [pixel]
#   5 X_WORLD                Barycenter position along world x axis                     [deg]
#   6 Y_WORLD                Barycenter position along world y axis                     [deg]
#   7 A_WORLD                Profile RMS along major axis (world units)                 [deg]
#   8 B_WORLD                Profile RMS along minor axis (world units)                 [deg]
#   9 THETA_WORLD            Position angle (CCW/world-x)                               [deg]
#  10 FWHM_WORLD             FWHM assuming a gaussian core                              [deg]
#  11 ELONGATION             A_IMAGE/B_IMAGE                                           
#  12 ELLIPTICITY            1 - B_IMAGE/A_IMAGE                                       
         1 -11.5508    250.0792     61.9983   3.3712988805e+01   1.7756828084e+01    0.5637049    0.1301059 -36.54  0.002181534    3.199    0.687
         2 -10.9257    249.4255     16.3247   2.4451427564e+01   2.3279528521e+01    0.2418599    0.1568642 -38.50  0.001617137    1.358    0.264
         3 -11.1537    239.5847     14.2711   2.4635889643e+01   2.5356893077e+01    0.2196396     0.174857   5.48  0.001467767    1.951    0.487
         4 -11.4474    235.7939      2.7397   2.2500643580e+01   2.7246272521e+01    0.4342733    0.2029373 -67.90  0.002401814    2.013    0.503
         5  -9.6356     81.9717    247.0306   1.0198154916e+02   1.3157134625e+01     0.145136    0.1217563  43.42 0.0007915303    1.035    0.034
         6 -11.3920     89.8986    247.6066   1.0035679555e+02   1.2066276736e+01    0.4306077    0.2934752 -55.91  0.002693858    1.760    0.432
         7  -9.4822     66.5813    248.6772   1.0535119941e+02   1.4710810530e+01    0.2839928    0.1800091 -46.98  0.001621841    2.077    0.518
         8 -10.0882     60.9872    246.8696   1.0637663967e+02   1.5689378957e+01    0.4966563    0.1472972  47.14  0.002079307    2.875    0.652
         9 -10.8827     49.1124    244.7227   1.0868800143e+02   1.7420265125e+01    0.4364517     0.312867 -67.55  0.002929091    1.600    0.375
        10 -10.5344     30.7639    249.0352   1.1266111598e+02   1.8543098775e+01    0.3117216    0.2243782   4.04  0.001470892    2.030    0.507
        11 -12.5119     17.0447    196.2616   1.1258505322e+02   3.0658021725e+01     1.480578     0.404811 -57.25  0.005697528    3.836    0.739
        12 -12.1313      7.7756    209.6802   1.1544173106e+02   2.8509151017e+01    0.7200653     0.551796 -48.77  0.004826008    1.662    0.398
        13 -12.5836      4.8297    196.8527   1.1546388832e+02   3.1532328484e+01     1.234289    0.4470523 -70.55  0.004591504    2.493    0.599
        14 -11.3238     16.0273    219.4263   1.1414398199e+02   2.5748966388e+01    0.7037755    0.3319686  54.97  0.003321158    1.807    0.447
        15 -14.6818     35.9020    213.7802   1.0939433511e+02   2.5024651608e+01     3.146514     1.590488  89.38    0.0159329    2.169    0.539
        16  -8.7857    227.2521    236.5865   7.1247416790e+01  -4.1268273738e+00    0.1616857   0.09518819 -33.43 0.0007559233    1.721    0.419
        17  -8.8610    228.0099    233.0150   7.0544710189e+01  -3.7588089005e+00    0.1438432    0.1207773  -6.54  0.000362496    1.319    0.242
        18  -9.4858     54.5406    235.5716   1.0688529257e+02   1.8559781416e+01    0.4844633    0.1962012  29.79  0.002327108    2.207    0.547
        19 -10.7687    112.2812    234.9697   9.4165292516e+01   1.1390963838e+01    0.2475628    0.1492113  47.77  0.001332196    1.650    0.394
        20 -10.4510     99.5247    234.4989   9.6923936845e+01   1.3194623343e+01    0.2134376    0.1484715  25.79 0.0008759878    1.315    0.240
        21 -11.4432     95.3802    232.7923   9.7655418843e+01   1.4062310766e+01    0.3784157    0.2312293  74.67  0.001842123    2.487    0.598
        22  -9.8286     63.6183    234.3055   1.0481622473e+02   1.7756488228e+01    0.2745654    0.2126753 -28.98  0.001134129    1.777    0.437
        23 -11.6173     26.3208    233.6509   1.1273377367e+02   2.1911418764e+01    0.6472319     0.365886  85.12  0.002967415    1.778    0.438
        24  -9.0075     77.4270    240.2494   1.0233833917e+02   1.4958000921e+01    0.1530039    0.1108404  83.14 0.0009374007    1.618    0.382
        25 -10.4262     52.5017    230.4682   1.0693601123e+02   1.9792537790e+01     0.308958    0.2263628 -20.27  0.001096059    2.063    0.515
        26  -9.5643     81.4545    229.4642   1.0041795927e+02   1.6508781740e+01    0.1682721    0.1185737 -87.17 0.0001568815    1.717    0.418
        27  -9.8715     80.2869    225.8522   1.0031436838e+02   1.7367503938e+01    0.2731335    0.1074192  41.30  0.001219885    2.124    0.529
        28  -8.9201     75.0020    228.5096   1.0177237794e+02   1.7509506873e+01      0.19238     0.107015  33.44 0.0007848464    1.546    0.353
        29  -9.3518    101.5549    226.6772   9.5576580918e+01   1.4393178897e+01    0.1526194    0.1248255 -88.78 0.0009274938    1.497    0.332
        30 -10.4766     93.9078    224.9997   9.7120523164e+01   1.5750868150e+01    0.2341984    0.1827704 -66.10   0.00120462    1.478    0.324
        31 -10.2110    108.3856    224.7862   9.3798970744e+01   1.3813305710e+01     0.166423      0.11874 -42.80 0.0008318039    1.621    0.383
        32 -13.1820      9.6389    236.9615   1.1627652767e+02   2.2814818244e+01     1.137489    0.6001108 -45.66  0.006001652    3.069    0.674
        33  -8.8187    242.5127    223.5072   6.6514163406e+01  -4.2267871841e+00    0.1178458   0.08484649  -4.52 0.0008104097    1.023    0.022
        34 -10.2962    122.4910    222.9908   9.0372938278e+01   1.2158436076e+01    0.3071718    0.1286815  44.73  0.001290091    2.435    0.589
        35 -10.5368     81.9913    220.9955   9.9414685928e+01   1.8119587364e+01    0.3430702    0.1521108  26.95  0.001520901    2.227    0.551
        36  -9.8746     75.5014    223.0033   1.0111659515e+02   1.8544910414e+01    0.3351681    0.2060877 -28.18  0.001618337    2.629    0.620
        37 -10.0484     71.1875    220.1372   1.0182248560e+02   1.9668260209e+01    0.4328322    0.1765721  59.82  0.001573692    3.838    0.739
        38 -10.8306     63.3512    222.9977   1.0388931769e+02   2.0038760232e+01    0.4979063    0.2022424  35.07  0.002327967    2.039    0.510
        39  -9.2394    102.4757    220.4621   9.4616952977e+01   1.5469771926e+01    0.1308973    0.1140759  33.71 0.0003377903    1.007    0.007
        40  -8.2393     57.4610    218.6343   1.0484520039e+02   2.1633778979e+01    0.2190384    0.1076691  30.10  0.001080178    1.871    0.465
        41  -9.1337     88.0376    215.9258   9.7439050415e+01   1.8352064357e+01    0.2060327    0.1549219 -18.39  0.001134854    1.762    0.433
        42  -9.4852     63.5720    213.7070   1.0296732150e+02   2.1943408087e+01    0.1698092    0.1169097  87.76 0.0009463514    1.612    0.380
        43 -10.7835     57.2081    208.5809   1.0398414870e+02   2.3800668271e+01    0.3831302    0.1726712  58.79  0.001495964    2.616    0.618
        44 -13.0074      7.2295    226.1710   1.1630885460e+02   2.5145287519e+01    0.5562996    0.4279971 -26.64  0.003762432    1.980    0.495
        45  -9.8362    100.5194    207.9861   9.3483647617e+01   1.8259500282e+01    0.2161901    0.1639057  32.33 0.0005201289    1.188    0.158
        46  -9.1578     70.6606    207.3208   1.0062120837e+02   2.2432716741e+01    0.2230342    0.1344186  60.39  0.001113893    1.805    0.446
        47 -11.9943      7.1532    219.3778   1.1602782805e+02   2.6531400886e+01    0.6050244    0.1841007  45.98  0.001917867    2.449    0.592
        48 -11.9368      3.4494    249.8363   1.1794766538e+02   2.0942865496e+01    0.3250103     0.222042  42.92  0.001271405    1.222    0.182
        49  -9.2105    241.4984    203.9865   6.3341810805e+01  -1.5261046642e+00    0.1726658   0.08194571 -16.40 0.0006249035    2.461    0.594
        50  -8.4737    190.6662    203.7050   7.2586064200e+01   5.4409995689e+00     0.136477   0.08921465  -0.40 0.0002847188    1.642    0.391
        51 -13.6851     15.9044    244.5877   1.1536854041e+02   2.0800351290e+01    0.8372304    0.7390658  26.05   0.00656714    1.379    0.275
        52 -10.9568     47.3153    198.0780   1.0539885643e+02   2.7255453592e+01    0.2230894    0.1692775  38.46 0.0007223975    1.234    0.190
        53 -12.2768     89.6173    237.1780   9.9389653989e+01   1.3993894392e+01    0.6135399    0.3560022  53.25  0.003319098    1.763    0.433
        54  -8.6422     62.9685    239.9481   1.0542014707e+02   1.6750876502e+01    0.1458354    0.1166012  44.05 0.0005851508    1.037    0.036
        55  -8.9553    123.6533    192.3026   8.5542986293e+01   1.8041175400e+01    0.1432481    0.1058049  60.47 0.0007039726    1.689    0.408
        56  -9.6032    242.3254    190.4704   6.0778735291e+01   2.5228225881e-01    0.2411503    0.1310605 -34.43  0.001302998    1.621    0.383
        57  -9.3994    247.7818    190.3928   5.9885045749e+01  -4.3592532124e-01    0.1582664   0.09856373  17.39 0.0009466613    1.623    0.384
        58 -10.4822      2.1502    186.5192   1.1555625924e+02   3.4053863428e+01    0.2116577    0.1637967 -57.03 0.0007397202    1.453    0.312
        59 -10.3011     14.5246    185.1920   1.1247698832e+02   3.3395499796e+01     0.389917    0.1836314  28.48  0.001584295    2.096    0.523
        60  -8.5893    190.9545    183.2093   6.8750403536e+01   8.8429393522e+00    0.1725689    0.1024418  34.61 0.0003928757    1.661    0.398
        61 -10.9694      2.7471    173.9935   1.1471330464e+02   3.6908010053e+01    0.3065081    0.1970711  71.98  0.001716195    1.393    0.282
        62  -9.7887     71.3802    237.7944   1.0342731429e+02   1.6158534624e+01    0.1522403    0.1085976 -53.55 0.0004457466    1.676    0.403
        63 -10.1784     18.4664    180.9660   1.1119621757e+02   3.4050429690e+01    0.1925153    0.1114517 -78.29 0.0009282337    1.587    0.370
        64 -12.3545     11.6739    147.0849   1.1031922483e+02   4.2822924225e+01     0.792447    0.3030926  76.46  0.002791204    3.742    0.733
        65 -13.0569      7.0217    127.5344   1.0991338467e+02   4.8044969729e+01    0.9831017    0.5709959 -38.70  0.005052194    1.891    0.471
        66 -13.7882     12.8979    136.8738   1.0898357860e+02   4.5305905226e+01     1.103503    0.8172501  14.50   0.00642573    1.574    0.365
        67 -12.7485      6.9146    166.5922   1.1316781734e+02   3.8373191084e+01    0.9290612    0.4874387  36.15  0.004942622    1.855    0.461
        68  -8.5327    206.5575    176.4544   6.4393953888e+01   7.5232988285e+00    0.1354373    0.1118289  -8.08 4.890182e-05    1.035    0.034
        69  -9.1992    146.1439    177.3174   7.7456849771e+01   1.7426470242e+01    0.2027441    0.1764082  27.12 0.0007658934    1.095    0.087
        70 -10.8928     18.3821    160.1314   1.0954841601e+02   3.9077971913e+01    0.2019853    0.1824014  -4.61 0.0006583866    1.339    0.253
        71 -10.7864    104.5406    235.2590   9.5902279076e+01   1.2384916290e+01    0.3314078    0.2117986 -81.09  0.001755395    2.322    0.569
        72  -9.8067    246.4975    154.5437   5.3279058597e+01   4.9342677674e+00     0.125252    0.1007074 -22.03 6.626457e-05    1.031    0.030
        73 -12.8514      5.8938    157.7268   1.1281976213e+02   4.0590999566e+01    0.8787611    0.5630941  59.08  0.004994157    1.503    0.335
        74 -12.0118      4.1692    146.8122   1.1248684405e+02   4.3387183650e+01    0.8285938    0.3906436 -74.81  0.003701356    1.800    0.444
        75 -11.4948     57.9550    128.5448   9.3082399897e+01   4.3080254931e+01    0.6345162    0.2708832 -46.44  0.002405558    2.375    0.579
        76 -10.2171    243.8295    130.3282   4.8778343240e+01   9.0009161826e+00    0.2163248    0.1209474  57.11  0.001087548    2.568    0.611
        77 -12.5212     12.3298    176.9656   1.1247252334e+02   3.5495768599e+01    0.5929176    0.5753398   8.13  0.003510351    1.259    0.206
        78 -10.5135    249.2337    121.5172   4.6220697073e+01   9.4689176269e+00    0.2324867    0.2049135 -46.69  0.001222712    1.227    0.185
        79 -10.7314      3.3746    121.0509   1.1046301372e+02   4.9887465908e+01    0.3704589    0.2382656 -82.57   0.00204089    1.378    0.274
        80 -11.5413     18.7256    120.1816   1.0515140941e+02   4.9147821405e+01    0.3056406    0.2129601 -45.34  0.001068727    1.406    0.289
        81 -12.0017      2.3237    111.4944   1.0982599513e+02   5.2350306110e+01    0.5296671    0.4257859 -25.18  0.003290864    1.387    0.279
        82 -11.3801      2.5088    107.5045   1.0931453956e+02   5.3345323081e+01    0.5995436    0.2574826  18.41  0.002768715    2.618    0.618
        83 -10.3388    245.7913    105.6034   4.3354297695e+01   1.2399949689e+01    0.1567514    0.1219419  76.57 0.0009569243    1.740    0.425
        84 -10.5146      9.4882    103.9709   1.0630734952e+02   5.3869281564e+01    0.2423941    0.1698272  42.80  0.001353651    1.618    0.382
        85 -11.7918     14.2372     96.1911   1.0332465148e+02   5.5542271954e+01    0.7137762    0.2635935 -59.50  0.003024976    2.102    0.524
        86 -10.3709     38.7452     97.9620   9.3939218290e+01   5.3062780024e+01    0.2798586    0.2138752   9.55  0.001496272    1.438    0.305
        87  -9.6165     91.8884     96.1176   7.3844214313e+01   4.5690094783e+01    0.2239185    0.2125999 -12.36 0.0003123932    1.016    0.016
        88  -9.8855    238.9986     89.9974   4.0863093078e+01   1.5883467647e+01    0.1602274     0.131844 -39.56   0.00101934    1.020    0.020
        89 -11.4967      6.2190     68.9097   1.0186917151e+02   6.2659903464e+01    0.4414908    0.3406833  59.81   0.00263022    1.648    0.393
        90  -9.4376     76.7998    250.4954   1.0337084352e+02   1.3169482687e+01    0.2477646    0.1049239  26.52  0.001007473    2.294    0.564
        91  -9.9165    233.2410     48.7569   3.2464504496e+01   2.2627405413e+01    0.1885653   0.09859269 -21.62 0.0008903329    2.445    0.591
        92 -10.1745     22.4424     55.2194   9.0325498959e+01   6.4697328436e+01    0.3150385    0.2077179 -34.95  0.001734018    1.336    0.251
        93  -9.8178     51.1389     42.1373   7.1144679969e+01   6.3811234620e+01    0.2230726    0.1733044  -5.17  0.001149752    1.245    0.197
        94  -9.6120     66.9989     24.9531   5.6612269983e+01   6.3649810461e+01    0.1969084    0.1714678 -80.39  0.001131428    1.718    0.418
        95  -8.5949    156.6588    247.3189   8.6322079458e+01   3.3115291695e+00    0.1173947   0.08669463  49.29  0.000545876    1.715    0.417
        96 -12.2761    114.4557    245.2065   9.4881313402e+01   9.3016480836e+00    0.7549101    0.3041284  30.32  0.003499622    2.108    0.526
