#   1 NUMBER                 Running object number                                     
#   2 MAG_AUTO               Kron-like elliptical aperture magnitude                    [mag]
#   3 X_IMAGE                Object position along x                                    [pixel]
#   4 Y_IMAGE                Object position along y                                    [pixel]
#   5 X_WORLD                Barycenter position along world x axis                     [deg]
#   6 Y_WORLD                Barycenter position along world y axis                     [deg]
#   7 A_WORLD                Profile RMS along major axis (world units)                 [deg]
#   8 B_WORLD                Profile RMS along minor axis (world units)                 [deg]
#   9 THETA_WORLD            Position angle (CCW/world-x)                               [deg]
#  10 FWHM_WORLD             FWHM assuming a gaussian core                              [deg]
#  11 ELONGATION             A_IMAGE/B_IMAGE                                           
#  12 ELLIPTICITY            1 - B_IMAGE/A_IMAGE                                       
         1 -14.7813    178.3743     36.2842   6.5864215524e+01   3.6066181850e+01     1.515728     1.078442  14.22  0.004221506    1.671    0.402
         2 -12.6381    189.3940     14.5032   5.7366064590e+01   3.5617302228e+01    0.3712478    0.2546213 -83.73  0.001192926    1.650    0.394
         3 -14.1144    198.0203      5.0687   5.3538701493e+01   3.4272792252e+01    0.9899651    0.6927195  72.12  0.004172293    1.366    0.268
         4  99.0000     20.1234    214.0802   1.3909822487e+02   2.8571739911e+01    0.1893424      0.10088  39.58   0.00130866    1.616    0.381
         5 -18.2255     58.4600    240.1677   1.3369457168e+02   2.0358367474e+01     6.590974     5.773216  74.92   0.05747481    1.276    0.216
         6 -19.0939     38.4877    103.2396   1.2539885743e+02   5.0123471745e+01     16.08786     1.009974 -67.49   0.02808162   14.063    0.929
         7 -13.0500    155.8428    199.0696   1.1068060463e+02   1.3426522617e+01    0.5721364    0.3709344 -74.03  0.002729952    3.134    0.681
         8 -10.5541    207.4109    178.1671   9.6852730318e+01   7.7396411393e+00     0.486739    0.2288162  17.54  0.001736056    3.747    0.733
         9 -10.1749    202.6900    171.0299   9.6390752832e+01   9.5901369195e+00    0.1890247    0.1589715   3.09 0.0005767433    1.088    0.081
        10 -12.0785    195.4709    169.0527   9.7423140356e+01   1.1186297252e+01    0.3405068    0.2869831  27.19 0.0005069143    1.099    0.090
        11 -10.9256    192.9511    163.9198   9.6913439518e+01   1.2435105372e+01    0.3363595    0.2761536  -9.63  0.001583639    1.200    0.166
        12 -11.6045     73.5409    174.6909   1.2532928535e+02   3.0280573313e+01    0.3245522    0.1653022 -72.40  0.001277742    2.117    0.528
        13 -12.0072    113.7783    161.1213   1.1402368970e+02   2.7199524524e+01    0.3542805    0.2609614  77.86  0.001239427    1.721    0.419
        14 -10.7458     12.0532    159.8383   1.3797471756e+02   3.9604654329e+01    0.2305184    0.1538961  56.65  0.001147264    1.314    0.239
        15 -11.3665    120.6109    156.9863   1.1169024999e+02   2.6896870450e+01    0.3341426    0.1669935 -52.04  0.001487464    2.155    0.536
        16 -11.1839    166.0506    154.2697   1.0063998036e+02   1.9125403889e+01    0.3768873    0.2414429  65.48  0.001578717    2.630    0.620
        17 -12.8990    133.8907    145.3876   1.0631652794e+02   2.6878919561e+01     1.211807     0.330493 -54.85  0.003090909    6.255    0.840
        18 -10.4672    174.8528    149.1151   9.7646504640e+01   1.8321890158e+01     0.212554    0.1991173  60.82 0.0007137666    1.297    0.229
        19 -12.1859    144.6730    146.2997   1.0390927827e+02   2.4685121716e+01     0.407741    0.2972817  88.80  0.001847354    2.296    0.564
        20 -12.9562    101.1553    138.6245   1.1332317359e+02   3.3966732438e+01    0.3038779    0.2875086 -26.21  0.000681582    1.158    0.137
        21 -12.0401    192.8396    194.0305   1.0250687333e+02   8.0106229713e+00    0.7879767    0.4387607 -58.00  0.003132013    4.528    0.779
        22 -12.5022    105.9121    130.6436   1.1054260213e+02   3.4928432942e+01    0.4213279    0.3318982 -65.97  0.001378966    1.358    0.264
        23 -11.5920    105.9059    125.7976   1.0956247489e+02   3.5992879968e+01    0.2885468    0.2559176 -14.95 0.0006922447    1.270    0.213
        24 -11.8717    117.6433    129.7458   1.0723718697e+02   3.3081428971e+01    0.3185025    0.2786746 -20.60 0.0007394115    1.263    0.208
        25 -12.1500    135.8026    127.7250   1.0210374088e+02   3.0093408259e+01    0.5443107    0.1886593 -51.84  0.001727802    3.544    0.718
        26 -11.0786    160.3944    127.7919   9.6139640413e+01   2.5107187249e+01    0.3360617    0.2666857 -73.20  0.001613294    1.808    0.447
        27 -11.3568    121.1682    124.1179   1.0508857951e+02   3.3638989103e+01    0.2310469    0.2003319  -7.38  0.001140331    1.295    0.228
        28 -10.7690    112.3630    118.8602   1.0629554569e+02   3.6384025914e+01    0.2621841    0.2087285  31.36  0.000412122    1.279    0.218
        29 -11.0633    168.3105    113.2016   9.0733223710e+01   2.6134565181e+01    0.3821389    0.3024704 -76.55  0.001157593    1.883    0.469
        30 -10.7642    205.4474    110.1584   8.2227365620e+01   1.8475600332e+01    0.3269597    0.2013912  37.70 0.0009965793    1.617    0.382
        31 -12.0321     83.0085    106.9521   1.1217554066e+02   4.3922543139e+01    0.3582574    0.2599204  65.41  0.001289299    1.696    0.410
        32 -10.8514     12.4495    205.8843   1.4013510733e+02   3.0688830265e+01    0.4107996     0.165106  34.70  0.002511767    2.214    0.548
        33 -10.6517     67.7643     98.8147   1.1520721829e+02   4.7948262967e+01     0.230576    0.1927789   6.85  0.001308242    1.397    0.284
        34 -10.3282    149.8301     80.1883   8.5901207464e+01   3.6453413853e+01    0.2193631    0.1806287   7.66  0.000461489    1.312    0.238
        35 -10.3327     84.1167     76.8534   1.0423539753e+02   5.0572268394e+01    0.2044459    0.1937761  87.37 0.0003096761    1.216    0.178
        36 -14.0077    164.6609     53.3721   7.3991994491e+01   3.7275137111e+01     1.138385    0.8682272 -31.50  0.002316425    1.317    0.241
        37 -10.1111     13.6359     59.9055   1.2694599032e+02   6.2030931881e+01    0.1726637    0.1257142 -66.97 0.0004675645    1.138    0.121
        38 -12.1515    158.9858    235.7841   1.1503714349e+02   7.6813989002e+00    0.2968335     0.196472  23.76  0.001320485    1.412    0.292
        39 -13.2702    182.5291     29.9710   6.3176594275e+01   3.5743668232e+01    0.5710121    0.4653628  25.52  0.001276104    1.309    0.236
        40 -10.4670    113.8080     22.1429   7.4314365346e+01   5.4379868571e+01    0.2796452    0.2024588  69.11 0.0007314418    1.675    0.403
        41 -10.3148    168.8769    234.6841   1.1308583672e+02   6.3638076451e+00    0.1659682    0.1366154  13.00 0.0003024871    1.229    0.186
