#   1 NUMBER                 Running object number                                     
#   2 MAG_AUTO               Kron-like elliptical aperture magnitude                    [mag]
#   3 X_IMAGE                Object position along x                                    [pixel]
#   4 Y_IMAGE                Object position along y                                    [pixel]
#   5 X_WORLD                Barycenter position along world x axis                     [deg]
#   6 Y_WORLD                Barycenter position along world y axis                     [deg]
#   7 A_WORLD                Profile RMS along major axis (world units)                 [deg]
#   8 B_WORLD                Profile RMS along minor axis (world units)                 [deg]
#   9 THETA_WORLD            Position angle (CCW/world-x)                               [deg]
#  10 FWHM_WORLD             FWHM assuming a gaussian core                              [deg]
#  11 ELONGATION             A_IMAGE/B_IMAGE                                           
#  12 ELLIPTICITY            1 - B_IMAGE/A_IMAGE                                       
         1  -8.5755     91.6496     10.0935   2.0378126577e+01   6.1054929803e+01     0.279873    0.1031129 -35.13  0.001102987    2.599    0.615
         2  -9.7347      1.9555     11.1913   7.2403118481e+01   7.9594613862e+01    0.2552267    0.1774098  21.21 0.0009974566    1.397    0.284
         3 -10.4838      6.2560      8.8369   6.5507877011e+01   7.9655965785e+01    0.5956254    0.2155243  40.23  0.002397057    3.112    0.679
         4  -8.3699     55.7600      9.8086   3.0154817390e+01   7.0146595024e+01    0.1827452    0.1522923 -71.72 0.0005436217    1.351    0.260
         5  -8.4287     20.7823      9.5963   5.0932365342e+01   7.7487228522e+01    0.1861252    0.1156193  48.08 0.0009561365    1.689    0.408
         6  -8.4154     70.3740      6.2345   2.3232251743e+01   6.6917502958e+01    0.1843203    0.1197349 -39.95 0.0009375159    1.633    0.387
         7  -9.4304    247.9466      4.1476   6.2107338465e+00   2.6448159075e+01    0.2023284    0.1679658  -3.00  0.001549838    1.891    0.471
         8  -8.5184     79.4155      4.5864   2.0134815471e+01   6.4757756948e+01    0.2453534    0.1240256 -30.36  0.001124737    2.069    0.517
         9  -8.4656     33.5816      4.8516   3.7407777190e+01   7.5740977907e+01    0.1827779    0.1172564 -45.20 0.0009462687    1.820    0.451
        10  -8.3467     15.6795      3.4964   5.0453040574e+01   7.9305217652e+01    0.2101435    0.1144217 -40.29  0.001064346    1.934    0.483
        11  -8.3419    114.4893      1.4502   1.3176852007e+01   5.5888562471e+01     0.139644    0.1127864 -74.65  9.25979e-05    1.080    0.074
        12  -8.1681     62.5164      1.4396   2.2519639540e+01   6.9339476691e+01    0.1344066    0.1193501  78.35   0.00014489    1.053    0.051
        13  -9.5803    115.4041    242.4261   7.2352085431e+01   9.6742506984e+00    0.2154911      0.14868  26.52 0.0006340103    1.172    0.147
        14  -9.8321    237.7482    242.2596   5.0313269990e+01  -2.3058570555e+00    0.4262387    0.1885242   2.37  0.002190285    2.756    0.637
        15  -9.5338    242.2611    249.2125   5.0588154067e+01  -3.4006870224e+00    0.3552507    0.1107012 -29.64  0.002044006    2.734    0.634
        16  -9.3984    249.7195    249.0639   4.9528277107e+01  -3.9432025180e+00    0.2495085    0.1306394 -25.95  0.001812201    1.469    0.319
        17  -9.8583    246.3394    234.3691   4.8028635792e+01  -2.1296082118e+00    0.4036621    0.1837447  12.01   0.00263294    2.271    0.560
        18  -9.1941    234.8846    250.5132   5.1816112697e+01  -2.9705133049e+00    0.1670192    0.1065889  13.29 0.0006439681    1.361    0.265
        19  -8.9080    232.4845    246.9927   5.1706821942e+01  -2.4015424212e+00    0.1837073     0.121901 -15.52 0.0007565075    1.132    0.117
        20 -10.0754    247.3294    242.4325   4.8982773361e+01  -3.0737172758e+00      0.33903    0.1984101   7.72  0.001857935    1.421    0.296
        21  -8.8575    250.2322    237.5496   4.7925914405e+01  -2.7783783827e+00     0.204092    0.1199589  -2.02 0.0009075787    1.354    0.262
        22 -10.4119    223.2024    243.8013   5.2673149138e+01  -1.2847161139e+00    0.3597775    0.2602659 -23.66  0.002199722    1.343    0.256
        23  -9.3116    215.5005    250.2798   5.4710467722e+01  -1.3727659659e+00    0.2636977    0.1130182  19.31  0.001198623    2.074    0.518
        24  -8.5218    218.6291    247.8485   5.3908243562e+01  -1.3599398956e+00    0.1548948   0.08718409 -43.58  0.001046799    2.358    0.576
        25  -9.0555    185.2701    250.1678   5.9683024232e+01   1.3325141334e+00    0.2159053    0.1159952  26.11 0.0008558186    1.628    0.386
        26  -8.8968    135.0285    250.5021   6.9148340983e+01   6.3045678485e+00    0.2061945    0.1301998  33.49 0.0006685998    1.445    0.308
        27  -8.6928    131.8110    247.5926   6.9480102902e+01   7.0804267929e+00      0.17475    0.1571364  37.57 0.0007377985    1.367    0.268
        28  -9.2395    126.8979    249.2684   7.0666248820e+01   7.3483668795e+00    0.3937002    0.1788824   4.78  0.001610946    3.751    0.733
        29  -9.3816    104.1439    247.0653   7.5241252216e+01   1.0143298788e+01    0.4345837    0.2576148  77.12  0.002108792    3.599    0.722
        30  -9.0669     88.2254    242.5125   7.8330755296e+01   1.2646847939e+01    0.2072712    0.1543423  41.21 0.0007322254    1.233    0.189
        31  -8.6779     93.7727    249.1874   7.7690616202e+01   1.0905933154e+01    0.2415414    0.1114493  46.51   0.00122065    2.276    0.561
        32  -9.7165     89.0162    246.9873   7.8544726410e+01   1.1786683214e+01    0.3203478    0.2291886  16.41  0.001663357    1.235    0.190
        33 -10.4936     83.2629    246.2092   7.9758437381e+01   1.2536206626e+01    0.4482979     0.241556  45.96  0.002509757    1.768    0.434
        34  -9.9887     76.7063    247.0668   8.1295517931e+01   1.3081487554e+01    0.2216473    0.2039921  15.93 0.0004004639    1.183    0.155
        35 -10.2234     77.4252    242.7180   8.0789357129e+01   1.3776743697e+01     0.321124    0.1934366  56.11   0.00123256    1.852    0.460
        36 -10.0740     82.6483    238.7774   7.9268759354e+01   1.3921010306e+01    0.4929551     0.180565  24.20  0.001735367    2.338    0.572
        37  -9.9051     51.8031    249.1300   8.7053573927e+01   1.5257619421e+01      0.23558    0.1729927  37.80 0.0004069811    1.058    0.055
        38  -9.0152     27.1433    250.3718   9.2668771820e+01   1.7356500949e+01    0.2613626    0.1028978  28.66 0.0007767404    1.849    0.459
        39  -8.9123     57.3205    246.9179   8.5668588143e+01   1.5109115977e+01    0.1612736    0.1346498  35.13 0.0005387297    1.075    0.070
        40  -9.1501    159.2186    244.1554   6.3675202678e+01   4.7015234426e+00    0.2122444    0.1308155  14.77 0.0004868644    1.350    0.259
        41  -9.3948    159.8192    239.9528   6.3040304270e+01   5.2369978436e+00    0.3882132    0.2229579  46.84  0.002132602    2.709    0.631
        42  -9.5333     45.4603    244.1163   8.8217493709e+01   1.6804367739e+01    0.2355903    0.1392135  29.98  0.000545596    1.311    0.237
        43 -10.1979    196.2430    242.0137   5.6757743299e+01   1.3285103263e+00    0.3339135    0.2472469  40.52   0.00240349    2.094    0.522
        44  -8.4753    169.0214    243.0575   6.1700933935e+01   3.8511189247e+00    0.1488517    0.1268124  40.34 0.0005591652    1.677    0.404
        45  -9.1937    150.1993    242.8490   6.5257447411e+01   5.8324030541e+00    0.3467445    0.1295292  27.12  0.001738071    2.218    0.549
        46  -8.9986    135.0270    242.0610   6.8202224829e+01   7.5801397610e+00    0.1912893      0.15205  -7.98 0.0004649057    1.203    0.168
        47  -7.9816    135.3303    238.6666   6.7746180087e+01   8.0743493290e+00    0.1206089   0.09693515  15.35 0.0008318322    1.034    0.033
        48  -8.3192     97.2042    242.6117   7.6336972041e+01   1.1647895037e+01    0.1733068   0.09727335  16.84 0.0009435232    1.649    0.394
        49  -9.6567     29.0899    241.2612   9.1861383419e+01   1.8899649766e+01    0.2555755    0.1868462  38.59 0.0006371562    1.042    0.040
        50  -8.9052    141.5507    241.3323   6.6793739445e+01   6.9838344557e+00    0.1974793   0.08841203  26.28 0.0006418126    1.842    0.457
        51  -9.7330     61.4320    240.9517   8.4330118245e+01   1.5786919323e+01    0.2401267    0.1453646  29.78 0.0006255555    1.293    0.227
        52  -9.1876     37.1808    240.5423   8.9948759512e+01   1.8282054231e+01     0.229322     0.137934  48.51 0.0006461163    1.376    0.273
        53 -10.2661      2.8708    239.8306   9.7844218585e+01   2.1425169371e+01    0.2562132     0.161707  46.80 0.0004687293    1.176    0.150
        54  -9.1051    204.4996    239.2140   5.5014112992e+01   9.0869640799e-01    0.1821892    0.1163904  15.20 0.0008189214    1.327    0.246
        55  -9.7571    181.0603    241.1098   5.9268723898e+01   2.9082911034e+00    0.3743848    0.2170877  11.69  0.001681123    1.501    0.334
        56  -9.7885    125.1587    238.9842   6.9903421526e+01   9.1521435939e+00    0.3671876    0.1479517  24.63  0.001432018    2.118    0.528
        57 -10.4914     71.2636    238.4347   8.1864612435e+01   1.5217961037e+01    0.3128181    0.1853528  25.03 0.0007604732    1.393    0.282
        58  -9.5924     52.4991    238.3529   8.6241503028e+01   1.7194640757e+01    0.2427119    0.1686797  41.94 0.0005165863    1.167    0.143
        59 -10.9498     17.8530    237.7764   9.4340401337e+01   2.0583534090e+01     0.422116    0.1921175  22.13  0.001946113    1.917    0.478
        60  -9.2759    230.6724    236.7063   5.0595488252e+01  -1.1057524020e+00    0.2315463    0.1692434 -51.12  0.001296423    2.783    0.641
        61  -9.4862    226.6418    237.0067   5.1237853550e+01  -7.9782591285e-01    0.2225806     0.132368   4.21   0.00041484    1.414    0.293
        62  -8.2880    173.1459    238.5289   6.0363275042e+01   4.0540447073e+00    0.1610174   0.09008701  22.41 0.0008403134    1.519    0.342
        63  -9.3985    106.7803    238.0529   7.3770996273e+01   1.1365243681e+01    0.2316846    0.1738885  16.14 0.0005113094    1.146    0.128
        64  -9.3324    108.7382    234.1619   7.2930189580e+01   1.1813541465e+01    0.3226712    0.1911159  53.12   0.00130761    2.166    0.538
        65  -9.2113    216.6922    235.3612   5.2539317523e+01   2.6815908539e-01    0.1537413    0.1374216  -3.92 0.0009819774    1.574    0.365
        66  -9.3593    213.6469    231.6298   5.2504096894e+01   9.9952619134e-01    0.2284943     0.220376  61.79  0.001460924    2.157    0.536
        67  -9.4944    175.2413    232.9118   5.9239598937e+01   4.6190481196e+00     0.342081    0.2975273 -63.28  0.002489875    1.942    0.485
        68  -8.0281    149.2265    236.4201   6.4663640785e+01   6.8930442880e+00    0.1608451   0.09028958  32.50 0.0009454118    1.616    0.381
        69  -9.1105     44.1834    235.8263   8.8051775806e+01   1.8517455555e+01    0.2141813    0.1554584  37.71 0.0004397313    1.075    0.070
        70  -8.5927    202.8713    234.3239   5.4619602243e+01   1.6724336811e+00    0.1739823    0.1378992 -39.13 0.0007399332    1.681    0.405
        71  -8.6852    199.0803    235.4693   5.5406190038e+01   1.8882514410e+00     0.192714   0.08628827  20.44   0.00111964    2.068    0.516
        72  -8.6443    185.8177    234.8570   5.7600987411e+01   3.2688218217e+00    0.1916665    0.1199233 -13.34  0.000436172    1.461    0.315
        73  -9.2426    186.1378    230.1576   5.6906070750e+01   3.8724029998e+00    0.2289618    0.1928211 -78.98  0.001308812    2.621    0.618
        74  -9.6133     94.0997    234.0567   7.6215744578e+01   1.3498381482e+01    0.3344062    0.2252423  53.18  0.001976075    1.658    0.397
        75  -8.7366    132.0701    233.9735   6.7869256821e+01   9.1857765740e+00    0.2094254    0.1541138 -29.66  0.001369669    1.444    0.308
        76  -8.1960    122.8049    233.9396   6.9832541563e+01   1.0244473062e+01    0.1715716    0.1312026  64.40 0.0008348653    1.913    0.477
        77  -8.4264     99.8224    234.2484   7.4935361925e+01   1.2814754590e+01    0.2064095    0.1023469  53.30 0.0009467569    2.750    0.636
        78  -9.1434     77.7042    234.1503   8.0013982315e+01   1.5315780107e+01    0.2268201    0.1619851  25.32  0.001395909    1.166    0.143
        79  -9.9324     68.9296    232.7406   8.1962897410e+01   1.6543335992e+01    0.4323543    0.1644222  52.28  0.001777825    3.091    0.676
        80  -9.0378     38.2305    234.2205   8.9379614444e+01   1.9416440591e+01    0.1814399    0.1112922  47.27  0.001059986    1.339    0.253
        81  -9.2238      6.5320    234.5201   9.6884864331e+01   2.2183171239e+01    0.2411904   0.09696668  23.45  0.001011885    2.080    0.519
        82  -9.8280    235.0880    232.1033   4.9314225367e+01  -9.5282453962e-01    0.3431084    0.1772951 -18.48  0.001687929    1.618    0.382
        83  -9.6635    238.8952    222.1047   4.7355353724e+01  -1.2321849324e-01    0.3533372    0.1214014 -34.13  0.002004684    2.364    0.577
        84 -10.2857    242.4624    217.3012   4.6157612569e+01   1.2795104599e-01    0.2426976    0.1497443  -7.79  0.001249461    1.328    0.247
        85  -8.8910    142.1588    233.2124   6.5689078836e+01   8.1698169805e+00    0.3003092    0.1354957  19.49  0.001488629    2.141    0.533
        86  -8.2665    139.8027    229.8155   6.5750345304e+01   8.9765091520e+00    0.1790137     0.130038  46.95 0.0005655519    1.719    0.418
        87  -8.3354    194.4348    232.5132   5.5788663445e+01   2.7225435651e+00    0.1072373   0.08261885  -2.95 0.0002368205    1.053    0.050
        88  -8.3105    165.2314    232.5867   6.1063208536e+01   5.7265740620e+00    0.1622917   0.09034555  13.88 0.0009423067    1.675    0.403
        89  -8.3919    156.3808    232.1432   6.2710720471e+01   6.7541696495e+00    0.2656742    0.1119642  16.69  0.001220475    2.688    0.628
        90  -9.1591     11.0015    231.3339   9.5750356674e+01   2.2459029772e+01    0.1767359    0.1243826  36.90 0.0004844081    1.117    0.105
        91  -8.8141      1.9660    230.9483   9.7873281686e+01   2.3270102559e+01    0.2130142   0.09230819  49.59 0.0008282124    1.709    0.415
        92  -9.6504    246.7406    227.8639   4.7070834808e+01  -1.4436060585e+00    0.4023636    0.1187284 -31.83   0.00218229    2.767    0.639
        93  -9.0082    206.7535    229.9830   5.3382834101e+01   1.8531971759e+00    0.2685689    0.1260709  22.86  0.001389647    1.970    0.492
        94  -9.0104    151.3375    229.0080   6.3301145899e+01   7.7943099818e+00    0.2627279    0.1964094 -87.89  0.001474458    2.933    0.659
        95  -9.3703    145.7787    226.6012   6.4111685851e+01   8.8063476357e+00    0.3151963    0.1551881  28.60  0.001063886    1.749    0.428
        96  -9.2635    148.6124    224.3987   6.3245576209e+01   8.8314445555e+00    0.3012989    0.2350904  65.41  0.001385417    2.183    0.542
        97  -8.5605    126.0219    230.4522   6.8734654909e+01   1.0457751127e+01    0.1782228     0.130641  22.77  0.000691683    1.135    0.119
        98  -8.9914    127.5937    226.8614   6.7964325852e+01   1.0880060431e+01    0.2858766    0.2196029  66.75  0.001232423    1.977    0.494
        99  -9.9577     31.8907    229.6355   9.0671839308e+01   2.0944930783e+01    0.2514363     0.182078  30.24 0.0004519972    1.167    0.143
       100  -8.2967    220.5443    228.9827   5.1055733439e+01   6.9100237631e-01    0.1624157   0.09094087  28.99 0.0009426298    1.874    0.466
       101  -9.9117    114.5749    228.0858   7.0961840847e+01   1.2197945096e+01    0.4239859    0.1596955  32.37  0.001604733    2.152    0.535
       102  -8.7212    103.1330    229.1897   7.3659304944e+01   1.3339267958e+01     0.184846    0.1460025  12.33 0.0004863134    1.162    0.139
       103  -9.2005     39.5565    228.5144   8.8750160032e+01   2.0434066923e+01    0.2273679    0.1478966  30.19 0.0006170481    1.256    0.204
       104  -8.0035    229.5079    228.5108   4.9632328700e+01  -5.4490491270e-02    0.1011996   0.07358128  -9.71 2.356123e-05    1.063    0.060
       105  -8.5064    197.2542    228.6341   5.4772721229e+01   2.9542324789e+00    0.1458402   0.08389553  14.20  0.000792213    1.565    0.361
       106  -8.9217    161.4826    227.9432   6.1165379033e+01   6.8230166404e+00     0.209752    0.1652884  12.59  0.001020665    1.082    0.076
       107  -8.7356     95.1975    227.6110   7.5318667600e+01   1.4551644684e+01    0.2267846    0.1641494   5.86  0.000608111    1.430    0.301
       108  -8.8786     93.6951    223.6828   7.5264058304e+01   1.5464905605e+01    0.3058343    0.1710694  62.73   0.00113881    2.712    0.631
       109  -9.9243     61.4178    227.5751   8.3362577200e+01   1.8365716226e+01    0.2846715     0.185906  32.50 0.0007149042    1.231    0.188
       110  -9.3807     47.9607    227.9332   8.6665203531e+01   1.9708665699e+01    0.3118714    0.1826176  15.40   0.00105861    1.739    0.425
       111  -8.7907     20.1513    227.9118   9.3442589344e+01   2.2373857832e+01    0.2815847    0.1198997  28.37  0.001393734    1.830    0.454
       112  -9.6330    179.5152    225.7252   5.7479125428e+01   5.1836330224e+00    0.3279298    0.1929096 -18.93  0.001498923    1.687    0.407
       113  -8.6503    205.9257    225.3822   5.2870166051e+01   2.5238023001e+00    0.2287907    0.1246965 -43.70  0.001431252    2.105    0.525
       114  -9.6397      5.8125    225.4320   9.6832302959e+01   2.4102583499e+01    0.2405006    0.1732326  34.21 0.0003096621    1.157    0.135
       115  -9.3660     10.8101    225.2354   9.5617636303e+01   2.3734156633e+01    0.2274407    0.1505267  27.54 0.0006022165    1.314    0.239
       116  -8.5948    232.4887    224.9866   4.8693521602e+01   9.9367187602e-02    0.1487714   0.06260577 -20.28 0.0008096354    2.517    0.603
       117  -8.5249    191.0844    225.4089   5.5378608686e+01   4.0128279141e+00    0.2163135    0.1156948  10.73 0.0009201024    1.892    0.472
       118  -9.1854    192.3718    221.1194   5.4544375368e+01   4.4691371120e+00    0.2449826    0.1987066 -34.22 0.0008656316    1.433    0.302
       119  -9.8115     74.0418    224.0681   8.0006810836e+01   1.7666556014e+01     0.350386    0.2724489 -81.39  0.001423212    1.551    0.355
       120  -9.8704    225.6368    222.2555   4.9321652322e+01   1.0453366954e+00    0.2628586    0.1392194 -38.08  0.001343138    1.822    0.451
       121  -8.3106    169.1001    224.2072   5.9199589969e+01   6.5379107719e+00    0.1847397    0.1274536  -0.91 0.0007642477    1.319    0.242
       122  -8.8890    164.7861    223.7632   5.9961145766e+01   7.0855294913e+00    0.3020427    0.1469212  41.09  0.001555955    2.485    0.598
       123  -8.8799    104.6529    223.3878   7.2677505113e+01   1.4218984830e+01    0.2748777    0.1800167  75.63  0.001402639    2.534    0.605
       124  -8.6581    216.1623    222.9277   5.0877020081e+01   1.8488694469e+00    0.1483999    0.1237457 -13.00  0.000831487    1.309    0.236
       125  -8.0250    173.3641    223.1801   5.8256070303e+01   6.2190764565e+00    0.1421817    0.1047171 -50.49 0.0006066199    1.802    0.445
       126  -9.4940    119.4831    219.1536   6.8801919725e+01   1.3199371100e+01    0.5051826    0.2736975  37.20  0.002017421    1.679    0.405
       127  -9.0600    202.2626    220.8448   5.2824370549e+01   3.4862528717e+00    0.2963257   0.09698625 -33.04   0.00139991    2.995    0.666
       128  -9.6357     82.0304    221.2329   7.7805082134e+01   1.7308817885e+01    0.3386841    0.2511098  -9.11  0.001957654    1.615    0.381
       129  -9.4589     54.5223    221.2062   8.4583121810e+01   2.0401316521e+01    0.2696419    0.1732335  27.65 0.0004990502    1.320    0.242
       130  -8.9538     51.6230    217.3336   8.5028874172e+01   2.1523219818e+01    0.2286409    0.1360787  64.98 0.0009116849    1.810    0.448
       131  -8.3939     27.1359    220.8155   9.1420132369e+01   2.3228951227e+01    0.1566724     0.145238   3.10 0.0006332635    1.303    0.233
       132  -9.4533     18.1976    220.3932   9.3634962557e+01   2.4127037594e+01    0.2543689    0.1609437  40.86 0.0005321635    1.228    0.185
       133  -8.3619    158.9752    220.3565   6.0622562006e+01   8.2723508725e+00    0.1673601    0.1300503  19.87     0.000838    1.161    0.138
       134  -9.3661    133.2213    219.8224   6.5865040857e+01   1.1411782580e+01    0.2840137    0.1903093  10.43 0.0009387519    1.438    0.305
       135  -8.8897    132.1599    215.2188   6.5489996922e+01   1.2342009117e+01    0.2600824    0.1921664  85.23 0.0009369257    2.435    0.589
       136  -9.0947     62.4966    219.0229   8.2420340632e+01   1.9984864976e+01    0.3758681    0.2247635  81.88  0.001925384    2.141    0.533
       137  -9.1528     43.1546    220.0899   8.7356679366e+01   2.1822174792e+01    0.2170766     0.157308  31.82 0.0004810679    1.157    0.136
       138  -8.6072    218.5315    219.1796   4.9963998194e+01   2.0963633971e+00    0.1798766    0.1224651  12.52  0.000527537    1.321    0.243
       139  -8.5518    210.3467    219.1860   5.1259789273e+01   2.8945234251e+00    0.1380393   0.08786862 -39.79  0.000570298    1.685    0.407
       140  -8.6237    185.7927    218.7182   5.5354433082e+01   5.5085570840e+00    0.1890935    0.1170148  19.75 0.0005931259    1.460    0.315
       141  -8.8253    142.8405    217.4120   6.3500738574e+01   1.0659258466e+01    0.3029443    0.1755463 -54.51  0.001656512    2.121    0.529
       142  -9.4919     97.3937    218.6419   7.3848021660e+01   1.5986788624e+01    0.3929807    0.1736578  33.27  0.001243078    1.859    0.462
       143  -9.0042      1.5039    218.9445   9.7728710827e+01   2.5818033481e+01     0.166723    0.1255499  67.61  0.000355366    1.212    0.175
       144  -7.8946    176.4674    218.4385   5.7007861695e+01   6.5754038156e+00    0.1156554   0.09206302  -1.14  0.000128009    1.006    0.006
       145  -9.1889    152.7893    218.1308   6.1550050273e+01   9.3506309854e+00    0.2215816    0.1507436  18.31 0.0004692991    1.291    0.226
       146  -9.4656    108.2289    216.8919   7.1099830339e+01   1.4996899585e+01    0.3217137    0.1681318  28.78  0.001411592    1.630    0.386
       147  -8.9762    239.0465    203.5108   4.4582515693e+01   2.1032898797e+00    0.2224718   0.09300505  30.94  0.001332687    2.617    0.618
       148  -8.9499    243.2102    200.6098   4.3559863433e+01   2.0680788455e+00    0.2009601    0.1109477 -28.60 0.0006709419    1.382    0.277
       149  -9.6524    231.1380    215.1266   4.7463171871e+01   1.4110819106e+00    0.3918552    0.1940229  -9.68   0.00227501    2.334    0.572
       150  -8.8895    234.3128    210.6601   4.6337265700e+01   1.6650332074e+00     0.143178   0.09310822  21.57 0.0006815516    1.576    0.365
       151  -9.1818    236.2665    207.6959   4.5611408585e+01   1.8477226546e+00     0.268284    0.1673537 -45.97  0.001406777    2.190    0.543
       152  -8.6963    169.1692    215.6980   5.7985056071e+01   7.8181184717e+00    0.2027299    0.1841757 -83.37 0.0009310574    1.829    0.453
       153  -8.6733    164.4166    216.5697   5.9025169803e+01   8.2337289440e+00    0.2305797    0.1014895  28.77 0.0008398748    2.068    0.516
       154  -9.2490     76.1393    215.8428   7.8730311664e+01   1.9082685600e+01    0.3092097    0.2806612 -52.29  0.001226671    1.286    0.222
       155  -9.4081     67.8339    212.0094   8.0463081797e+01   2.0850111052e+01    0.3536704    0.1662716  24.93 0.0007379589    1.896    0.473
       156  -9.2893     71.8508    210.7421   7.9319858435e+01   2.0649598128e+01    0.3894773     0.182438  58.20  0.001614896    2.757    0.637
       157  -9.8008     11.8654    215.6178   9.5052478289e+01   2.5703456751e+01    0.2741356    0.1829277  29.92 0.0005043972    1.288    0.224
       158  -9.3425     86.2538    215.0542   7.6150443237e+01   1.8039767258e+01    0.3374851     0.175049  22.81 0.0008107192    1.779    0.438
       159  -8.6834     38.0218    215.4584   8.8373584202e+01   2.3331425519e+01    0.1990529    0.1066604  29.08 0.0005388063    1.546    0.353
       160  -9.5950    213.7553    212.4012   4.9712010736e+01   3.4444051123e+00    0.2739328    0.2352595  -9.65  0.001696836    1.302    0.232
       161  -8.1573    185.4493    214.1963   5.4754832455e+01   6.1993088811e+00    0.1412966     0.104259 -46.32 0.0009269043    1.682    0.406
       162  -8.1162    154.2953    214.6595   6.0759826256e+01   9.7351641128e+00    0.1091799   0.09375019  55.49 0.0004347192    1.658    0.397
       163  -9.1396     92.8387    213.7177   7.4396985474e+01   1.7506417257e+01    0.2329881     0.153354  65.28 0.0008180205    2.000    0.500
       164  -9.4329     32.8265    213.7777   8.9611768410e+01   2.4209624371e+01    0.2769352    0.1851324  27.21 0.0005917124    1.318    0.241
       165  -8.3661    114.2521    213.3727   6.9273166287e+01   1.4910556455e+01    0.1844302    0.1013659  35.51 0.0005945046    1.607    0.378
       166  -9.1065    204.1904    210.7373   5.1010879613e+01   4.6578211970e+00     0.206161    0.1579815 -48.53 0.0007358053    1.842    0.457
       167  -8.5194    161.3022    212.0388   5.8983274097e+01   9.3192195185e+00    0.1621998    0.1404026 -14.40 0.0006179776    1.129    0.114
       168  -8.3883    145.0208    211.7603   6.2262171478e+01   1.1350082625e+01    0.1786859    0.1369396  17.28 0.0005022769    1.142    0.125
       169  -8.5526    147.5209    210.0255   6.1492499757e+01   1.1335846108e+01    0.1927386    0.1608616  40.71 0.0009479167    1.391    0.281
       170  -7.9034    106.5209    212.5350   7.0976670934e+01   1.6039696426e+01    0.1300763    0.1114016  28.83 0.0008087034    1.053    0.050
       171  -9.0807     44.8868    211.6106   8.6350978181e+01   2.3469383031e+01    0.2270074     0.175092  11.61 0.0003827117    1.392    0.281
       172  -9.7703      3.1153    211.6877   9.7154726484e+01   2.7276586007e+01    0.2686318    0.1763979  34.84 0.0004951039    1.250    0.200
       173  -9.4023    175.2208    209.7600   5.5968353193e+01   8.0292778968e+00    0.2774908    0.2349427  74.92  0.001639876    2.218    0.549
       174  -8.2019    125.9777    211.5525   6.6368625423e+01   1.3771341931e+01    0.1950542    0.1104541  27.24  0.001016415    1.559    0.358
       175  -8.8189    116.0444    210.1004   6.8441997215e+01   1.5301578048e+01    0.2612563    0.1881425  62.94 0.0009019756    1.909    0.476
       176  -8.1835    192.3897    210.2317   5.2937463975e+01   6.0052404586e+00    0.1448291   0.09947896 -43.54 0.0006078786    1.654    0.396
       177  -9.3063     97.0753    209.2411   7.2852309404e+01   1.7875900357e+01     0.339222    0.1865812  39.64  0.001035757    1.635    0.388
       178  -9.1922     99.2889    205.8516   7.1904028832e+01   1.8279140686e+01    0.3436565    0.2137776  65.98  0.001295291    2.363    0.577
       179  -9.2572     86.0876    209.6959   7.5618222942e+01   1.9151821578e+01    0.3193798    0.1589708  45.85  0.001481195    1.964    0.491
       180  -8.6225     58.1809    209.1231   8.2697595353e+01   2.2572336962e+01    0.1947133    0.1703397   3.62 0.0007336174    1.274    0.215
       181  -9.5828    246.2588    206.7386   4.4072138080e+01   1.0422546032e+00    0.2436371    0.1326135 -29.14  0.001101201    1.401    0.286
       182  -9.5175    250.0771    202.4202   4.2906140273e+01   1.2132886837e+00    0.2966437    0.1221811 -30.88  0.001214899    1.872    0.466
       183  -9.0777    135.3292    208.1665   6.3834839698e+01   1.3196804780e+01    0.2588729    0.1479752  23.12 0.0005080862    1.625    0.385
       184  -8.2785    126.4248    208.2541   6.5824220032e+01   1.4319901663e+01    0.1568057    0.1266812 -71.73 0.0005812379    1.656    0.396
       185  -9.7888     24.7380    207.7313   9.1401424390e+01   2.6323171624e+01    0.2758159    0.2136596  34.81 0.0005295325    1.125    0.111
       186  -9.5244      3.3079    206.0703   9.6960179932e+01   2.8521528833e+01    0.5478364   0.08839394  45.34  0.001971069    3.289    0.696
       187  -8.3629    165.7388    207.4157   5.7430293697e+01   9.5280146375e+00     0.163385    0.1017753  15.58 0.0005188276    1.552    0.356
       188  -9.3198    199.2433    199.6208   5.0122119705e+01   6.7736942438e+00    0.2367824   0.09957012  30.94  0.001164359    2.416    0.586
       189  -9.6445    194.8220    203.3194   5.1456997156e+01   6.7362623241e+00    0.3740989    0.2049504 -40.56  0.001451564    1.760    0.432
       190  -9.5263    192.4650    197.1101   5.0887449622e+01   7.9300657242e+00    0.3225218    0.2396701 -53.13  0.001092856    1.865    0.464
       191  -9.9175     78.5484    205.7601   7.7103665879e+01   2.0904166836e+01    0.3822002    0.1879565  31.28 0.0008534479    1.712    0.416
       192 -10.5269     11.7932    203.0975   9.4631875304e+01   2.8519972606e+01    0.3788477    0.2599119  72.18  0.001239149    1.355    0.262
       193  -9.0860     88.6949    204.8468   7.4420668538e+01   1.9834633378e+01    0.2255315    0.1654944  20.18 0.0004765273    1.282    0.220
       194  -8.3595     56.1784    205.1726   8.2888872142e+01   2.3668349756e+01     0.192163    0.1353082  59.75 0.0009537982    1.402    0.287
       195  -9.3303     38.4937    205.2531   8.7604380241e+01   2.5547968106e+01    0.5111337    0.1858644  16.53  0.001866352    3.242    0.692
       196  -8.9417    183.6112    203.6957   5.3498665541e+01   7.9747060057e+00    0.2348479     0.173559  48.95  0.001438739    2.040    0.510
       197  -8.6237    151.1213    204.4706   5.9933155134e+01   1.1834053612e+01    0.1848932    0.1101105  28.65  0.001009841    1.544    0.352
       198  -8.8245    130.9000    204.2523   6.4263535951e+01   1.4480641066e+01    0.2747444    0.1761937  30.94  0.001517437    1.409    0.290
       199  -8.7882    121.4883    204.0555   6.6376845195e+01   1.5748589937e+01    0.2420418    0.1613285  12.40 0.0005818205    1.545    0.353
       200  -9.0058    178.5449    203.3851   5.4379658039e+01   8.6230108963e+00    0.2176246    0.1286436  24.36 0.0006749007    1.612    0.380
       201  -9.3818    163.2743    202.6723   5.7197218094e+01   1.0605213581e+01    0.2363493    0.1932197  52.45 0.0005528808    1.720    0.419
       202  -8.6323    139.9847    200.4897   6.1710712883e+01   1.3979140948e+01    0.2581432    0.1996378  75.62  0.001192548    2.138    0.532
       203  -8.4940    210.9839    201.7580   4.8525795350e+01   5.1718247862e+00     0.183241    0.1265858 -43.26 0.0008252716    1.673    0.402
       204  -9.4933    113.1757    199.3824   6.7693574146e+01   1.7762796389e+01    0.4373341    0.3332075  69.24  0.002409706    1.766    0.434
       205  -8.8969     50.4897    205.4320   8.4419623763e+01   2.4240962836e+01    0.2543816    0.1780975  36.84 0.0007451531    1.197    0.165
       206  -8.8817     60.2114    200.9034   8.1435665315e+01   2.4164422811e+01    0.2754038    0.1519448  32.76  0.000597811    1.527    0.345
       207  -9.4093    149.6244    198.6114   5.9362453421e+01   1.3048085268e+01    0.3383006    0.2561886  89.26  0.001158908    2.506    0.601
       208  -8.7566    123.9559    199.2478   6.5132867752e+01   1.6344847623e+01     0.223189    0.1818758  76.05 0.0007604138    1.709    0.415
       209  -7.7762     36.6670    200.2860   8.7766887593e+01   2.6873217500e+01    0.1470186   0.07976712  50.67 0.0003003041    1.621    0.383
       210  -8.6841     28.8906    200.1566   8.9880074091e+01   2.7670639331e+01    0.2129248      0.14948  49.92 0.0006005407    1.202    0.168
       211  -9.0236    237.2556    198.6595   4.4088335089e+01   2.8833834229e+00    0.1877188    0.1017144 -39.94 0.0009044047    1.783    0.439
       212  -8.5724    187.8178    198.8895   5.1989877009e+01   8.2103769032e+00    0.1761037    0.1307554  -9.01 0.0004247601    1.185    0.156
       213  -8.2449    177.0432    198.9457   5.3966457842e+01   9.5028230523e+00    0.1592533    0.1493205  79.56 0.0005801574    1.675    0.403
       214  -8.2803    134.2114    199.3807   6.2820105249e+01   1.4948211624e+01    0.1897785    0.1524289  26.00 0.0009308819    1.144    0.126
       215  -8.0905    133.3062    195.7032   6.2476390844e+01   1.5760794289e+01    0.1751446    0.1236865 -87.30 0.0007606665    2.585    0.613
       216  -8.9493     88.7729    198.4295   7.3644607291e+01   2.1186550708e+01    0.3548521     0.209587  63.54  0.001607398    2.300    0.565
       217  -8.8252     21.4407    198.8004   9.1841705777e+01   2.8681982752e+01    0.2374458    0.1623743  29.49 0.0005253968    1.306    0.234
       218  -9.1356    104.0581    198.2029   6.9756424801e+01   1.9220963288e+01    0.2875662    0.1706194  28.54  0.000526937    1.514    0.340
       219  -9.0674     61.1675    196.8270   8.0793273846e+01   2.4979109122e+01    0.4093689    0.1834574  58.79  0.001599041    2.772    0.639
       220  -8.8717     51.7014    197.7320   8.3460107061e+01   2.5860022965e+01    0.2379556    0.1500413  25.11 0.0005571833    1.462    0.316
       221  -8.3680     44.0247    198.5342   8.5628853309e+01   2.6514041691e+01    0.2068624    0.1172488  28.84 0.0005552412    1.536    0.349
       222  -8.0800    109.3549    205.1430   6.9375901712e+01   1.7121566608e+01    0.1668513    0.1261203 -78.62  0.000793102    1.761    0.432
       223  -8.5803    215.9076    195.5547   4.6768077724e+01   5.4967825858e+00    0.2008507    0.1305191 -47.63 0.0008621868    1.959    0.489
       224  -8.8159    170.5800    195.9510   5.4719631188e+01   1.0793789709e+01     0.227863    0.1490191  11.34 0.0007239552    1.565    0.361
       225  -8.2456    143.2203    196.3583   6.0384757992e+01   1.4301315303e+01     0.184288    0.1064568  38.26 0.0009442972    1.724    0.420
       226  -8.3862     83.0976    196.5123   7.4890649661e+01   2.2336648758e+01    0.2132659    0.1216976  29.39  0.001019751    1.552    0.356
       227  -8.9515    185.3622    194.7824   5.1773880867e+01   9.1391844817e+00    0.1904262    0.1869914 -52.73 0.0007593542    1.489    0.328
       228  -8.9732    160.8469    194.0430   5.6335318113e+01   1.2371285524e+01    0.2289185    0.1816927 -70.91 0.0009427031    1.955    0.488
       229  -9.3043    245.4693    193.1707   4.2099546200e+01   2.7745390759e+00    0.1731118    0.1470997 -47.51 0.0009282284    1.884    0.469
       230  -8.7369    224.4655    193.7668   4.5175908812e+01   4.8228324454e+00    0.1978075   0.08918541 -40.87  0.001117029    2.054    0.513
       231  -8.4596     76.9589    193.9380   7.6219627715e+01   2.3695632283e+01    0.2239956     0.142913  53.57 0.0005808077    1.615    0.381
       232  -9.0451     44.1233    193.8516   8.5236674813e+01   2.7601979813e+01    0.3443292    0.1412069  53.99  0.001370611    2.467    0.595
       233  -8.6397     25.4974    194.5490   9.0494712666e+01   2.9314704223e+01    0.1375958    0.1130115  49.56 4.999172e-05    1.017    0.017
       234  -9.8069      5.2076    193.6608   9.6090260459e+01   3.1262020100e+01    0.3158324    0.2216045  13.78 0.0009846954    1.539    0.350
       235  -8.4748    205.1746    192.3198   4.7964376841e+01   7.1568430304e+00    0.2264065   0.07189178 -39.12  0.001021018    2.761    0.638
       236  -9.1274    153.3775    192.8026   5.7669855727e+01   1.3579388755e+01     0.298456    0.1606293  35.66 0.0009231934    1.816    0.449
       237  -8.4435    127.4418    193.0349   6.3415547950e+01   1.7077180712e+01      0.21322    0.1542506  28.50 0.0005420792    1.271    0.213
       238  -8.1307     32.5048    192.9541   8.8432207947e+01   2.9019997660e+01    0.1812415    0.1294022 -87.58 0.0003648915    1.453    0.312
       239  -8.9539    197.6543    191.8944   4.9151404521e+01   8.0994944637e+00    0.3402691    0.1732294   7.15  0.001559326    3.124    0.680
       240  -9.0587    117.0951    191.8080   6.5678884047e+01   1.8755309403e+01    0.2936518    0.1727983  29.73   0.00074054    1.559    0.359
       241  -9.4336     94.3126    191.3694   7.1322666350e+01   2.1981792199e+01    0.4956778    0.2977369  12.84  0.001832757    1.961    0.490
       242  -9.8467     90.4825    188.2594   7.1916233045e+01   2.3186745209e+01    0.6298131    0.2312439  42.80  0.002365865    2.606    0.616
       243  -8.2496     56.0234    192.7697   8.1822421056e+01   2.6522822152e+01      0.18631    0.1034042  28.23 0.0005636042    1.605    0.377
       244  -8.2299     38.9815    192.4715   8.6573869197e+01   2.8476055638e+01    0.2075783    0.1190633  29.33 0.0005021961    1.531    0.347
       245  -8.1154    172.4545    191.5057   5.3642964901e+01   1.1287872822e+01    0.1217805    0.1054352  -7.64 0.0001214364    1.043    0.041
       246  -9.0015    139.3382    190.4306   6.0316400646e+01   1.5930388490e+01    0.2654633    0.1982787  64.74 0.0009787519    2.009    0.502
       247  -9.3370     16.7018    190.9589   9.2777089447e+01   3.0970443265e+01     0.263359    0.1591721  37.18 0.0005183999    1.381    0.276
       248  -9.2377    217.0238    188.5676   4.5466503724e+01   6.3469629626e+00    0.3153238    0.2130223 -52.43  0.001956688    2.174    0.540
       249  -9.8943    248.9410    186.8179   4.0636083985e+01   3.2305155755e+00    0.3535719    0.1982727 -30.20  0.001809853    1.338    0.252
       250  -9.2362    164.6786    187.6972   5.4537193084e+01   1.2956757421e+01    0.3940172    0.1950005 -40.85  0.001805667    1.942    0.485
       251  -8.2746    148.4373    188.9410   5.8095433156e+01   1.4948679120e+01    0.1625356    0.1175064 -78.86 0.0008062943    2.454    0.593
       252  -8.7432    129.0587    188.2816   6.2314463019e+01   1.7784822373e+01     0.219602    0.1847076  79.96 0.0006208115    1.620    0.383
       253  -8.1587    237.3768    188.2850   4.2434284915e+01   4.2026686439e+00    0.1401314   0.08118318 -37.48 0.0006102861    1.526    0.345
       254  -9.0494    191.0490    187.7240   4.9605898307e+01   9.5387717641e+00    0.2479379    0.2106655  20.95  0.001184088    1.274    0.215
       255  -9.2280    155.9044    187.3351   5.6260760073e+01   1.4212060067e+01    0.2805051    0.1797622 -53.86 0.0008910326    1.832    0.454
       256  -9.3496    120.5981    185.9808   6.3960292519e+01   1.9450871929e+01    0.4156858    0.2345529 -72.16  0.001732101    2.930    0.659
       257  -9.3969     70.0813    188.1807   7.7440007677e+01   2.5889824099e+01    0.3602577    0.1879839  24.81  0.001066422    1.830    0.454
       258  -8.7859     66.6175    184.3531   7.7978384767e+01   2.7230689413e+01    0.3304629    0.1704989  57.75 0.0009587148    2.238    0.553
       259  -8.7768     54.9604    186.9353   8.1563614991e+01   2.8032912550e+01    0.3901978    0.1712448  59.71  0.001463973    2.814    0.645
       260  -9.2626     48.2782    187.6244   8.3536899142e+01   2.8634678801e+01    0.3821456    0.1710422  37.18   0.00100622    1.849    0.459
       261  -8.3712    230.4968    186.9976   4.3201265704e+01   5.0914103724e+00     0.164748   0.08579061 -34.87 0.0006086744    1.560    0.359
       262  -9.0204    109.4288    185.8262   6.6685698568e+01   2.1077111813e+01    0.3135992    0.2171688  67.83  0.001462527    2.021    0.505
       263  -9.7566     26.7556    186.5106   8.9658468516e+01   3.1143659971e+01    0.4616214    0.1631526  31.10  0.001646903    2.244    0.554
       264  -9.1930      9.7993    187.5800   9.4587069061e+01   3.2368407357e+01     0.237469    0.1239177  17.45 0.0008617699    1.952    0.488
       265  -9.2193      3.1603    187.1524   9.6456776983e+01   3.2986874747e+01    0.1829404     0.173982  41.36  0.000511268    1.192    0.161
       266  -8.6985    202.6512    184.3462   4.7063906190e+01   8.6329255665e+00    0.1930289    0.1257796 -43.48 0.0007224532    1.587    0.370
       267  -8.3446    183.0033    184.8998   5.0573194908e+01   1.1007044169e+01    0.1650358    0.1513513 -78.79 0.0006735517    1.668    0.401
       268  -8.7063    224.1365    183.5651   4.3568192927e+01   6.2505408572e+00     0.186521     0.123037 -36.95 0.0006509444    1.382    0.276
       269  -9.6071    210.4716    183.1421   4.5594240137e+01   7.8767029209e+00     0.421229    0.1830164 -24.98  0.001589781    2.697    0.629
       270  -9.1398    142.9084    184.0736   5.8504532601e+01   1.6633498429e+01    0.2642923    0.1751568  24.48 0.0006419419    1.473    0.321
       271  -8.9500     44.6568    182.5903   8.4139371339e+01   3.0269263526e+01    0.3848442    0.1452089  51.36 0.0008966434    2.644    0.622
       272  -8.4173     81.9227    186.3462   7.3966207213e+01   2.4773138690e+01    0.1982155    0.1638969  30.98 0.0004291438    1.106    0.096
       273  -8.2824    167.8562    181.8846   5.2932627165e+01   1.3532577211e+01    0.1949215    0.1506023  -3.54 0.0005055732    1.270    0.213
       274  -8.5501    134.0316    182.3129   6.0214624920e+01   1.8252358931e+01    0.1934251    0.1574533  25.63 0.0006503565    1.161    0.138
       275  -9.0005     38.3079    181.9170   8.5950675916e+01   3.1122910831e+01    0.3033356    0.1758345  32.10 0.0008416155    1.514    0.340
       276  -9.2278     36.4463    177.4702   8.6145272161e+01   3.2434872482e+01    0.5823309    0.1985314  70.05  0.001585807    5.358    0.813
       277  -9.1920    147.5110    180.5232   5.6906540692e+01   1.6646636376e+01    0.2795657    0.2278309  69.16  0.001003075    1.772    0.436
       278  -9.2265     58.8598    181.0573   7.9840377686e+01   2.8990463123e+01    0.3695155    0.1686026  33.71 0.0009562934    1.876    0.467
       279  -9.9108     25.8090    179.2126   8.9469980434e+01   3.3052581135e+01    0.7056035    0.2242202  65.71  0.002153606    4.263    0.765
       280  -9.0753     22.0588    178.7984   9.0566713193e+01   3.3504968354e+01    0.2579794    0.1630088  32.88  0.001287148    1.403    0.287
       281  -9.1506     15.1720    180.7982   9.2725933061e+01   3.3605300796e+01     0.219029    0.1558744  49.80 0.0006769929    1.189    0.159
       282  -8.3442    159.6093    179.9104   5.4250930082e+01   1.5031157855e+01    0.2151917    0.1373635  35.24 0.0006883621    1.581    0.368
       283  -8.7948    113.6543    179.8631   6.4718044179e+01   2.1739463579e+01    0.2664143     0.178757  37.39 0.0005903394    1.406    0.289
       284  -9.0586    204.9888    178.1747   4.5633266675e+01   9.2765507643e+00    0.3023284    0.1508823 -41.10  0.001656629    1.814    0.449
       285  -9.3471    191.3676    178.1848   4.7931788699e+01   1.1002168037e+01    0.2224058    0.2115369 -72.36 0.0005800431    1.532    0.347
       286  -8.6183    137.6870    179.2741   5.8877147288e+01   1.8318211376e+01    0.2087036    0.1601593  69.17  0.001091431    1.911    0.477
       287  -9.3623     74.2397    178.6296   7.5129050511e+01   2.7609292374e+01    0.5310022    0.1835707  29.57  0.001891597    2.593    0.614
       288 -10.5283     75.8054    170.4873   7.3604948448e+01   2.9370457593e+01     1.187486    0.5057113 -82.90  0.003422064    4.945    0.798
       289  -8.8936    250.5215    172.8197   3.8167524400e+01   4.8462767779e+00    0.2103534    0.1112635 -32.55 0.0007172398    1.413    0.292
       290  -9.4344    248.9712    177.0394   3.9057676156e+01   4.4652258300e+00     0.232952     0.166467 -33.77  0.000950987    1.282    0.220
       291  -8.8393    247.4754    173.5056   3.8670379052e+01   5.0753049936e+00    0.1956511    0.1059805 -26.86 -4.343688e-08    1.446    0.308
       292  -8.1328    169.4277    178.2506   5.1999503860e+01   1.3947625868e+01     0.168924    0.1168081 -52.03 0.0007029118    1.663    0.399
       293  -8.8567     99.8898    177.6934   6.7935170678e+01   2.4231390876e+01    0.4989524    0.1484891  38.63   0.00170021    2.967    0.663
       294  -8.2937    231.0724    176.9896   4.1468979180e+01   6.3836924652e+00    0.1523611     0.122732 -47.72 0.0007175099    1.655    0.396
       295  -8.3194    217.4714    177.0169   4.3470740553e+01   7.9392890284e+00    0.1679481   0.09331248 -37.41 0.0007509041    1.531    0.347
       296  -9.2321    183.0158    175.9967   4.9040796431e+01   1.2465632634e+01    0.2477172    0.1904215 -57.32 0.0007164936    1.723    0.420
       297  -8.7966    177.7256    177.1512   5.0220329805e+01   1.2991502729e+01    0.2425828    0.1493031   4.39  0.001229012    2.119    0.528
       298  -8.5028    128.9642    176.9429   6.0510697548e+01   2.0079623166e+01    0.2104822    0.1665538  70.85 0.0007410372    1.724    0.420
       299  -8.9455     88.8886    176.6443   7.0755350682e+01   2.6056309841e+01    0.2677094    0.1880006  83.14 0.0009514097    1.845    0.458
       300  -9.2910     59.0467    175.8134   7.9210021498e+01   3.0260094179e+01     0.508032    0.2270822  57.89  0.001869641    2.744    0.636
       301  -9.0952     55.7900    170.5890   7.9598784715e+01   3.1977397296e+01    0.4413151    0.2189694  72.81  0.001627642    2.835    0.647
       302  -8.7956     12.6901    176.5284   9.3256820092e+01   3.4890141985e+01    0.2565024    0.1325723  64.63  0.001177403    1.792    0.442
       303  -8.8227    174.0555    183.4064   5.1990483945e+01   1.2431697744e+01    0.2152258    0.1637592 -53.11 0.0005426681    1.604    0.377
       304  -9.1532    158.6463    174.5928   5.3525371166e+01   1.6137756039e+01    0.2845588    0.2076945  72.67  0.001049114    2.533    0.605
       305  -9.2229    103.7717    174.3197   6.6391513521e+01   2.4418921347e+01    0.4168606    0.2059485  53.96  0.001579596    2.760    0.638
       306  -8.8977    224.3978    174.1939   4.1956877310e+01   7.5310716762e+00    0.1539956   0.08898768 -42.11 0.0004993029    1.650    0.394
       307  -8.8621    152.0486    174.0565   5.4815997624e+01   1.7205869996e+01    0.2562208    0.1721828  31.33 0.0006815913    1.474    0.322
       308  -8.6745    141.0197    174.7981   5.7362297610e+01   1.8705155423e+01    0.1957114    0.1218428  21.33 0.0005275012    1.736    0.424
       309  -9.4454    175.7147    171.9344   4.9677114961e+01   1.4161835455e+01    0.3323365     0.195635 -42.53  0.001146276    1.603    0.376
       310  -9.3547    197.0137    171.1177   4.5723353124e+01   1.1386810178e+01    0.3824846    0.2286042   9.38  0.001512948    2.212    0.548
       311  -8.4904    134.7354    171.5756   5.8239806271e+01   2.0301919313e+01    0.2262821    0.1989432  51.37 0.0009515387    1.277    0.217
       312  -9.4696    121.2436    170.3465   6.1267230017e+01   2.2636255410e+01    0.3381764    0.2421468 -76.58 0.0009395803    1.907    0.476
       313  -9.2974     45.4799    171.1768   8.2822488891e+01   3.3052988438e+01    0.4177695    0.1974025  58.92  0.001463232    2.323    0.569
       314  -9.3524    230.5711    169.8295   4.0326835787e+01   7.4284890197e+00    0.2130146    0.1497706 -26.46 0.0006391595    1.096    0.088
       315  -8.4636    205.8391    170.0008   4.4072465636e+01   1.0413708025e+01    0.1790162    0.1233356 -53.69 0.0006255292    1.915    0.478
       316  -8.6896    187.2061    170.7475   4.7356388685e+01   1.2764436771e+01    0.2659652     0.102914  34.77   0.00118034    2.804    0.643
       317  -8.8003    162.8526    170.4301   5.1923983875e+01   1.6284299499e+01    0.2293041    0.1212852  39.53 0.0008583743    1.983    0.496
       318  -9.2230    109.2117    169.7769   6.4232671637e+01   2.4615722558e+01      0.35688    0.1828753  37.83 0.0009490157    1.834    0.455
       319  -8.9208    111.6497    167.2973   6.3182492125e+01   2.4793432599e+01     0.221067    0.1655685  67.95 0.0008801332    1.700    0.412
       320  -7.9990     95.0564    170.2088   6.8098910296e+01   2.6660276736e+01    0.1971076    0.1109821  30.38 0.0007428842    1.696    0.410
       321  -9.4017     38.8067    169.8053   8.4761036885e+01   3.4147998169e+01    0.3781176    0.1780404  38.14  0.001025659    1.819    0.450
       322  -9.6879     18.8292    170.0673   9.1024353705e+01   3.6032970436e+01    0.3167393      0.18422  20.29 0.0008227845    1.730    0.422
       323  -8.3872    244.3696    169.1314   3.8343963110e+01   5.9792005095e+00    0.1504365   0.07902948 -40.99 0.0005777962    1.702    0.413
       324  -8.4903    237.0787    169.3289   3.9344585298e+01   6.7571806096e+00    0.1473326    0.1173745 -18.57 0.0005439087    1.088    0.081
       325  -9.1707    166.9153    168.4263   5.0747579889e+01   1.6049638382e+01    0.2390496    0.2090908  88.00 0.0008939427    1.666    0.400
       326  -8.3634    149.6797    169.1691   5.4455624589e+01   1.8494762937e+01    0.1991409    0.1676542 -67.09 0.0007650637    1.485    0.326
       327  -8.2044    218.5279    168.0380   4.1760441982e+01   9.1166589652e+00    0.1709611   0.09378204 -37.12 0.0004815665    1.515    0.340
       328  -7.7761     88.6593    168.3457   6.9597927748e+01   2.8048633438e+01    0.1579743    0.1051059  62.22 0.0007047025    1.786    0.440
       329  -8.7702    191.8814    166.3631   4.5746092880e+01   1.2843305475e+01    0.2041175     0.147014 -41.18 0.0005190177    1.323    0.244
       330  -8.7336    137.6651    167.3155   5.6806906787e+01   2.0715311619e+01     0.251632    0.1632769  44.64 0.0009954108    1.644    0.392
       331  -9.6937    136.1963    164.0938   5.6562863494e+01   2.1605757292e+01    0.6515021     0.288813  53.46   0.00216141    4.025    0.752
       332  -8.5559    184.7418    166.1862   4.6972108460e+01   1.3867398173e+01    0.1876114    0.1449043 -49.99 0.0005109847    1.455    0.313
       333  -8.8693    179.7718    165.9680   4.7837624935e+01   1.4612069023e+01    0.1765507    0.1503275 -18.20 0.0007746974    1.028    0.028
       334  -9.8852     94.4984    162.6190   6.7044165069e+01   2.8537685180e+01    0.7735839    0.4412668  65.16  0.002896991    2.692    0.629
       335  -9.4953     20.5544    166.1795   9.0234566820e+01   3.6897891717e+01     0.367731    0.1138168  41.48  0.001345308    2.554    0.608
       336  -8.3028    233.9838    164.9399   3.9012832132e+01   7.7125981114e+00    0.1592565    0.1198526 -48.51 0.0007265966    1.640    0.390
       337  -8.5779    212.9411    163.4905   4.1799261364e+01   1.0493274980e+01     0.215133    0.1370435 -44.61 0.0006066354    1.565    0.361
       338  -8.4652    159.6757    164.1692   5.1427101111e+01   1.7919494683e+01    0.1985377    0.1632186 -60.94 0.0008188004    1.470    0.320
       339  -9.5730     61.0393    162.6535   7.7017774497e+01   3.3341631026e+01    0.5128368    0.3518538  72.96  0.002415603    1.612    0.380
       340  -9.5070     33.7141    163.1924   8.5780906775e+01   3.6420525503e+01    0.6594223    0.1659087  46.59  0.002026508    3.560    0.719
       341  -9.0324    246.1399    162.8420   3.7052209603e+01   6.6187325927e+00    0.1579756    0.1175239 -33.82 0.0005047448    1.210    0.174
       342  -8.9109    204.7525    162.4196   4.2887414775e+01   1.1729251023e+01    0.2130162    0.1274982 -45.13 0.0005850552    1.644    0.392
       343  -9.3460      3.3981    162.2491   9.5507310839e+01   3.9295679405e+01     0.449571    0.1516435  46.11  0.001594553    2.395    0.582
       344  -8.6014    172.1887    162.5664   4.8636644816e+01   1.6319148853e+01     0.181209    0.1179947  20.05 0.0009477346    1.759    0.432
       345  -9.1919    126.3162    162.1435   5.8567952592e+01   2.3597034606e+01     0.298088    0.1904241  39.42 0.0006795413    1.546    0.353
       346  -8.2720    114.0355    163.0000   6.1820327879e+01   2.5379143091e+01    0.2346967   0.07915061  34.17 0.0005889512    2.872    0.652
       347  -8.9975     16.2218    162.6182   9.1398331741e+01   3.8214314267e+01    0.1858214    0.1336399   6.19 0.0006194234    1.615    0.381
       348  -8.9339    177.3857    160.3256   4.7231675670e+01   1.5940990252e+01     0.208619    0.1836565 -45.32 0.0005572146    1.232    0.188
       349  -8.9450    151.5262    160.6305   5.2480760972e+01   1.9865782792e+01    0.2462821    0.1829005 -77.95  0.001009236    2.098    0.523
       350  -8.2495    242.2280    160.0139   3.7067331066e+01   7.4378683367e+00    0.1487784   0.07033067 -35.22 0.0006180435    1.617    0.382
       351  -8.6309    196.4823    157.8850   4.3402368533e+01   1.3586292766e+01    0.1788159    0.1621407 -38.97 0.0007376359    1.233    0.189
       352  -8.9067    236.6273    158.7783   3.7584565935e+01   8.2571514950e+00    0.1595953   0.08302461 -41.32 0.0003935634    1.669    0.401
       353  -8.5568    227.1537    158.7321   3.8867146674e+01   9.4059688418e+00    0.2003305    0.1281127 -42.80 0.0009685548    1.485    0.326
       354  -8.3353    162.7596    159.3775   4.9895737809e+01   1.8340138142e+01    0.1758812    0.1218879  23.41  0.000429386    1.566    0.362
       355  -9.5696    105.6078    157.7472   6.3130178562e+01   2.7933978922e+01    0.3998093    0.2680551  71.65  0.001108378    2.149    0.535
       356  -9.1988    167.4041    157.0399   4.8520433941e+01   1.8050552061e+01    0.2670175    0.2012624 -66.42  0.000904185    1.817    0.450
       357  -9.3607    143.2156    157.9916   5.3811806333e+01   2.1724900583e+01    0.3560704    0.2328343  30.75  0.001126048    1.578    0.366
       358  -9.1025     79.4937    157.9769   7.0675835094e+01   3.1949403375e+01    0.3289129    0.1949603  26.09  0.000992678    1.729    0.422
       359  -9.7115     81.0289    153.9007   6.9558387190e+01   3.2746059954e+01    0.4036522    0.2609634 -87.05  0.001020343    1.983    0.496
       360  -8.5988    217.8573    156.3328   3.9767805525e+01   1.0934218951e+01    0.2106888    0.1337579 -51.07 0.0009556475    1.878    0.468
       361  -8.2166    188.2770    157.6400   4.4757460386e+01   1.4800877993e+01    0.1190579     0.096296 -63.19 0.0004331044    1.662    0.398
       362  -9.6211     41.0729    156.9978   8.2769661020e+01   3.7277450629e+01    0.4679001    0.2064094  22.45  0.001360971    2.307    0.567
       363  -9.9338     35.9644    156.0000   8.4364427080e+01   3.8107252720e+01    0.5274211     0.149062  28.10  0.001752784    2.972    0.664
       364  -9.0461    157.6996    156.1699   5.0319220923e+01   1.9745792889e+01    0.2066777    0.1676289 -65.27 0.0008568931    1.522    0.343
       365  -9.1034    119.5095    155.0430   5.8957883174e+01   2.6267608239e+01    0.3778549    0.2599958  86.49   0.00137357    2.370    0.578
       366  -9.4301     98.2811    155.0388   6.4684007532e+01   2.9757501127e+01    0.4449197     0.195977  43.66  0.001231005    2.254    0.556
       367  -9.4366     49.3470    154.8643   7.9790676326e+01   3.6875883576e+01    0.4024039    0.2042981  58.91  0.001553384    2.197    0.545
       368  -9.3796     23.5677    155.5602   8.8482614645e+01   3.9461497432e+01    0.3788936    0.1863062  -4.86  0.001348743    3.339    0.701
       369  -9.5119    243.0036    154.9345   3.6084960327e+01   8.0377342317e+00    0.1489323    0.1070729 -41.03 0.0005086397    1.354    0.262
       370  -9.2092    237.3239    150.2831   3.5988727474e+01   9.3561372093e+00    0.1456442    0.1169136 -42.98 0.0002507913    1.348    0.258
       371 -10.1220    249.7538    157.2480   3.5644314364e+01   6.9584346749e+00    0.2993181    0.2107977 -47.75  0.001461565    1.671    0.401
       372  -9.6667    132.7728    153.1217   5.5300582646e+01   2.4465151633e+01    0.4057516    0.3643173 -77.25  0.001448455    1.280    0.219
       373  -9.4834    140.3301    136.6628   5.0143662736e+01   2.6634780137e+01    0.4748797    0.2985656 -12.36  0.001842317    2.893    0.654
       374  -9.7427    135.1191    147.8125   5.3688891859e+01   2.5196191004e+01    0.5261158    0.2502829  34.31  0.002136784    2.244    0.554
       375  -9.9609    138.8560    144.5613   5.2148400416e+01   2.5235660095e+01    0.4050239    0.2696112 -70.29  0.001263324    2.126    0.530
       376  -8.2136     64.2919    155.6122   7.5038336535e+01   3.4732894052e+01    0.2049343    0.1431484  18.11 0.0009046649    1.573    0.364
       377  -8.2501    180.9748    154.5436   4.5469027699e+01   1.6414553159e+01    0.1802462    0.1252228  35.80 0.0007551083    1.564    0.361
       378  -8.4798    151.6739    152.3473   5.0848553341e+01   2.1469482597e+01    0.1956959    0.1404011 -60.84 0.0009913673    1.656    0.396
       379 -10.4838    148.9410    145.1917   5.0001685590e+01   2.3358879868e+01    0.5989014    0.4034733 -85.32  0.001748539    2.969    0.663
       380  -8.5839    162.7593    150.7796   4.8224143420e+01   1.9957199542e+01    0.1760182     0.158218 -70.99 0.0009191834    1.351    0.260
       381  -9.2989    110.9714    151.9315   6.0611617258e+01   2.8402524280e+01    0.4071374    0.2023792  37.37  0.001098277    1.952    0.488
       382  -8.7522     98.1282    150.6029   6.3929619116e+01   3.0851926719e+01    0.2592427    0.2052892 -78.41 0.0007309504    1.422    0.297
       383  -9.4490     29.4913    150.5550   8.6033954972e+01   4.0257173950e+01    0.4466462    0.1964342  59.00  0.001668964    2.424    0.587
       384  -9.4826    248.8984    149.1266   3.4339173236e+01   8.1367667915e+00    0.2526997    0.1177075 -36.50 0.0007834673    1.608    0.378
       385  -8.9821    243.1922    149.7151   3.5142386211e+01   8.7274937350e+00    0.2045738    0.1144068 -40.02  0.001292196    1.473    0.321
       386  -8.8368    189.3442    149.9078   4.3090922191e+01   1.5950282791e+01    0.2194114    0.1705784 -55.00  0.000724396    1.493    0.330
       387  -9.9068      7.7947    152.6329   9.3618960230e+01   4.1554477612e+01    0.8126039    0.1831712  22.08  0.002613532    3.692    0.729
       388  -8.1437    212.7997    149.5889   3.9269287435e+01   1.2632830732e+01    0.1324276    0.1170435  51.08 0.0003414003    1.521    0.343
       389  -8.3042    198.5936    148.7515   4.1321316201e+01   1.4773815451e+01    0.1683565    0.1035172 -45.86  0.000404923    1.558    0.358
       390  -9.8768     89.2355    146.2594   6.5748877463e+01   3.3377393603e+01    0.6851895    0.3797678  88.51  0.002210288    3.669    0.727
       391  -8.6405     86.2589    148.6388   6.7075455773e+01   3.3259229395e+01     0.270722    0.2095793  31.35 0.0007022209    1.281    0.219
       392  -9.6279     53.4686    148.9826   7.7659326579e+01   3.7937016862e+01    0.3986078    0.2235546  35.07 0.0008902563    1.648    0.393
       393 -10.5049     54.8703    144.6899   7.6584152076e+01   3.8914101553e+01    0.8717936    0.3808933  61.78   0.00270765    3.402    0.706
       394 -10.0387     40.0618    148.0744   8.2122086819e+01   3.9811230030e+01    0.6188269    0.2388299  52.94   0.00201514    2.825    0.646
       395  -8.9201    233.4998    147.5072   3.5986135650e+01   1.0221539494e+01    0.2291369   0.08908532 -37.14 0.0006729147    2.004    0.501
       396  -8.3342    223.2030    146.7706   3.7242671879e+01   1.1657696534e+01    0.1551155     0.113087 -18.40 0.0003914792    1.271    0.213
       397 -10.1193    106.5471    144.3607   6.0362079922e+01   3.0931370935e+01    0.6697736    0.3903491  70.58  0.002330759    3.239    0.691
       398  -8.8121     23.8644    147.1426   8.7685029611e+01   4.1736267108e+01      0.23785    0.1724018  55.64 0.0005289082    1.267    0.211
       399  -8.8910    240.9845    137.7618   3.3260653676e+01   1.0650067037e+01    0.1843282    0.1369915  82.34 0.0009347569    2.692    0.629
       400  -9.2604    240.3932    145.2267   3.4690098232e+01   9.6847371264e+00    0.2181343    0.1050789 -37.32 0.0005743007    1.591    0.371
       401 -10.1663    242.7769    143.0050   3.3994559893e+01   9.6995216182e+00     0.399321    0.1418358 -30.65  0.001864087    2.610    0.617
       402  -7.9563    206.4785    146.4880   3.9639228412e+01   1.4000954123e+01    0.1228369    0.1016794 -30.97 -5.442003e-05    1.048    0.046
       403  -8.4209    175.4918    145.5638   4.4710119822e+01   1.8863464984e+01    0.2276768    0.1158876 -51.57 0.0006255392    2.159    0.537
       404  -8.9400     13.1391    145.6796   9.1356157391e+01   4.3054546710e+01    0.3351524    0.1737162  61.60   0.00105326    1.843    0.457
       405  -9.7841     73.0525    147.1303   7.0936402258e+01   3.5690067964e+01    0.3434618    0.2138368  21.20  0.001184232    1.801    0.445
       406  -9.3483     76.3082    123.8621   6.5533055460e+01   4.1297956193e+01    0.5005732    0.2193758  31.35  0.001760629    2.399    0.583
       407 -11.0347     60.5610    135.3448   7.3163353543e+01   4.0669123691e+01     1.008682     0.333194  29.95  0.003044419    2.913    0.657
       408 -11.2812     68.6759    141.7942   7.1476549614e+01   3.7748499054e+01    0.7062393    0.5867189 -40.25  0.003296338    1.347    0.258
       409 -10.3299     72.7998    133.6149   6.8650016752e+01   3.9288016271e+01    0.5486734     0.259935  36.28   0.00209316    2.002    0.501
       410  -9.9588     73.0231    129.3039   6.7753386506e+01   4.0397356048e+01    0.4733795    0.3088038  83.11  0.001365418    2.006    0.501
       411  -9.5663     31.8756    144.3253   8.4581024688e+01   4.1731984130e+01    0.4173794    0.1735627  41.69  0.001068063    2.148    0.534
       412  -9.0515      6.7606    145.4073   9.3590090069e+01   4.3599813802e+01     0.261537    0.1248072  24.57  0.001112066    2.003    0.501
       413  -9.3704      3.0430    142.1555   9.4739569650e+01   4.4742260914e+01    0.4600711    0.1643962  63.43  0.001530603    2.763    0.638
       414  -8.8839    247.0531    143.8221   3.3623048324e+01   9.0694602973e+00    0.2071053    0.1204379 -31.21  0.000612394    1.300    0.231
       415  -8.4884    250.3505    140.9606   3.2723956765e+01   9.0617510970e+00     0.161815    0.1047843 -32.32 0.0004804283    1.134    0.119
       416  -8.7528    165.4601    143.8041   4.6277307462e+01   2.0830623384e+01    0.2354211    0.2081245 -85.96 0.0007187492    1.450    0.310
       417  -9.6701    124.9212    142.3346   5.5068240570e+01   2.8173577069e+01    0.4754094    0.3110717 -81.64  0.001486176    2.564    0.610
       418  -9.0710    122.5708    148.2016   5.6852675166e+01   2.7276694624e+01       0.3293    0.2035274  47.35  0.001489985    1.709    0.415
       419  -7.5133    194.2975    143.6640   4.1031879084e+01   1.6253541852e+01    0.1212841   0.09519788 -63.01 0.0003064887    1.652    0.395
       420  -8.3269     81.0181    142.5269   6.7606225626e+01   3.5650916633e+01    0.2374135    0.1466513  34.52 0.0005611368    1.572    0.364
       421  -8.2424    181.8564    141.3675   4.2703372290e+01   1.8590065489e+01    0.1833315    0.1479291 -43.72 0.0004799432    1.173    0.147
       422  -9.6321     68.0750    153.6979   7.3556085626e+01   3.4703967465e+01    0.4928641    0.2534969  67.82  0.001549229    2.947    0.661
       423 -10.0178     44.9074    139.7834   7.9384003678e+01   4.1525712781e+01    0.5498869    0.2326059  24.45  0.001739739    2.408    0.585
       424  -9.9055     23.5634    138.2707   8.6988200262e+01   4.4233035651e+01    0.6292547    0.2373894  55.47  0.002160163    2.832    0.647
       425  -9.5270     18.6203    138.6535   8.8846789226e+01   4.4562567639e+01    0.3206884     0.202513  25.61 0.0009776112    1.574    0.365
       426  -7.9682    218.5076    138.4666   3.6329920260e+01   1.3544582200e+01    0.1204845   0.09665627 -33.09 0.0001014828    1.047    0.045
       427  -8.1869    207.4574    137.9344   3.7828743089e+01   1.5217333512e+01    0.1655598   0.09310837 -55.18 0.0008048414    2.325    0.570
       428  -8.4977    172.0390    137.9615   4.3798452943e+01   2.0817211488e+01    0.1993753      0.16122 -73.57 0.0005383149    1.628    0.386
       429  -9.5811    112.3369    136.9881   5.7259514051e+01   3.1649972520e+01     0.455096    0.2503642  47.62  0.001181399    1.906    0.475
       430  -9.0324    112.9357    133.0211   5.6247913701e+01   3.2470245517e+01    0.3662756    0.2590153 -86.33  0.000878362    1.988    0.497
       431  -8.4821    197.4279    137.2907   3.9253101309e+01   1.6835265183e+01    0.1786706    0.1530742 -78.53 0.0004049448    1.597    0.374
       432  -9.3901     93.1841    136.1224   6.2607361512e+01   3.5254183296e+01    0.5237857    0.3131494  20.82  0.001818358    2.157    0.536
       433 -10.3688     83.3015    133.2477   6.5121672487e+01   3.7670986577e+01    0.5941388    0.4024317 -68.54  0.001432432    1.563    0.360
       434  -9.1989    248.5302    135.1808   3.1896750238e+01   1.0063034369e+01    0.2471869    0.1285796 -36.33 0.0008148354    1.425    0.298
       435  -9.1738     39.0896    135.9296   8.0987313680e+01   4.3285777647e+01    0.3368928    0.1720402  58.17 0.0007862369    2.130    0.531
       436  -9.5788    153.9944    135.1672   4.6804282693e+01   2.4482515710e+01    0.4895611    0.1665644  38.22  0.001683855    3.429    0.708
       437  -9.4741    128.0447    134.9280   5.2714250769e+01   2.9252481902e+01    0.4907606     0.244602  38.29  0.001990896    2.084    0.520
       438  -8.7231    179.2895    133.6347   4.1562307261e+01   2.0384690810e+01    0.2444672    0.1459921 -50.56 0.0008440345    1.694    0.410
       439  -8.4059    237.3999    133.2147   3.2857366694e+01   1.1751028546e+01    0.1643804   0.08307169 -43.34 0.0005155606    1.681    0.405
       440  -7.7396    231.3034    133.7025   3.3710666599e+01   1.2491910475e+01    0.1092747    0.0795446 -53.70 0.0002215938    1.583    0.368
       441  -7.7341    174.4820    133.4593   4.2396192711e+01   2.1228893786e+01    0.1347807     0.119625 -29.65 0.0002776243    1.032    0.031
       442 -10.2364    132.4247    131.2326   5.0824939289e+01   2.9250195496e+01    0.5450006    0.3806789  79.49   0.00184046    2.232    0.552
       443  -9.1728    142.9873    131.6247   4.8436459909e+01   2.7202847654e+01     0.283623    0.2227702 -66.67 0.0007625961    1.452    0.311
       444  -9.1003    250.7429    129.5297   3.0619567504e+01   1.0554025151e+01    0.3660693   0.07167532 -36.99  0.001394878    3.737    0.732
       445  -8.4065    246.9637    129.7402   3.1083525910e+01   1.1000724272e+01    0.1556542    0.1138643 -34.73 0.0005977864    1.052    0.049
       446  -7.8443    204.7121    130.3231   3.6720275478e+01   1.6850223295e+01    0.1210292   0.08942598 -58.62 0.0002887732    1.604    0.377
       447  -8.2183    192.6069    129.7878   3.8493403363e+01   1.8855483235e+01    0.1809563    0.1060562 -47.04 0.0004055838    1.591    0.371
       448  -9.3229    152.8508    128.9078   4.5674443271e+01   2.5937433820e+01    0.3711643    0.1863789 -54.02  0.001032762    2.198    0.545
       449 -10.1430     99.3250    127.8043   5.9002686586e+01   3.6225458829e+01    0.6193678    0.3905529  87.02  0.001915712    2.691    0.628
       450 -10.6429     61.0935    125.9351   7.1320362390e+01   4.3158382762e+01    0.9556941    0.4438373  60.93  0.003000968    3.298    0.697
       451  -9.5082     50.0433    128.3087   7.5809274882e+01   4.4060708657e+01    0.5150485    0.2578479  73.06  0.001712195    3.020    0.669
       452 -10.6950     44.4971    123.6697   7.7174897349e+01   4.6077068711e+01     1.081942    0.4836189  78.35  0.003078878    4.187    0.761
       453  -9.8147     28.7951    129.5699   8.4090459261e+01   4.6184981936e+01    0.5148337    0.2170253  29.11  0.001968841    2.202    0.546
       454  -9.8303     12.8511    129.0446   9.0239783746e+01   4.7730810355e+01    0.5302683    0.2195356  58.01  0.001965069    2.473    0.596
       455  -8.2596    211.5341    129.0423   3.5466576352e+01   1.6014150524e+01    0.1750007   0.08901682 -53.77 0.0008089241    2.484    0.597
       456  -9.1039    168.2097    129.1510   4.2644342821e+01   2.3115280072e+01    0.2225049     0.198508  85.44 0.0004769545    1.363    0.266
       457  -9.9922    117.7344    125.8374   5.3347399828e+01   3.3237902148e+01    0.5635281    0.4708626 -81.77  0.001667254    1.351    0.260
       458 -10.2112     38.8276    126.6138   7.9819585064e+01   4.5935129455e+01    0.2664404    0.2472345 -74.57 0.0002887317    1.088    0.081
       459  -8.9455    179.2513    124.6317   3.9642253737e+01   2.2001814324e+01    0.2582159     0.200161 -69.74 0.0007456283    1.625    0.385
       460 -10.0223    135.6618    124.2440   4.8462728949e+01   3.0143829662e+01    0.4888974    0.2847642  34.82  0.002067622    1.964    0.491
       461  -9.8438    130.7195    118.2244   4.8232729240e+01   3.2408820674e+01    0.5766584    0.3653658  81.16  0.002126329    3.007    0.667
       462 -10.3450     28.6571    122.4442   8.3276670331e+01   4.8224210182e+01    0.7772505    0.2998877  65.98  0.002268257    3.946    0.747
       463  -7.9462    228.3118    124.6624   3.2354616969e+01   1.4225575169e+01    0.1169641   0.07957193 -55.41 0.0004911238    1.689    0.408
       464  -7.6503    188.3676    123.7202   3.7901826685e+01   2.0594779582e+01    0.1269793   0.09926371 -73.33  0.000701248    1.686    0.407
       465  -9.1822      3.8922    123.2173   9.3361734183e+01   4.9983278840e+01     0.379014    0.1446794  30.07   0.00147337    2.381    0.580
       466 -10.0595    157.6129    121.9109   4.3108751938e+01   2.6434518872e+01    0.4451652     0.279473  38.51  0.001348129    1.794    0.443
       467  -8.3964     84.3249    122.3283   6.2509869146e+01   4.0313360698e+01    0.2915741    0.1576689  30.16 0.0008987343    2.035    0.509
       468  -9.2521     90.3134    120.8840   6.0243245260e+01   3.9603400167e+01     0.452596    0.2581613  32.05  0.001419056    1.895    0.472
       469  -8.5346    171.8656    121.1974   4.0204347666e+01   2.3937816828e+01     0.202006    0.1727975 -57.47 0.0004946789    1.195    0.163
       470  -9.5384     71.2604    120.0449   6.6494579542e+01   4.3153158165e+01    0.4132835    0.2489111  80.31  0.001278198    2.498    0.600
       471 -10.0996    141.5274    118.2962   4.5707859513e+01   3.0258237609e+01    0.4667785     0.277838 -64.19  0.001260939    2.230    0.552
       472  -9.6969    103.8953    118.1483   5.5432465499e+01   3.7716085498e+01    0.7385284    0.3092422  29.42  0.002196246    3.761    0.734
       473  -9.4662    123.4061    118.1253   5.0044355080e+01   3.3882617108e+01     0.485982    0.2087198  38.09   0.00172123    2.618    0.618
       474 -10.0276     19.6593    118.0759   8.6448487322e+01   5.0309902217e+01    0.4506036    0.2297723  14.37  0.001304237    2.182    0.542
       475  -9.5024      2.7479    117.0419   9.3430820765e+01   5.1798051771e+01     0.489339    0.1802566  62.39  0.001712365    2.852    0.649
       476  -9.9140    109.4080    114.0676   5.2843790492e+01   3.7603212168e+01    0.5224352    0.3376664 -76.73  0.001591843    2.200    0.545
       477  -8.1155    193.1116    115.1951   3.5303218434e+01   2.1234848197e+01    0.1759917    0.1363654 -55.31 0.0004152744    1.309    0.236
       478  -7.8765    185.5387    115.5636   3.6585368870e+01   2.2493606995e+01    0.1333936    0.1150564 -45.70 7.868392e-05    1.059    0.056
       479 -10.0889     92.7692    112.4114   5.7459357329e+01   4.1268619271e+01    0.5554876    0.3486295 -76.38  0.001469608    2.146    0.534
       480 -10.0876     62.2583    114.3069   6.8593487072e+01   4.6154673554e+01    0.6664926    0.2744542  28.98  0.002262756    2.606    0.616
       481  -9.9601     66.4502    110.2733   6.6126602941e+01   4.6567557160e+01    0.4401211    0.2976709  81.33  0.001449973    1.876    0.467
       482  -9.2456     69.1985    104.6616   6.3772370374e+01   4.7596255013e+01    0.5970324    0.1945357  31.47  0.001732134    3.518    0.716
       483 -10.0799     33.5065    113.9663   8.0093078435e+01   5.0129010103e+01    0.9406027    0.1454117  28.99  0.002496503    4.446    0.775
       484  -8.3064    167.4942    114.4614   3.9474166447e+01   2.5993813011e+01    0.1394302    0.1254014 -46.77 7.858433e-06    1.022    0.021
       485  -9.8229     79.0297    112.4628   6.2064995673e+01   4.3812598499e+01    0.5491094    0.3528396  81.11  0.001508796    2.274    0.560
       486  -8.4779     75.2134    114.6332   6.3908189764e+01   4.3918824574e+01    0.2216161    0.1523838  24.02 0.0009463438    1.678    0.404
       487 -10.8184    133.9078    109.5727   4.5336439872e+01   3.3623068364e+01    0.7711771    0.3408284 -48.35  0.002920812    2.181    0.541
       488  -9.5386    122.1387    112.4171   4.8970357094e+01   3.5413157389e+01    0.2919559    0.2349135 -69.44 0.0006210569    1.329    0.248
       489 -10.0322     49.6677    112.1063   7.3086639236e+01   4.8632198798e+01    0.5450256    0.2298103  47.67  0.001398292    2.527    0.604
       490  -8.6411    174.8368    111.5848   3.7488628405e+01   2.5142083646e+01     0.275169    0.1537748 -53.01 0.0006511989    1.852    0.460
       491  -8.6658    159.1895    111.6566   4.0397092180e+01   2.8119279836e+01    0.2538922    0.1722572 -52.66 0.0006023776    1.435    0.303
       492  -9.7615     14.4550    111.3402   8.7939271167e+01   5.2657108793e+01    0.4035429    0.1701175  59.86  0.001320346    2.653    0.623
       493 -11.6255    248.5715    105.9471   2.6445081627e+01   1.4034891918e+01    0.7666785    0.2327226 -35.57  0.003548908    2.465    0.594
       494  -9.8009      7.4774    108.9193   9.0775268781e+01   5.3830676628e+01    0.3824632    0.1835412  29.40  0.001091098    2.016    0.504
       495  -8.1714    189.3569    108.1081   3.4313169854e+01   2.3089738287e+01    0.1958557    0.1033586 -47.36 0.0006768924    1.714    0.416
       496  -9.9201    125.5986    106.5862   4.6602988656e+01   3.5985972186e+01     0.437426    0.1867883  33.27    0.0013059    4.004    0.750
       497 -10.1747    113.0970    106.1529   4.9794040713e+01   3.8687013400e+01    0.8316361    0.4357423  32.52  0.003050957    2.532    0.605
       498 -10.4922     45.9111    102.3761   7.2699284156e+01   5.1862040915e+01    0.9343727    0.4303015  62.45  0.002862711    3.533    0.717
       499  -9.4678    139.8892    104.3439   4.2629663958e+01   3.3473909984e+01    0.3545161    0.2528446 -80.72 0.0008889043    1.889    0.471
       500  -9.8212     84.1535    104.4302   5.8310695750e+01   4.4921512391e+01    0.8590571    0.3130656  40.35  0.002803076    2.700    0.630
       501  -9.1203     82.0441     99.9851   5.7879892047e+01   4.6446837165e+01    0.3813947    0.2653704 -84.57 0.0009256894    1.846    0.458
       502 -10.7097     22.5997    102.7479   8.3209199895e+01   5.4436083906e+01    0.7193832    0.4049042  61.09  0.002061169    1.938    0.484
       503  -8.5070    166.7732    104.0587   3.7141530787e+01   2.8058469764e+01    0.2188838    0.1694218 -61.01 0.0005485683    1.325    0.245
       504  -9.5141    150.4391    102.8191   3.9980080852e+01   3.1589726360e+01    0.3558229     0.222156 -60.65 0.0009568043    1.831    0.454
       505  -9.3628     95.2125    103.3532   5.4370090722e+01   4.3014158012e+01    0.6860441    0.2845001  29.19  0.001840781    4.575    0.781
       506  -8.5963      6.9482    102.9708   9.0473542657e+01   5.5559720714e+01    0.2526184    0.1463719  56.14 0.0008150557    1.727    0.421
       507  -9.9348    128.3681    101.7915   4.4661059764e+01   3.6435432873e+01     0.339051    0.2596281  84.60 0.0009677266    1.601    0.376
       508  -8.2611    159.6274    100.7457   3.7649140329e+01   3.0104414820e+01     0.203488    0.1206044 -50.24 0.0004216981    1.598    0.374
       509 -10.1983    108.7199     98.6636   4.9017886243e+01   4.1315872429e+01    0.5662194    0.3726767  77.33   0.00116014    2.221    0.550
       510 -10.1552     63.9608     95.8794   6.3612043293e+01   5.0820293266e+01    0.6304069    0.3719419  87.34  0.001738722    2.829    0.647
       511  -8.0755    198.6946    100.7211   3.1283368593e+01   2.2643864872e+01    0.1197908   0.09691445  -6.24 0.0006967523    1.552    0.356
       512  -8.9999    143.3763     98.6442   4.0388084136e+01   3.3891146375e+01    0.3518844     0.134383  45.62  0.001239633    2.898    0.655
       513  -9.5458    132.3997     96.4893   4.2275748158e+01   3.6682421790e+01    0.5504996    0.1674037  42.09   0.00155611    4.351    0.770
       514  -9.1967     94.9067     96.7371   5.2667110545e+01   4.4667969741e+01    0.3017375    0.2244535 -64.73 0.0006323289    1.398    0.285
       515  -9.3028      9.8265     96.1889   8.8402758451e+01   5.7310712825e+01    0.5071145    0.2024672  10.51  0.001853103    2.851    0.649
       516  -9.8100    147.3180    110.4512   4.2535905553e+01   3.0711567724e+01    0.4894239    0.1675046  41.09  0.001582683    3.635    0.725
       517  -8.3179    164.5556     94.0168   3.5057123523e+01   3.0336769614e+01    0.2172963    0.1263796 -41.90 0.0004388245    1.543    0.352
       518  -8.3060    176.4656     93.0154   3.2802175776e+01   2.8107711095e+01    0.2134558    0.1186713 -42.98 0.0005269951    1.560    0.359
       519  -9.1802    138.8840     91.9526   3.9573682804e+01   3.6189096175e+01    0.3579131    0.2249929 -66.13 0.0007026694    1.978    0.494
       520 -10.3794    124.1539     90.9657   4.2733953952e+01   3.9638693969e+01    0.4549856    0.4237971  69.72  0.001137261    1.089    0.082
       521  -8.6184    107.7137     92.2435   4.7497570658e+01   4.2983043279e+01    0.2781833    0.2512474  21.48 0.0009182168    1.313    0.239
       522  -9.5548    111.9829     90.5153   4.5794408674e+01   4.2429901081e+01    0.3979417     0.152608  47.55   0.00130539    2.657    0.624
       523  -9.2454      5.1075     91.9078   9.0268008887e+01   5.8808093040e+01    0.3274899    0.1574356  55.54 0.0009413105    2.197    0.545
       524  -9.4551     34.8566     89.5858   7.5031081431e+01   5.6849394557e+01    0.4959879    0.2723094  75.86  0.001608775    2.581    0.613
       525  -9.1520     29.1412     90.7051   7.8053989529e+01   5.7193702369e+01    0.3502457    0.2013475  25.33 0.0009595373    1.778    0.438
       526  -9.3807     23.5271     89.6792   8.0653390965e+01   5.8054975715e+01     0.469561    0.2809255   7.42  0.002017334    1.981    0.495
       527  -8.1508    151.3450     89.1577   3.6247014963e+01   3.4016902363e+01    0.2204624    0.1188874 -50.49 0.0005075107    1.783    0.439
       528  -8.7185     99.3273     89.3269   4.9143388226e+01   4.5463569908e+01    0.3517592    0.1971272  32.67  0.001226606    2.364    0.577
       529  -9.9918     86.5392     86.4249   5.2448611962e+01   4.8860807889e+01    0.5861586    0.3866983  88.60  0.001502376    2.337    0.572
       530  -9.5475     91.3209     79.0469   4.8526111368e+01   4.9539718773e+01    0.8734358    0.2751386  36.50  0.001925622    6.587    0.848
       531  -9.6465     69.2518     86.1041   5.8778866413e+01   5.2382765746e+01     0.994783    0.2586527  32.98  0.002245406    5.991    0.833
       532  -9.8845    141.3553     81.7876   3.6218647535e+01   3.7608934484e+01    0.6880078    0.2942034 -38.03  0.002032853    2.348    0.574
       533  -9.1035     12.4510     85.1013   8.5625102515e+01   6.0268011353e+01    0.5628704    0.1930178  26.32  0.002039276    2.723    0.633
       534  -8.8057      9.9444     80.7819   8.6341674748e+01   6.1647766644e+01    0.3208955     0.125037  43.82  0.001175072    2.670    0.626
       535  -8.1292    157.8762     83.7715   3.3588286503e+01   3.3591674598e+01    0.1992461    0.1510747 -63.15 0.0004514366    1.312    0.238
       536  -9.6740    104.7205     82.8861   4.5575811551e+01   4.5712582104e+01    0.4534594    0.2892422 -72.36  0.001096331    2.128    0.530
       537  -9.4549    130.5337     82.5081   3.8776710711e+01   3.9923138327e+01    0.4692918    0.1483298  52.81  0.001495148    3.272    0.694
       538  -9.3822     24.6937     80.7353   7.8313489074e+01   6.0431477351e+01    0.4575333    0.2577106  69.51  0.001285254    2.273    0.560
       539  -8.3690    150.4899     80.4776   3.4050244685e+01   3.5805817441e+01    0.2771935    0.1148051 -49.68  0.001001613    2.401    0.584
       540  -8.5847     74.7224     80.3614   5.4876998157e+01   5.2730980370e+01    0.2803187    0.1901822 -66.91 0.0006484835    1.638    0.390
       541 -10.1223     51.7386     93.0107   6.8024386127e+01   5.3582167992e+01     1.075407    0.2302546  41.30  0.002812199    4.335    0.769
       542  -8.6758    119.1763     79.7663   4.0687267692e+01   4.3075136846e+01    0.2813496    0.1918452 -56.77 0.0009136451    1.477    0.323
       543  -8.8116     40.2856     80.1563   7.0093827852e+01   5.8714690016e+01     0.297179    0.1847778   9.20  0.001211825    2.131    0.531
       544  -8.0184    184.2251     77.9871   2.7943004214e+01   2.9052672864e+01    0.1814748   0.09696577 -39.06 0.0006418713    1.610    0.379
       545  -9.3198     54.9260     76.7088   6.2066705203e+01   5.7337420907e+01    0.5882785    0.1760854  37.37  0.001800832    3.203    0.688
       546  -8.0747    157.0000     76.0058   3.1638949012e+01   3.5154814338e+01    0.2335698   0.07540532 -38.46 0.0004568189    2.847    0.649
       547  -9.2395    128.1450     75.1237   3.7120390912e+01   4.1909724222e+01    0.3727858    0.2272045 -59.68 0.0008431051    1.796    0.443
       548  -9.4066    108.4644     75.9860   4.2340306417e+01   4.6325081364e+01    0.6954111    0.2663374  50.59  0.002379333    2.624    0.619
       549  -8.7415    105.9968     71.9314   4.1711189869e+01   4.7732063036e+01    0.2962506    0.1887915 -69.33 0.0009249485    2.017    0.504
       550  -9.7372     48.4400     84.0025   6.7186134917e+01   5.6499553768e+01     0.598555     0.343185  72.05    0.0017259    2.777    0.640
       551  -9.9052     63.1891     73.5461   5.7368606406e+01   5.6628493825e+01    0.4745307    0.3108976 -74.05  0.000985563    1.921    0.479
       552  -9.5581     82.3773     72.3319   4.9375974528e+01   5.2997375505e+01    0.3911585    0.2716776 -72.94 0.0009677043    1.775    0.437
       553  -8.3135    163.4177     73.2110   2.9804748856e+01   3.4217443980e+01     0.214461    0.1131015 -48.60 0.0009503078    1.722    0.419
       554  -7.9016    151.2957     73.6270   3.1984717766e+01   3.6847393455e+01     0.156934    0.1012369 -65.87 0.0007026746    1.737    0.424
       555  -8.5728    115.6063     72.7333   3.9395784641e+01   4.5316390329e+01    0.2699065    0.1806961 -54.01 0.0005121423    1.482    0.325
       556  -8.1281     76.9698     74.0000   5.1938642670e+01   5.3769810328e+01    0.2622566   0.08787118  43.58 0.0008062071    2.969    0.663
       557  -8.9125     95.0223     70.9383   4.4643540636e+01   5.0478477850e+01    0.3561735     0.212178 -55.52 0.0008085666    1.769    0.435
       558  -7.9583     42.6634     72.3574   6.6686461662e+01   6.0422010941e+01    0.1643061    0.1131667  68.39 0.0007040692    1.808    0.447
       559  -9.4231     51.5651     69.6761   6.1395746756e+01   5.9673257624e+01    0.4457795    0.2625209 -77.61  0.001324816    2.459    0.593
       560  -8.4029      2.1861     71.4353   8.9486603111e+01   6.4665753095e+01    0.2006397      0.11934  31.65 0.0009416674    1.735    0.424
       561  -8.9034     16.6008     69.8566   8.0574438837e+01   6.4159646691e+01     0.287384    0.1976164  68.71 0.0007595442    1.641    0.391
       562  -9.1158    147.1133     68.0235   3.1130101207e+01   3.8779066829e+01    0.2934165    0.1870229 -50.11 0.0006725204    1.449    0.310
       563  -8.7865    133.4296     68.0000   3.3785021577e+01   4.1991549649e+01    0.3235706   0.08380077  57.34 0.0009388193    3.968    0.748
       564  -9.8385    137.6717     64.7476   3.1927383870e+01   4.1561901480e+01    0.5415149    0.2585947 -62.29  0.001858913    3.085    0.676
       565  -8.8914    110.0634     63.5186   3.7774442739e+01   4.8423641853e+01    0.2917912    0.1966477 -59.67 0.0006876045    1.564    0.361
       566  -9.5643     97.5633     61.3833   4.0506993613e+01   5.1830372779e+01    0.4665547    0.3323306 -40.30  0.001764695    1.464    0.317
       567  -8.6143     37.3046     64.1341   6.6975611948e+01   6.3304079487e+01    0.2841767    0.1750314  56.99  0.001203258    1.980    0.495
       568  -9.1237     67.1617     61.7194   5.1464114585e+01   5.8589092691e+01    0.5804561    0.2107698  36.72  0.001765399    3.460    0.711
       569  -8.0495    158.3187     61.6987   2.7415587949e+01   3.7251457178e+01    0.1491269   0.09719323 -66.93 0.0004517419    1.622    0.384
       570  -9.6175     73.2303     59.1797   4.8018569524e+01   5.7852947782e+01    0.4235457    0.2584081 -59.59  0.001035483    1.873    0.466
       571  -8.8829     54.5080     61.0000   5.6903408107e+01   6.1232823970e+01    0.3335771   0.08491693  38.88  0.000930229    3.898    0.743
       572  -9.4088     31.6805     68.6339   7.1497495493e+01   6.2901101370e+01    0.4348273    0.2360656  -0.85  0.001545912    3.086    0.676
       573  -7.9965     88.7122     59.3057   4.2504924869e+01   5.4327112271e+01    0.1548188    0.1171073 -82.50 0.0003149383    1.569    0.363
       574  -9.9722     23.4348     56.1689   7.2752489924e+01   6.7091353453e+01     0.517409    0.2951598  74.95   0.00200056    2.805    0.643
       575  -8.6386    121.8608     65.8911   3.5661832193e+01   4.5138640019e+01    0.2436164    0.1705054 -73.89 0.0006116342    1.651    0.394
       576  -7.9179    114.3155     57.3504   3.4575351657e+01   4.8524235609e+01    0.1489611    0.1214943  17.63 0.0007047023    1.730    0.422
       577  -8.6121     40.9695     58.0000   6.2811515571e+01   6.4266442936e+01    0.2445681   0.08332165  33.45 0.0008019732    2.939    0.660
       578  -9.4461      7.3725     56.7312   8.3679509525e+01   6.8345635210e+01    0.3067173    0.1983615  58.62  0.001160541    1.764    0.433
       579  -8.4011    140.3588     56.2036   2.8775382670e+01   4.2359535108e+01    0.2124998    0.1173435 -48.20 0.0003755268    1.686    0.407
       580  -8.5843    119.3012     55.5065   3.2776738737e+01   4.7621055648e+01    0.2600474     0.161411 -60.36 0.0006394349    1.746    0.427
       581  -8.8431     44.1888     55.4424   6.0070381326e+01   6.4349161696e+01    0.2825767    0.1967916 -77.93 0.0008732967    1.851    0.460
       582  -9.1663    250.0168     54.9825   1.6304995761e+01   2.0451710594e+01    0.1371176    0.1009225 -48.09  0.001001347    1.054    0.051
       583  -9.0817     62.8995     54.6293   5.0510558272e+01   6.1011225015e+01    0.2884794    0.2164234 -60.31 0.0007282281    1.425    0.298
       584  -9.0444     54.0960     53.7331   5.4249306901e+01   6.2956614168e+01    0.3642227    0.1978285 -68.22  0.001200494    2.894    0.654
       585  -8.4454    105.6913     53.1360   3.5224069793e+01   5.1395499201e+01    0.2425431    0.1755577 -60.66  0.000542835    1.425    0.298
       586  -9.3428     92.3579     50.3598   3.7900748656e+01   5.5158968286e+01    0.3965711    0.2273556 -54.66   0.00137682    1.921    0.480
       587  -8.8377     76.5987     50.4470   4.3213159743e+01   5.8870656973e+01    0.5070544    0.1765671  39.21  0.001379331    4.534    0.779
       588  -8.9223    129.5387     49.5011   2.8608720879e+01   4.6083992188e+01    0.2948754    0.1391144 -36.16  0.001137224    2.097    0.523
       589  -8.2192    144.7563     49.0310   2.5786582804e+01   4.2428585977e+01    0.1876127    0.1129642 -38.91 0.0007078344    1.569    0.362
       590  -9.6768     13.0072     47.0000   7.7134954235e+01   7.0431553970e+01    0.3315405    0.1681531   0.07  0.001352853    2.500    0.600
       591  -8.5234    163.6156     48.2001   2.2798040704e+01   3.8096009025e+01     0.188645    0.1274787 -25.78 0.0009459028    1.695    0.410
       592  -7.9538    120.7336     47.3438   2.9623405776e+01   4.8622554799e+01     0.155146    0.1031817 -65.52   0.00040545    1.605    0.377
       593  -8.2725    112.4331     46.9195   3.1284552678e+01   5.0773760327e+01    0.2171826    0.1081291 -57.41 0.0008050823    2.415    0.586
       594  -8.8964     82.1383     46.3464   3.9526995832e+01   5.8343510954e+01    0.2842108    0.2076969 -53.29 0.0006753292    1.417    0.294
       595  -8.5101     45.2384     44.6456   5.4941752261e+01   6.6580042774e+01    0.2544071    0.1790341 -65.57 0.0006965161    1.687    0.407
       596  -9.1805     16.7022     44.3926   7.3522478279e+01   7.0732338346e+01    0.2363655    0.1720589 -82.93 0.0006259976    1.586    0.370
       597  -9.0458    132.7363     42.9840   2.5835410451e+01   4.6292270734e+01    0.2073343    0.1771396 -55.14 0.0003743668    1.103    0.094
       598  -8.7367     58.0620     42.4332   4.7365141850e+01   6.4509724396e+01    0.2836941    0.2042818 -64.94  0.001121707    1.671    0.401
       599 -10.1844      4.9762     41.2878   8.1730947518e+01   7.2450515552e+01    0.4611191    0.2229438 -87.36  0.001887077    2.632    0.620
       600  -8.9862     94.6625     42.4750   3.4053995655e+01   5.5956832189e+01    0.5716928    0.1465939  59.56   0.00162596    3.945    0.747
       601  -9.4130     69.5379     41.2855   4.1896210647e+01   6.2202746825e+01    0.3374576    0.2411807 -66.16 0.0009305418    1.689    0.408
       602  -8.5945    105.9522     41.0016   3.0556776204e+01   5.3354597138e+01    0.2409057    0.1632001 -68.97 0.0005361145    1.646    0.393
       603  -8.3963     36.7278     40.5668   5.8063709250e+01   6.8932420179e+01    0.2306873     0.178131 -82.87 0.0008432447    1.702    0.413
       604  -8.5447    155.6498     39.2190   2.1196783770e+01   4.1230964999e+01    0.1835311    0.1268857 -26.61 0.0007830958    1.626    0.385
       605  -8.4415    126.3590     39.3020   2.5698219705e+01   4.8434391738e+01    0.1442887    0.1096564  36.70  0.000703769    1.718    0.418
       606  -8.3252     95.5818     37.8270   3.1879442026e+01   5.6472206550e+01    0.2067834    0.1288232 -50.40  0.000581575    1.651    0.394
       607  -7.8563     48.4866     38.4610   5.0223329921e+01   6.7233417054e+01    0.1421783     0.137001  46.81 0.0001460882    1.014    0.013
       608  -9.1497     21.5277     37.4677   6.7146082607e+01   7.1828571693e+01    0.3356398    0.1551012  35.71  0.001429331    2.116    0.527
       609  -8.0575    133.6568     36.2818   2.3414048586e+01   4.7026138680e+01    0.1524085   0.09668814 -69.35 0.0007012588    1.635    0.388
       610  -9.5517     26.1071     35.1687   6.2664015031e+01   7.1734246282e+01    0.3235871    0.2478957  88.50 0.0009674037    1.793    0.442
       611  -8.2861    125.5955     35.4935   2.4486343133e+01   4.9171377866e+01    0.1441086    0.1277132 -73.75 7.591148e-05    1.019    0.019
       612  -8.8003     73.4687     34.6976   3.7315050018e+01   6.2419548431e+01    0.3935842    0.2088613  59.07  0.001664714    1.836    0.455
       613  -8.9836     72.4238     31.1753   3.5977278241e+01   6.3233331550e+01    0.2653458    0.1245147 -47.70 0.0008421425    2.366    0.577
       614  -8.3305    111.9716     34.4750   2.6690715530e+01   5.2794678143e+01    0.2039319    0.1158162 -82.24 0.0004335294    2.306    0.566
       615  -9.5841      8.7194     34.1426   7.6249431708e+01   7.3921654530e+01    0.3610958    0.1786522  22.17  0.001415044    1.988    0.497
       616  -8.4476    119.3624     33.1730   2.4759523456e+01   5.1083261380e+01    0.2111658    0.1151742 -46.39 0.0004787603    1.757    0.431
       617  -8.7300     48.4942     33.0263   4.7420142490e+01   6.8266641854e+01    0.2595035    0.1939699  63.61 0.0006864619    1.511    0.338
       618  -8.0277     98.9374     33.0000   2.9006495278e+01   5.6345951936e+01    0.2385931   0.07874667  63.03  0.000520424    2.866    0.651
       619  -8.6388     60.6603     32.2225   4.1142825749e+01   6.5802878534e+01    0.2171319    0.1739954 -61.70 0.0006695957    1.398    0.285
       620  -9.4142     12.9674     29.9956   7.0795716846e+01   7.4492379932e+01    0.3646868    0.1989105 -82.58  0.001483478    2.985    0.665
       621  -8.0064    101.4985     29.4803   2.6934998076e+01   5.6185342267e+01    0.1479306    0.1298514 -83.20 4.957453e-05    1.056    0.053
       622  -8.7578     81.3949     27.2139   3.1119145119e+01   6.1619947135e+01    0.2754644    0.1949482 -67.99 0.0007540291    1.623    0.384
       623  -9.5664      3.5736     27.3489   7.8440264300e+01   7.5900610934e+01    0.2989339    0.1954622  87.50  0.001262896    1.967    0.492
       624  -8.5017     91.8747     26.1586   2.7771247758e+01   5.9108621444e+01     0.229712    0.1783313 -71.13 0.0006371851    1.329    0.248
       625  -8.3767     64.0779     26.4998   3.6704462422e+01   6.5936939858e+01    0.2236387    0.1334972  57.08 0.0007562976    1.575    0.365
       626  -9.1951     76.0915     25.2704   3.1797709046e+01   6.3214504320e+01    0.3144309    0.1726307  50.20  0.001244304    1.756    0.431
       627  -8.1928    104.4336     23.6972   2.3893131945e+01   5.6185167134e+01    0.2732157    0.1279401 -35.68  0.001147054    2.110    0.526
       628  -8.2951     34.2360     22.9924   5.0114489616e+01   7.2837495596e+01     0.176039    0.1140619 -42.94 0.0008783402    1.614    0.381
       629  -8.7341     63.7912     21.0772   3.3843939881e+01   6.6794280232e+01    0.2750424    0.1807802 -49.73 0.0008484505    1.686    0.407
       630  -8.6125     48.3792     21.2900   4.0751718985e+01   7.0282828158e+01    0.2268521    0.1711679 -50.14  0.000834748    1.475    0.322
       631  -9.5295     16.9860     22.4882   6.3306922395e+01   7.5650260393e+01    0.2775594    0.1069705  38.00   0.00111984    2.558    0.609
       632  -8.7966    120.8207     21.6048   2.0178633406e+01   5.2192978978e+01    0.1911685    0.1220738  89.27 0.0003397567    1.530    0.347
       633  -8.7644     74.0934     19.4874   2.9453619534e+01   6.4487357881e+01    0.2688147    0.1798574 -52.37 0.0008031105    1.632    0.387
       634  -8.5176     38.7711     18.9479   4.4606959584e+01   7.2654477839e+01    0.2429762    0.1743106  61.73  0.001259903    1.576    0.366
       635  -8.0957     87.7330     17.3603   2.4691250640e+01   6.1280199332e+01    0.1475722   0.09789854 -62.56 0.0003269174    1.642    0.391
       636  -8.1350     30.2288     15.9963   4.8243157097e+01   7.4775453299e+01    0.1682461    0.1101612 -39.94 0.0006126608    1.609    0.378
       637  -8.4159    212.9610     14.7532   9.8709078170e+00   3.1690618468e+01    0.1626227    0.1188808 -57.96 0.0002143805    1.044    0.043
       638  -8.1552     97.0000     15.0127   2.1601708338e+01   5.9141734169e+01     0.210149    0.0802617 -26.51 0.0005352671    2.843    0.648
       639  -8.3047     53.5140     14.6969   3.4207714513e+01   7.0073054116e+01    0.2491313    0.1169414  58.39  0.001059961    1.981    0.495
       640  -8.6251     77.5240     12.9871   2.5045680263e+01   6.4397481082e+01    0.2437941    0.1613345  68.31  0.001198302    1.372    0.271
       641  -8.6069    153.0215    249.5272   6.5502629908e+01   4.5817875979e+00    0.1677935   0.08820017  24.04 0.0004744454    1.541    0.351
       642  -8.4494    156.2666    247.6642   6.4661543583e+01   4.5114934603e+00    0.1606078     0.152756 -11.21 0.0006439755    1.435    0.303
       643 -10.5938     65.2534    247.9337   8.3937794275e+01   1.4119068196e+01    0.3860271    0.2980248 -12.88  0.000852193    1.595    0.373
       644  -8.9679    203.5049    247.8169   5.6309767275e+01  -4.6101483159e-02    0.2115531     0.103265   9.42   0.00130374    1.975    0.494
       645  -8.7932    175.6314    247.5880   6.1063772289e+01   2.5855971924e+00    0.2278229    0.1563544  48.94  0.001230304    2.622    0.619
       646 -10.1196    144.8690    247.0282   6.6798097025e+01   5.7833763520e+00    0.3723391     0.212514   8.09  0.001393166    1.710    0.415
       647  -9.0008     34.4286    247.5589   9.0910640966e+01   1.7212625246e+01    0.2146512    0.1505325  36.51 0.0005778502    1.073    0.068
       648  -9.6608     21.0653    247.8019   9.3940950479e+01   1.8373812189e+01    0.2436192    0.1515533  31.93 0.0004016472    1.230    0.187
       649  -9.2604    210.9493    246.4254   5.4927722381e+01  -5.3760283665e-01    0.1623922     0.127009 -32.02  0.000732863    1.607    0.378
       650  -8.2833    168.9794    247.4384   6.2253936504e+01   3.2602869500e+00    0.1681314   0.08645074  23.69  0.001031619    1.611    0.379
       651 -10.0919    120.2009    245.4583   7.1653590135e+01   8.6611460899e+00    0.3322424    0.2159824  60.11  0.001887348    2.459    0.593
