#   1 NUMBER                 Running object number                                     
#   2 MAG_AUTO               Kron-like elliptical aperture magnitude                    [mag]
#   3 X_IMAGE                Object position along x                                    [pixel]
#   4 Y_IMAGE                Object position along y                                    [pixel]
#   5 X_WORLD                Barycenter position along world x axis                     [deg]
#   6 Y_WORLD                Barycenter position along world y axis                     [deg]
#   7 A_WORLD                Profile RMS along major axis (world units)                 [deg]
#   8 B_WORLD                Profile RMS along minor axis (world units)                 [deg]
#   9 THETA_WORLD            Position angle (CCW/world-x)                               [deg]
#  10 FWHM_WORLD             FWHM assuming a gaussian core                              [deg]
#  11 ELONGATION             A_IMAGE/B_IMAGE                                           
#  12 ELLIPTICITY            1 - B_IMAGE/A_IMAGE                                       
         1 -10.3125    110.7786     39.9830   1.7172442847e+01   5.1695333513e+01     1.154946     0.700509 -28.18  0.005328139    1.870    0.465
         2 -11.7141      3.7912     36.2622   6.5139041253e+01   7.1158673461e+01     1.157918    0.4403299 -33.34  0.004862959    2.553    0.608
         3 -11.1695     78.9097     35.4905   2.4772912655e+01   5.9907985948e+01    0.7491044    0.5194261 -31.22  0.003694182    1.565    0.361
         4 -11.9493    104.6746     13.1729   8.3646002602e+00   5.6413653107e+01    0.4714599    0.3610495  -2.13  0.001767035    1.615    0.381
         5 -12.3385    113.1154     24.9939   1.1112916795e+01   5.3034002822e+01     1.184136    0.3501655  52.08  0.004140083    2.907    0.656
         6 -12.5717    105.8057     20.0638   1.0820427992e+01   5.5422825720e+01    0.3388611     0.307399 -75.48 0.0004321465    1.177    0.150
         7 -11.2978    155.2500     22.1939   3.2155479139e+00   4.2715928340e+01     1.387249    0.3927726 -37.51  0.005211848    3.118    0.679
         8 -12.2418     58.4062     29.0466   2.9884655916e+01   6.5196187125e+01    0.7232818    0.3745747 -22.06 0.0004731031    2.536    0.606
         9 -11.2024     49.7703     29.5766   3.4152792401e+01   6.6755869716e+01    0.9088045    0.5255283  16.32   0.00396729    2.376    0.579
        10 -11.3764     20.3764     22.0278   4.7543593319e+01   7.2491763253e+01    0.6716719    0.3739296 -22.34   0.00170192    1.998    0.500
        11 -10.8954      5.5204      9.4802   5.2146429302e+01   7.6240008558e+01    0.4355271    0.3193844 -37.65  0.002217547    1.307    0.235
        12 -11.0021      9.4971     19.3978   5.4163800143e+01   7.4114653569e+01    0.4187686    0.2528386 -17.76  0.001211265    1.618    0.382
        13 -10.8532     12.9939      8.5288   4.5420775341e+01   7.5614791128e+01    0.3586006    0.2976316 -26.01  0.001484715    1.241    0.194
        14 -11.7950     16.0645     14.2504   4.6444184921e+01   7.4329819556e+01    0.9143226    0.3914931 -29.68  0.004022771    2.712    0.631
        15 -12.1051     22.7429     11.0317   3.9738129233e+01   7.3970621457e+01    0.6217168    0.3827275  -4.55  0.002161899    1.878    0.468
        16 -10.9872    133.8349     22.0264   6.2416955909e+00   4.8114268783e+01    0.4784565    0.3697542  89.00  0.001767051    1.228    0.186
        17 -11.7642    127.6901     16.3974   5.3439699332e+00   5.0269630925e+01    0.5449551     0.532138   8.61 0.0008601613    1.215    0.177
        18 -11.3345    135.9863     14.7032   3.5151901012e+00   4.8336152008e+01     0.488706     0.322827  62.74  0.001751256    1.355    0.262
        19 -11.4976     36.3293     18.4669   3.5505096237e+01   7.0785399897e+01    0.6514803    0.4278324 -31.08  0.002398329    1.564    0.360
        20 -12.3086     48.7481     12.7929   2.5846336375e+01   6.9300761007e+01    0.6902743     0.271999  48.83  0.002965671    2.278    0.561
        21 -10.4353     68.3776     19.9957   2.1479177748e+01   6.4333419590e+01    0.3654096    0.3073237 -31.04  0.001989484    1.335    0.251
        22 -12.0092    164.8827     17.9257   8.4861526032e-01   4.0816048205e+01    0.5726382    0.2784706  47.82  0.002552147    2.525    0.604
        23 -11.0298     86.0810     13.9133   1.3061161325e+01   6.0918467380e+01    0.7777634    0.3890141  23.73  0.003002299    3.244    0.692
        24 -10.6792     88.9980      8.4140   9.8871729230e+00   6.0739888183e+01    0.4164962    0.3230413 -66.69  0.002364018    1.548    0.354
        25 -10.4326    196.5872     14.7733   3.5707946964e+02   3.3767818436e+01    0.3641801    0.1689151 -59.06  0.001495734    2.003    0.501
        26 -10.4642    186.8379     14.9346   3.5792061145e+02   3.5948563422e+01    0.2371662    0.1992835  64.09 0.0007491349    1.340    0.254
        27 -11.7885    192.0163      9.3490   3.5613412228e+02   3.5352032130e+01    0.7454644     0.496492  -2.44  0.004023484    2.498    0.600
        28 -11.8276    241.4732     15.2001   3.5421458769e+02   2.4550160092e+01    0.3773401     0.196004  66.68 0.0005930709    2.152    0.535
        29 -11.9601    227.9595     14.8203   3.5492020743e+02   2.7182777327e+01    0.4264371    0.2198137 -77.04  0.001221352    1.865    0.464
        30 -10.3910    219.2808     12.6254   3.5499465647e+02   2.9159963503e+01    0.2153543    0.1882098  71.18   0.00155876    1.395    0.283
        31 -10.5432    120.9294     11.5830   4.7694561647e+00   5.2458159427e+01     0.350503    0.2013267  77.34  0.001170828    1.624    0.384
        32 -11.6852    212.1330      9.1940   3.5470216888e+02   3.0998317469e+01    0.4392855    0.3077676 -11.94  0.001818097    2.113    0.527
        33 -10.7266    218.5172      3.4341   3.5307973130e+02   3.0261999747e+01    0.2400181    0.1879571  77.62 0.0005986433    1.368    0.269
        34 -10.7572    223.5813      2.4531   3.5260269000e+02   2.9336331731e+01    0.2516885    0.1700248 -80.90 0.0005338168    1.263    0.208
        35 -11.3704    168.3258      9.5573   3.5819667063e+02   4.0840375375e+01    0.5823364    0.2286686  68.60  0.002612869    2.215    0.549
        36 -11.3508     64.2024     10.0255   1.7988865167e+01   6.6378545838e+01    0.3135242    0.2336784  65.99 0.0002402227    1.433    0.302
        37 -10.4821     63.3545      6.5006   1.6443447029e+01   6.6917843507e+01    0.3516964    0.2171807  63.41  0.001833137    1.618    0.382
        38  -9.6415    145.3035      9.3939   6.1060550286e-01   4.6505394740e+01    0.2911611    0.1828295  15.35  0.001386075    2.590    0.614
        39 -11.1853    155.3268      6.4491   3.5861440611e+02   4.4293978564e+01    0.5782002    0.3491272  58.90  0.003103159    1.617    0.382
        40 -10.0424      1.2381      7.5095   5.4785371900e+01   7.6948773343e+01     0.283806   0.08631153 -50.89  0.001034064    3.008    0.668
        41 -10.4163      1.8487      2.1714   5.1007066983e+01   7.7792859091e+01    0.2571138    0.1519335 -29.57   0.00111765    1.498    0.333
        42  -9.6658     77.9279      7.2396   1.2234957122e+01   6.3505162994e+01    0.1957936    0.1825352 -60.42 0.0005797489    1.266    0.210
        43  -9.7995     75.4458      2.9057   1.0840102915e+01   6.4468345616e+01    0.3722593     0.200679  70.07  0.001787892    1.852    0.460
        44 -10.6763    235.4894      4.5075   3.5241625803e+02   2.6801835597e+01    0.1877512    0.1290181  77.34 0.0009372226    1.530    0.347
        45 -10.8367    184.7678      6.0455   3.5587946732e+02   3.7324895981e+01     0.423841    0.1960818 -58.36  0.001857861    2.000    0.500
        46  -9.6998    122.3817      5.4348   2.3707159450e+00   5.2641521636e+01    0.2683588    0.1367531 -13.94  0.001220843    2.602    0.616
        47 -10.7115    247.4734      5.5286   3.5204603290e+02   2.4466078115e+01    0.1767927    0.1677602 -81.47  0.000767271    1.439    0.305
        48 -11.2239    243.6794      3.9849   3.5192573455e+02   2.5318002253e+01    0.2874095    0.1460023 -70.71  0.001437769    1.691    0.409
        49  -9.6518    175.8676      5.8808   3.5655054709e+02   3.9405799623e+01    0.1863773    0.1573061  73.30 0.0005746892    1.229    0.186
        50  -9.7753    165.0624      4.2117   3.5704383245e+02   4.2131572729e+01     0.238797    0.1501884  24.65  0.001179641    2.648    0.622
        51 -10.2004    142.0009      2.6867   3.5892541028e+02   4.7931448621e+01     0.264687    0.2237802 -50.51  0.001227833    1.246    0.197
        52 -11.0579    137.8950      4.0019   3.5981730437e+02   4.8847340310e+01     0.246267    0.2231614  89.42 0.0003548142    1.089    0.082
        53 -11.5959    132.1953      2.7600   1.1826097483e-01   5.0386208359e+01     0.552353    0.2630677  77.36   0.00182111    1.857    0.462
        54 -10.9896    232.9769      6.9879   3.5303810243e+02   2.7030271831e+01    0.2372939    0.1281222 -76.18  0.001439886    1.656    0.396
        55 -10.5595     41.5488      3.8536   2.4054213648e+01   7.1721779843e+01    0.3527811    0.1913183  27.33  0.001394402    1.925    0.481
        56  -9.9045     28.9065      1.4453   2.9490794563e+01   7.4284210263e+01    0.1761007    0.1520234  32.95 0.0003979831    1.239    0.193
        57 -11.2389    205.8757      2.1630   3.5352974274e+02   3.3027288316e+01    0.4213643    0.2032739 -88.17   0.00136423    1.930    0.482
        58 -10.7482    113.7700      2.3669   2.5811057966e+00   5.5073161138e+01    0.4713366    0.2438528  86.61  0.001481581    2.045    0.511
        59  -9.9906    105.4612      1.7317   3.7168633536e+00   5.7215786440e+01    0.2614068    0.1681546  81.47 0.0009371081    1.467    0.318
        60  -9.1327     33.9887      1.8942   2.6801059067e+01   7.3343562661e+01    0.1988819    0.1240151  17.32 0.0006562734    1.668    0.401
        61  -9.5309     12.5093      1.9812   4.1542385674e+01   7.6659883586e+01    0.1882659    0.1346095  16.25 0.0006671023    1.191    0.161
        62  -9.1227    186.3088      1.3080   3.5459911451e+02   3.7424147074e+01    0.1133886   0.08782341  51.24 0.0002633363    1.615    0.381
        63  -9.4244    152.0540      1.3922   3.5747501914e+02   4.5548968940e+01    0.1912631    0.1073493  78.01 0.0004261958    1.529    0.346
        64  -9.3661    123.6438      1.2729   7.3920349624e-01   5.2665374258e+01    0.2447543   0.09805683  70.87   0.00104722    2.071    0.517
        65  -9.4125     30.5073      4.4966   3.0541712220e+01   7.3648594687e+01      0.16074    0.1154043 -36.05 0.0009628714    1.643    0.391
        66 -10.5292     43.8476    117.6760   6.4582134803e+01   4.7633128211e+01    0.5372384    0.2610446 -75.27  0.002034696    2.375    0.579
        67 -10.4407     58.5384    115.3764   5.8585976160e+01   4.6327905278e+01    0.3466612    0.2490248 -56.47 0.0001033079    1.350    0.259
        68  -9.9015     79.6829    115.0857   5.0877015536e+01   4.3049746512e+01    0.3963388    0.3058399  60.63  0.001840819    1.475    0.322
        69 -10.8578     12.8309    111.3851   7.5637024016e+01   5.2176347111e+01    0.4998027    0.2236446 -74.69  0.001465964    2.046    0.511
        70 -10.5390     16.3081    109.1224   7.3961171843e+01   5.2535311944e+01    0.4926015    0.2714693 -68.92  0.001838075    1.619    0.382
        71 -11.2870      7.9686    114.9548   7.7937518183e+01   5.1538224260e+01     0.316256    0.2352069 -53.38 0.0003275764    1.269    0.212
        72 -12.1410      2.7971    111.3047   7.9527726042e+01   5.2788581436e+01    0.4606507    0.3597576  77.09  0.001304427    1.273    0.214
        73 -11.5456      4.2874    105.4403   7.8308143762e+01   5.4251927568e+01    0.4448229    0.4021734  46.03  0.002756396    1.207    0.171
        74 -10.8077     35.1869    103.0773   6.5252775186e+01   5.2468038684e+01    0.6884079    0.3099009   6.81  0.001608696    3.343    0.701
        75 -10.9688     24.5031    102.4848   6.9586402124e+01   5.3645679602e+01    0.4931576    0.2993336  64.54  0.001843801    2.071    0.517
        76 -11.7589     25.7110    107.1210   6.9868197009e+01   5.2314810768e+01    0.7631019    0.3565083 -34.56  0.002939947    2.641    0.621
        77 -11.6173     22.3640    114.0781   7.2275799626e+01   5.0748536527e+01    0.5346294    0.3288527  -3.35  0.001740684    2.018    0.504
        78 -11.4158     28.5154    112.7937   6.9671503525e+01   5.0552491934e+01    0.4026093     0.278134  35.46  0.001467234    1.503    0.334
        79  -9.8403     48.8249    111.9302   6.1562425778e+01   4.8546018265e+01    0.3099232    0.2077558  33.80 0.0008452696    1.509    0.337
        80 -11.9269     79.7153    107.9920   4.9116434738e+01   4.4820414466e+01    0.5809943    0.3751057  26.40  0.001160664    1.682    0.405
        81  -9.2114    175.1474    108.7997   2.3516861848e+01   2.4602164887e+01    0.1914584    0.1677404  -5.00 0.0002395792    1.295    0.228
        82  -9.0968    120.2127    109.0247   3.6494843272e+01   3.6502648122e+01    0.2121799    0.1275195 -45.78 0.0006081623    1.680    0.405
        83  -9.6098    102.0275    108.8151   4.1859973473e+01   4.0359210940e+01     0.259817    0.1842985  12.14  0.000535477    1.923    0.480
        84  -8.8934     45.5191    105.4757   6.1526947496e+01   5.0656283157e+01    0.2296202    0.1263588 -51.73 0.0008210404    1.709    0.415
        85 -11.0020     50.5450    100.8899   5.8480791921e+01   5.1199778431e+01    0.6921344    0.3811429 -36.66  0.002446932    2.099    0.524
        86  -9.5421     85.9104    103.4355   4.5753239055e+01   4.4801794960e+01    0.2757507    0.2363686  28.54  0.000682592    1.180    0.153
        87 -10.4729     92.0194    102.2621   4.3349393614e+01   4.3905381975e+01     0.468637    0.3845659   2.59  0.002219612    1.453    0.312
        88  -9.6232     57.3321    102.8484   5.6227573821e+01   4.9749045922e+01    0.3086942    0.1461572 -68.40  0.001088105    2.622    0.619
        89 -12.0099     67.6650     95.3058   5.0256878829e+01   5.0030736514e+01    0.6764477    0.5283522  -7.10  0.001954715    1.530    0.346
        90 -10.5980     17.1736    100.0300   7.2262658298e+01   5.4873571885e+01    0.3260151    0.2109611 -59.53 0.0007439535    1.370    0.270
        91  -9.9606     15.9492     94.7498   7.1939836250e+01   5.6342268595e+01    0.3340084    0.1982353 -81.70  0.001415855    1.752    0.429
        92 -10.6139     30.5171     96.8306   6.5991665290e+01   5.4576095298e+01    0.4636787    0.4242057 -72.21  0.002666932    1.087    0.080
        93 -10.2468     37.7887     85.2531   6.0202801015e+01   5.6765396637e+01    0.4168373    0.2097403  10.96  0.001625856    2.547    0.607
        94 -11.6795     46.0129     85.0997   5.6483656872e+01   5.5787678534e+01     0.999395    0.6504762  79.24  0.003460474    2.527    0.604
        95  -9.6028     52.2724     87.0276   5.4281079421e+01   5.4451979527e+01    0.2544847    0.1760927 -52.47 0.0003680429    1.398    0.285
        96 -10.9919     36.5751     90.6456   6.2028429397e+01   5.5539746997e+01    0.6502761     0.468902  36.85   0.00263044    1.461    0.315
        97 -11.3503     22.6618     93.8601   6.8839878112e+01   5.6058674438e+01    0.6436124    0.3795046  44.94  0.001572148    1.912    0.477
        98 -11.0727     27.5153     85.3762   6.4934101085e+01   5.7808868617e+01    0.5940695    0.4836723 -31.77  0.001343084    1.199    0.166
        99 -10.4373     19.0433     86.3146   6.9044301762e+01   5.8293053304e+01    0.5134371    0.3202695 -37.63  0.002532454    1.579    0.367
       100 -11.4375      9.3220     96.9335   7.5139973355e+01   5.6200590325e+01    0.4587902    0.4071709  55.34 0.0007716216    1.230    0.187
       101  -9.7570    210.4718     98.0030   1.5057157400e+01   1.9322826393e+01    0.1818951    0.1721734 -61.65 0.0003282724    1.099    0.090
       102 -11.2791     79.8120     92.8955   4.5000530117e+01   4.8462828547e+01    0.8714982    0.7916615 -59.99  0.004537453    1.151    0.131
       103 -10.1030     81.3517     83.7734   4.1713638646e+01   5.0270441363e+01    0.5222991    0.3028623  25.37  0.002044453    2.133    0.531
       104 -12.1748     75.1688     78.5962   4.2406591526e+01   5.2613830849e+01    0.6268238     0.498633  59.75  0.001169922    1.459    0.315
       105  -9.5029    140.9299     95.2513   2.7344964704e+01   3.4790720130e+01     0.278212    0.1999417  -9.45 0.0007394487    2.046    0.511
       106 -10.2016     43.0337     94.2517   6.0060275490e+01   5.3865838509e+01    0.4017713    0.3275956  17.39  0.001982469    1.278    0.217
       107 -10.6510     43.5787     90.5720   5.8945266399e+01   5.4733358672e+01    0.2405354    0.2247209 -42.63 0.0002508733    1.020    0.019
       108  -9.6972    125.9380     93.9782   3.0769595344e+01   3.8475126950e+01     0.227199     0.223387  23.01 0.0002906417    1.045    0.043
       109 -10.1696    121.6353     93.1379   3.1692933551e+01   3.9625666661e+01    0.4269674     0.240613 -54.87  0.001662968    2.053    0.513
       110 -10.2690     98.2013     90.7022   3.7997021480e+01   4.5297158507e+01    0.2795899    0.2380135  44.54 0.0007197721    1.154    0.133
       111 -11.6999      7.0621     88.4207   7.4890052372e+01   5.8532826414e+01    0.7384629    0.4165944  15.68  0.003638794    1.933    0.483
       112 -11.1566      2.6781     81.1944   7.5822754864e+01   6.0593482235e+01    0.5583449    0.2841215 -85.81  0.001780924    2.118    0.528
       113 -11.2695      2.0056     71.4775   7.4583218845e+01   6.3055671236e+01     3.092486          nan -52.21  0.008109484    5.788    0.827
       114 -12.7920      7.1997     63.3988   7.0277930498e+01   6.4772750516e+01    0.4415787    0.2591449 -35.91 0.0004791276    1.574    0.364
       115 -12.4411      4.3336     61.2683   7.1392203518e+01   6.5434988465e+01    0.3674148    0.2097019 -30.82 0.0002458591    1.675    0.403
       116 -10.0277     66.4380     88.4307   4.8821887218e+01   5.1901766170e+01    0.4070554    0.2805257  -5.51  0.001277582    2.018    0.504
       117  -9.0899    199.4089     88.4396   1.4471405191e+01   2.3082637592e+01    0.1349474    0.1207703 -46.90  0.000288698    1.030    0.029
       118  -9.3225    112.6270     88.1827   3.2789740508e+01   4.2694128120e+01    0.2891306     0.117342  49.10 0.0007389979    2.474    0.596
       119  -9.7088    104.3414     86.8197   3.4875016184e+01   4.4821127686e+01    0.2578334    0.2144842  56.15 0.0007374974    1.231    0.187
       120  -9.8604     90.9339     85.6841   3.8905346592e+01   4.7922850543e+01    0.4053379     0.316276  53.56  0.001932367    1.343    0.255
       121 -10.5582    143.2864     84.2356   2.3707741172e+01   3.6371361368e+01    0.2576184     0.237779 -75.40 0.0004795244    1.096    0.088
       122 -10.6552    113.2948     83.2664   3.1106748662e+01   4.3558654699e+01    0.5381359    0.3856621  80.51  0.002284727    1.971    0.493
       123 -11.3646     60.8130     83.2923   4.9616105638e+01   5.4052856011e+01    0.2797562    0.2744758  74.82 0.0004051671    1.111    0.100
       124  -9.2291    151.2031     83.2138   2.1686660613e+01   3.4699573276e+01    0.1947335    0.1657128 -72.18 0.0003871405    1.243    0.195
       125 -10.1032     67.1946     81.5433   4.6474761779e+01   5.3392583049e+01    0.3525312    0.2753819 -19.13  0.001606584    1.451    0.311
       126  -9.1429    120.7300     81.3472   2.8442633937e+01   4.2228102643e+01     0.297886    0.1872481 -80.92 0.0009327946    3.155    0.683
       127  -9.1958    118.8336     78.1761   2.7981900390e+01   4.3290812619e+01    0.2225772    0.2013768 -78.31 0.0002498499    1.188    0.158
       128  -9.3532    103.0398     79.4984   3.3004758793e+01   4.6641456070e+01    0.2415708    0.2013796 -43.13 0.0005458971    1.236    0.191
       129 -11.0106     53.4137     76.3766   5.0714922008e+01   5.6837044092e+01    0.4910805    0.4026362 -71.57  0.002375328    1.428    0.300
       130 -10.1284     58.2206     77.5719   4.8986814999e+01   5.5810651553e+01    0.2631302    0.2055086 -51.40 0.0006241555    1.289    0.224
       131 -10.7556     89.0687     77.3001   3.6896274757e+01   5.0122067024e+01    0.5166674    0.2960615  45.93  0.002056547    1.716    0.417
       132 -10.1641     94.1502     75.6366   3.4622519059e+01   4.9387361709e+01    0.5780753    0.3575766 -54.22  0.002230515    1.846    0.458
       133  -9.5972    126.0994     76.9224   2.5678930925e+01   4.1817156334e+01     0.244892    0.1890672  15.72  0.001119782    1.718    0.418
       134  -9.3256     38.0392     77.5409   5.8088512684e+01   5.8639287328e+01    0.2127525    0.1375189  27.34  0.000948056    1.575    0.365
       135  -9.6333    180.2304     75.9050   1.4353171572e+01   2.9259766906e+01    0.3952577    0.1651015  54.41   0.00100036    2.453    0.592
       136  -9.7190     46.5339     75.2949   5.3492443240e+01   5.8086574097e+01    0.3604232    0.2037273 -37.72  0.001556219    1.860    0.462
       137 -11.1909     14.4205     74.3098   6.8846192482e+01   6.1655561345e+01    0.4113387     0.343024 -85.13  0.002053137    1.310    0.237
       138  -9.6905    103.4825     74.3521   3.1210813031e+01   4.7580219021e+01     0.306941    0.2380233  65.46  0.001453567    1.437    0.304
       139  -9.3554     65.2131     74.6861   4.5121425239e+01   5.5297517919e+01    0.4017011    0.2313842  17.27  0.001400886    2.407    0.585
       140 -11.3140     27.6559     73.2431   6.1972004045e+01   6.0812359328e+01    0.4642677    0.3377055 -12.94  0.001134445    1.463    0.316
       141 -10.9226     34.7076     71.3642   5.7973941423e+01   6.0514406849e+01    0.5869238    0.2325437  35.44  0.001956741    2.566    0.610
       142 -10.8460     41.1477     72.6736   5.5236069173e+01   5.9422190707e+01    0.3153517    0.2415676   7.39 0.0008480973    1.370    0.270
       143 -11.7834     40.3837     68.9421   5.4479779300e+01   6.0394035669e+01    0.5135897    0.2649925  28.91  0.001941698    1.939    0.484
       144 -10.2352     81.0450     71.5823   3.7872049796e+01   5.2975365742e+01    0.4042937    0.3227203 -14.92   0.00184348    1.452    0.311
       145  -9.7903     77.7752     67.0038   3.7517245911e+01   5.4579184092e+01    0.2890104    0.2120833 -81.77  0.001245743    2.159    0.537
       146 -10.8931    247.1275     72.0987   5.1840939074e+00   1.6484104015e+01    0.1765473    0.1504555 -30.44 0.0007068246    1.272    0.214
       147  -9.3186    153.9097     72.3381   1.8072197151e+01   3.5974398486e+01     0.218138    0.1260498  47.61 0.0009381659    1.813    0.448
       148  -8.7428     19.5680     71.7427   6.5668487562e+01   6.1902636043e+01    0.1496722   0.08874473 -27.13 0.0003650639    1.790    0.441
       149 -10.7571    122.5053     68.4950   2.3961081268e+01   4.4228473394e+01    0.4872838    0.2719869  49.50   0.00181254    1.724    0.420
       150  -9.5687     13.7081     67.3102   6.7666946756e+01   6.3421933571e+01    0.4874051    0.1707878   9.84  0.001786873    3.401    0.706
       151 -10.0094     97.0017     65.4802   3.0261634397e+01   5.0763741365e+01    0.3761719    0.2830512 -17.19  0.001406109    1.634    0.388
       152 -11.1387     92.4119     62.5642   3.0733761305e+01   5.2341594074e+01    0.4300225    0.2988316  65.16  0.001017014    1.736    0.424
       153  -8.9743    192.4499     65.4241   9.9018896086e+00   2.8179661916e+01    0.1369358    0.1178377 -64.59 0.0001192566    1.052    0.050
       154  -9.0773    201.6610     63.6935   8.2816655868e+00   2.6441960956e+01    0.1249191    0.1038389  22.05 0.0007041775    1.680    0.405
       155 -10.3767    158.8011     62.7330   1.4430796689e+01   3.6375796720e+01    0.3391764    0.2170452  52.93 0.0007246099    1.582    0.368
       156  -9.9262    105.6629     63.0718   2.6775277729e+01   4.9214939783e+01    0.3415633    0.1928141  43.54  0.001337532    1.745    0.427
       157 -10.4074    106.4420     58.2699   2.4885781014e+01   4.9879117443e+01    0.3332264    0.2602428 -79.02 0.0005716538    1.627    0.386
       158  -9.5425     58.0047     62.3312   4.4007777326e+01   5.9226837817e+01    0.3667767    0.2751009  44.62  0.001823246    1.409    0.290
       159  -9.3244     50.7314     56.4391   4.5208981353e+01   6.1657823516e+01      0.71645    0.4778619 -47.07  0.003547524    1.523    0.344
       160 -10.6896     40.2840     56.5802   5.0435817504e+01   6.3177433310e+01    0.4045263    0.2127499  30.02  0.001004935    1.877    0.467
       161 -11.5394     43.3065     60.4654   5.0276125318e+01   6.1914597135e+01    0.4533062    0.2831814 -48.55 0.0007890096    1.563    0.360
       162 -11.5329     46.6323     59.2827   4.8224934958e+01   6.1689979973e+01    0.6360921    0.2932003  51.44  0.002165877    3.689    0.729
       163  -9.1577    169.3629     62.1829   1.2485878365e+01   3.3942764826e+01    0.1986879    0.1186228 -47.54 0.0001336942    1.612    0.380
       164  -9.2814    150.9774     60.6704   1.5270561369e+01   3.8599359136e+01    0.2015865    0.1764397  67.66 0.0004159086    1.107    0.097
       165  -9.9921    113.8577     60.6120   2.3636477378e+01   4.7700531088e+01    0.3076971    0.2767851  62.85  0.001218133    1.074    0.069
       166 -12.1700     74.9894     53.7009   3.3674482268e+01   5.7729286776e+01    0.8612013    0.4310241 -46.80  0.003523328    2.212    0.548
       167 -11.8696     72.9889     46.9720   3.1775336206e+01   5.9345120362e+01    0.6242335    0.4341848 -57.75  0.002873121    1.897    0.473
       168  -9.9525    126.8973     50.4808   1.7035972845e+01   4.6143522839e+01    0.5368029    0.2720097 -17.17  0.001838868    3.552    0.718
       169  -9.8825    124.8008     56.4697   1.9494432410e+01   4.5722538997e+01    0.2524888      0.24217   3.61  0.000612826    1.162    0.139
       170 -11.0533    118.5999     56.3443   2.0963273370e+01   4.7267091401e+01     1.189852    0.6646342 -84.76  0.003314615    5.283    0.811
       171 -10.2633    122.9064     44.4901   1.5914058769e+01   4.8029845115e+01    0.4301255    0.2667122  63.61  0.001111142    1.532    0.347
       172  -9.4149    113.3734    248.8255   6.3191928027e+01   7.5967616238e+00    0.1591545    0.1115123 -38.06 0.0009508578    1.736    0.424
       173 -11.8315    116.7437     46.6634   1.8098405975e+01   4.9245049538e+01    0.7686381    0.4559042 -26.09   0.00339114    2.002    0.501
       174 -11.3399    120.1630     40.6044   1.5187470226e+01   4.9268643513e+01    0.4921961    0.2022167  51.68  0.000826488    2.228    0.551
       175 -11.6662    119.6828     36.9564   1.4016768813e+01   4.9887312914e+01    0.4162366    0.3034585 -51.21  0.001158194    1.485    0.327
       176 -11.1988     32.2425     53.2741   5.3517216583e+01   6.4925088441e+01    0.4779412    0.4241328 -10.70  0.001855281    1.026    0.026
       177 -11.4671     25.6726     56.9202   5.8345579900e+01   6.4846527479e+01    0.6303853    0.4986082  53.32  0.002370035    1.609    0.379
       178  -9.7895     21.3361     57.6834   6.0984062261e+01   6.5090395529e+01    0.2504734     0.191284 -84.43   0.00100452    1.691    0.409
       179  -9.6718     91.9419     57.2835   2.8982758541e+01   5.3414616687e+01    0.2643201    0.2105032 -74.73 0.0008655858    1.637    0.389
       180 -10.9318     88.5513     53.8803   2.8847519435e+01   5.4778947783e+01    0.8162949    0.2934107 -31.49  0.002508416    3.909    0.744
       181  -9.8670     80.6567     57.1055   3.2840913974e+01   5.5916099714e+01    0.3128085    0.1838948 -15.74  0.001147436    2.929    0.659
       182 -10.2219    237.9762     55.7544   2.6833371158e+00   2.0320169862e+01    0.1991258     0.140574 -43.00 0.0003659079    1.182    0.154
       183 -10.4082    157.4261     55.0291   1.2471531659e+01   3.7894682332e+01    0.4369571    0.2980502 -59.88  0.002073078    1.539    0.350
       184 -10.9831    154.9995     48.7188   1.1050849530e+01   3.9412496889e+01    0.3485893    0.2354477 -21.73 0.0007366177    1.828    0.453
       185  -9.2153     67.3409     54.8272   3.7174299314e+01   5.9043259418e+01    0.1990965    0.1320422 -32.12 0.0008065836    1.617    0.382
       186  -9.4593    247.2878     54.3309   1.6001621856e+00   1.8824993279e+01    0.1030812   0.08858423  -8.60 0.0005781037    1.620    0.383
       187 -10.5653     60.6381     52.2004   3.9017917091e+01   6.0806247259e+01    0.4569832    0.2634461 -47.56  0.002062921    1.868    0.465
       188 -10.6135     61.3334     46.1999   3.6276092891e+01   6.1796130689e+01    0.5110103    0.3291094   7.52  0.002218722    2.236    0.553
       189  -9.0384    201.5414     52.9356   5.7275677378e+00   2.7997167376e+01    0.1710484    0.1162615  -4.20 0.0008086077    2.551    0.608
       190 -10.4501     46.8808     48.8274   4.4147772226e+01   6.3810036977e+01    0.6880589    0.3380337 -27.89  0.002367404    2.866    0.651
       191 -12.5427     40.6647     44.3283   4.5525272589e+01   6.5643484501e+01     1.160615    0.3916677  34.50   0.00397819    2.850    0.649
       192 -11.1321     26.4392     42.0376   5.2640006195e+01   6.7973536502e+01    0.3711602    0.3488904 -28.45 0.0009710315    1.172    0.147
       193 -10.5081     23.7594     37.2939   5.2357861456e+01   6.9235271045e+01    0.4978419    0.1682257  34.23  0.001967839    2.954    0.661
       194 -10.5362    243.9880     51.0732   1.2141899101e+00   1.9833522064e+01    0.1861732    0.1492998 -78.01 0.0004589079    1.231    0.188
       195 -10.7461    144.9706     50.1594   1.3249029636e+01   4.1684666093e+01    0.3114423    0.2511847  -7.36 0.0003394561    1.607    0.378
       196 -10.4453    146.0262     43.6293   1.1059799339e+01   4.2352889009e+01    0.4379634    0.2070895 -45.04  0.001703493    2.143    0.533
       197 -10.3250     12.8567     47.4105   6.2810305936e+01   6.8116959500e+01    0.6758679    0.1698435 -41.66  0.002281058    3.699    0.730
       198  -9.7268     18.0729     40.5808   5.7224750296e+01   6.9150353411e+01     0.289713    0.1734049 -36.91   0.00124622    1.521    0.343
       199 -10.8402     20.4531     45.7848   5.7640919918e+01   6.7819552995e+01     0.377651    0.2665057 -29.41  0.001169868    1.305    0.234
       200  -9.6159     51.9685     48.0790   4.1352076208e+01   6.3124227087e+01    0.2563319    0.1868942 -15.73 0.0007344263    1.525    0.344
       201 -10.1590     83.0843     46.7383   2.7958504610e+01   5.7215622405e+01    0.4475462    0.2860935  -0.14  0.001805042    2.621    0.618
       202  -9.7452      1.8728     47.6328   6.9666808221e+01   6.8742792471e+01    0.3102982    0.1697841 -72.16  0.001561693    1.900    0.474
       203  -9.4902     27.5512     47.4488   5.4049414783e+01   6.6720542132e+01    0.2362786    0.1237856   9.35 0.0008192853    2.300    0.565
       204  -9.7637    199.4538     44.7641   4.0009481997e+00   2.9554634694e+01    0.3774472    0.1507037  81.69   0.00138966    3.657    0.727
       205  -9.7772    138.4341     44.2852   1.2647406592e+01   4.4162225910e+01    0.4219306    0.1954041  36.38  0.001388935    3.787    0.736
       206  -9.4517    233.7593     44.5944   7.1937726615e-01   2.2554485843e+01    0.1533348    0.1021774 -84.56 0.0006088584    1.545    0.353
       207 -10.2263    156.1074     42.0512   8.9211125526e+00   4.0065504815e+01    0.2648315    0.2277402 -29.88 0.0008471176    1.305    0.234
       208 -10.1745     98.5372     41.3881   2.0958644248e+01   5.4479525716e+01    0.3062889    0.2305513  81.45 0.0005168038    1.606    0.377
       209  -9.9666     56.9424     41.5576   3.6268172739e+01   6.3443333647e+01    0.2640264    0.2177133  57.16 0.0009041112    1.460    0.315
       210 -10.9791     50.2963    248.8543   7.7168544103e+01   1.5378603081e+01    0.4101788    0.1115719  40.75  0.001765375    2.498    0.600
       211 -11.5600    126.3763    240.6017   5.9358941602e+01   7.2852602684e+00    0.3346098    0.2292454  50.52  0.001909966    1.678    0.404
       212 -10.4618    249.8189     39.1357   3.5839783577e+02   2.0278726987e+01    0.2205906    0.1398458 -59.72 0.0003036018    1.300    0.231
       213 -10.5881     61.2691     36.0385   3.1891875608e+01   6.3546323740e+01     0.492268    0.3059878 -16.39  0.001643919    2.086    0.521
       214  -9.0670     70.5089     33.5019   2.6979111286e+01   6.2039164512e+01     0.207055    0.1308314  56.58 6.504205e-05    1.664    0.399
       215  -9.1121     67.2162     32.1980   2.7676508474e+01   6.2930081768e+01    0.3428593    0.2090178  20.97  0.001522336    2.133    0.531
       216  -9.5925    227.0017     37.2882   3.5972489548e+02   2.4775218218e+01    0.1699122    0.1363853 -73.06 0.0007710797    1.115    0.103
       217  -9.4744    206.2490     37.2246   1.5258714290e+00   2.9051316009e+01    0.1736078    0.1199098 -65.46 0.0003438412    1.296    0.228
       218 -10.8202    153.2776     35.7253   7.4915646384e+00   4.1595186481e+01    0.2764639    0.2505659 -77.01 0.0004989863    1.045    0.043
       219  -9.3384     91.1186     41.1072   2.3064334964e+01   5.6277923958e+01    0.2120622    0.1839365  29.79 0.0003484792    1.155    0.134
       220  -9.4772    213.9486     34.6505   2.3756765048e-01   2.7743500155e+01    0.1686883    0.1363757 -78.05  0.000401309    1.116    0.104
       221  -9.4165    216.9440     31.9730   3.5938654335e+02   2.7448369700e+01    0.1715553    0.1380125 -58.73 0.0003324498    1.040    0.038
       222 -11.3386    174.3916     33.1309   3.9064268436e+00   3.6778441100e+01    0.6012458    0.3159663 -65.08 0.0009287304    2.134    0.531
       223 -10.6469    178.0256     28.7610   2.3260277451e+00   3.6446946852e+01    0.2976656    0.2425452  57.74  0.001368358    1.362    0.266
       224  -9.2664     94.1834     35.3853   1.9858387885e+01   5.6384163718e+01     0.196372    0.1300298  66.98 0.0004246985    1.598    0.374
       225 -11.1431     68.2433    240.1990   7.2503664410e+01   1.4932252476e+01    0.3398858     0.207697  12.19  0.001579737    2.022    0.505
       226 -11.7233    107.3883     31.3849   1.4802406211e+01   5.3691838104e+01    0.6896256    0.3482664  39.40  0.002822787    2.300    0.565
       227 -10.9252     74.4255    238.6239   7.0949357985e+01   1.4474310474e+01    0.5900673    0.2185986  39.09  0.002651909    2.071    0.517
       228 -10.5918    131.3020    240.4435   5.8252478900e+01   6.6499369902e+00     0.249034    0.1072001  26.59  0.001126159    2.048    0.512
       229 -10.4986    240.0455     32.2601   3.5770614271e+02   2.2881675065e+01    0.2455623    0.2055853  48.18  0.001441745    1.700    0.412
       230 -10.6116    169.4581     23.1830   1.7883609947e+00   3.9133427109e+01    0.6854849    0.1961588  70.38  0.002487174    3.206    0.688
       231 -10.9799    147.1047    237.5814   5.4438080917e+01   5.0022130186e+00    0.4360716    0.3008163  43.63  0.002544459    1.586    0.369
       232 -10.0166    151.0324     26.9829   5.2070031448e+00   4.3220527666e+01    0.3322378    0.2090138  52.36  0.001386892    1.638    0.390
       233 -10.9367    143.9929     25.3711   5.7377501696e+00   4.5171210263e+01    0.6063836     0.276127  83.77  0.002330042    2.721    0.633
       234 -10.8194    148.1952     22.1209   4.1316364436e+00   4.4481300963e+01    0.4760818    0.1767724  62.89  0.001935771    2.312    0.567
       235 -10.8896    160.2858     29.3185   4.6273895040e+00   4.0653344430e+01    0.3085669    0.2470291  30.48 0.0004365108    1.642    0.391
       236 -12.0797    164.4140     27.4109   3.5566674309e+00   3.9869107147e+01    0.3801039    0.3006728 -72.60  0.001474383    1.160    0.138
       237 -10.0890     45.4139     24.9540   3.4029393893e+01   6.8255314434e+01    0.3693605    0.1884465 -25.24  0.001078762    2.372    0.578
       238  -9.5542     15.4692    233.2716   8.3967023396e+01   2.2083886076e+01    0.1952748    0.1054441 -76.22  0.001108849    1.956    0.489
       239  -9.5560    167.3957    237.7581   5.0196354132e+01   2.2884090808e+00    0.1625509    0.1049849 -26.42 0.0006881827    1.622    0.384
       240  -9.5171    135.5568     30.4964   8.7317470556e+00   4.6697213116e+01    0.2718501    0.2024902 -85.25  0.001240916    1.378    0.274
       241 -11.8937    126.7553     28.1514   9.5286086632e+00   4.9211015064e+01    0.7532774    0.3730572  72.22  0.002692483    2.022    0.505
       242  -9.6078     13.8044     22.1880   5.2295673295e+01   7.3188052688e+01     0.237716    0.1520241  31.21 0.0005765115    1.653    0.395
       243 -11.8918     26.5489     27.7156   4.6292552713e+01   7.0712806930e+01    0.4749277    0.4333333 -39.86  0.002285378    1.312    0.238
       244  -9.6678    246.8163    230.8259   3.4634031906e+01  -6.0081435297e+00     0.135958    0.1104154 -10.01 0.0005661673    1.336    0.251
       245  -9.0651    189.5635    229.5376   4.4532945314e+01   6.8309041071e-01    0.1240381   0.09611209   2.93 0.0001442714    1.027    0.026
       246 -10.3222      4.6394     22.1388   5.9192843633e+01   7.3994449286e+01    0.3953939    0.2234746  24.14  0.002201011    1.794    0.443
       247  -9.1387    107.9949    229.2649   6.2152247115e+01   1.1847981943e+01     0.174048   0.09843089  30.98 0.0006144625    1.478    0.323
       248  -9.6173     49.6622    222.6721   7.5431572098e+01   2.0716650579e+01    0.1229196   0.09722498 -21.86 0.0007051808    1.729    0.422
       249  -9.1587    164.5027    211.4597   4.6792361600e+01   6.9962860693e+00    0.1334204    0.1122877   9.14 0.0002114968    1.005    0.005
       250  -8.9791    131.3488    209.2913   5.3933332975e+01   1.2326390649e+01    0.1413605   0.09984407  -1.79 0.0004592655    1.668    0.400
       251  -9.0618     22.3019     31.2936   5.0697897866e+01   7.0569804093e+01    0.1339751   0.08749015 -16.20 0.0002630512    1.572    0.364
       252 -10.8733    189.1859     27.2506   7.7305644316e-01   3.4038297350e+01    0.3660136    0.2818217  35.69  0.001928247    1.827    0.453
       253 -11.1949    183.0585     25.4957   9.4326436481e-01   3.5652242296e+01    0.3708611    0.2295108 -68.01  0.001626073    1.555    0.357
       254 -10.3743    230.0641     27.3623   3.5739523452e+02   2.5362258521e+01    0.2669245    0.1883791  73.39  0.001343164    1.522    0.343
       255 -10.0434    250.4686     26.9416   3.5598337987e+02   2.1599911614e+01    0.1575441    0.1073202 -46.18 0.0004282091    1.176    0.149
       256 -10.3264    201.4112     24.0690   3.5888229232e+02   3.1676942026e+01    0.2747474    0.1868926  40.51  0.001521514    2.168    0.539
       257  -9.2291     97.7913     25.8103   1.5013300361e+01   5.6752677872e+01    0.1920666    0.1598551 -85.75 0.0005072985    1.355    0.262
       258  -9.1327     40.3130    207.6632   7.6558816948e+01   2.5078819166e+01    0.1445501   0.08076899  57.48  0.000629256    1.690    0.408
       259  -9.8280     17.3297    205.6567   8.2163551182e+01   2.7868415208e+01    0.2213084    0.1111064  56.84  0.001111258    1.755    0.430
       260  -9.1571     78.9926    204.1257   6.6267642944e+01   2.1077107567e+01    0.3055063    0.1677136  73.70  0.001221393    2.863    0.651
       261  -8.8669     86.0461     23.5120   1.7289563009e+01   5.9862429833e+01     0.198414    0.1218295  53.57 0.0003134524    1.423    0.297
       262 -11.3300      5.3051    200.8206   8.4870372598e+01   3.0023913095e+01     0.666752    0.1177873 -69.23  0.002271606    4.563    0.781
       263  -9.1141    233.6119    196.1891   3.1056192849e+01   4.6669068262e-02    0.1670897   0.09045535 -26.30 0.0004965976    1.601    0.375
       264 -11.1550    179.1895     20.4351   2.6892332545e-02   3.7127012602e+01     0.584861    0.2409921  52.74  0.002497503    2.805    0.643
       265  -9.5904     15.9074    190.4096   8.1629736731e+01   3.1551997377e+01    0.2414169    0.1543912  79.03  0.001064489    1.461    0.316
       266 -10.0552    216.5617     19.8724   3.5674824519e+02   2.8929602540e+01    0.1983851    0.1473853 -84.16 0.0003505393    1.213    0.176
       267 -12.2152      5.0007    183.7849   8.4117950662e+01   3.4049768565e+01    0.6434966    0.4637302  65.88  0.003738101    1.197    0.165
       268  -9.8010     46.3367     19.8052   3.0862852736e+01   6.8841695212e+01    0.2800325    0.2045792  63.92  0.001477436    1.976    0.494
       269  -9.4470     28.1721    175.7972   7.7205827026e+01   3.3987742178e+01    0.1826278    0.1561986 -49.25 0.0006677538    1.331    0.249
       270 -10.3062     15.9919    173.5224   8.0487436692e+01   3.5675344856e+01    0.2745436    0.1635695  75.14  0.001381123    1.623    0.384
       271  -9.8451     39.0286    173.0143   7.3809224580e+01   3.3565365748e+01    0.2389218    0.1440028  58.55 0.0008453747    1.662    0.398
       272  -8.8992    170.6782    171.6967   3.8346786692e+01   1.3315995534e+01    0.1453327    0.1035169  -3.92 0.0003600067    1.633    0.388
       273  -9.0626     50.7425    170.3338   7.0059405686e+01   3.2896624811e+01    0.1481909   0.09949558  65.50 0.0002559217    1.569    0.363
       274 -12.0667      9.2868    166.7429   8.1933221668e+01   3.7922915133e+01    0.4796488    0.3510123  33.70  0.002155176    1.365    0.267
       275 -12.4172     12.9843    160.1803   8.0380099960e+01   3.9305297251e+01    0.6274033    0.4310963 -36.12  0.001807323    1.785    0.440
       276  -9.9067    211.0802     15.9586   3.5627182551e+02   3.0503889191e+01    0.1782797    0.1407467 -64.68            0    1.017    0.017
       277  -9.7855    147.7505     15.7642   2.2541381535e+00   4.5268261452e+01    0.3400082    0.1302105  57.31  0.001408268    2.373    0.579
       278  -9.6680     74.6949     19.4182   1.8996955456e+01   6.2988176386e+01    0.2074011    0.1505891  15.57 0.0005737332    1.576    0.366
       279 -10.5105     18.5816    164.9539   7.9088159925e+01   3.7620269772e+01     0.388764    0.2467874 -46.93   0.00196481    1.796    0.443
       280  -9.9189    205.0895    163.0678   2.9820796027e+01   9.2232961736e+00    0.2307254    0.1699018 -30.13 0.0007704027    1.206    0.171
       281 -10.7579     28.4046    161.1191   7.5791108916e+01   3.7711069691e+01    0.3745458    0.2561552 -83.04  0.001673073    1.404    0.288
       282  -9.5352    214.9304    161.3203   2.7746194958e+01   7.9866308344e+00    0.1763399     0.150863  -9.09 0.0004721561    1.065    0.061
       283  -8.8913    223.6937    156.6635   2.5376977991e+01   7.4165392617e+00    0.1312623   0.08819643  -9.29 0.0007040967    1.674    0.402
       284 -10.5254      9.4959    155.1588   8.1056938400e+01   4.0863452719e+01     0.291395    0.2267051  87.69  0.001162444    1.155    0.134
       285  -9.6137    104.7832    154.5116   5.1457903290e+01   2.8773444115e+01    0.2902942    0.2198792 -55.27  0.001383981    1.373    0.272
       286 -11.9963     16.6906    147.7840   7.8192351272e+01   4.2231551493e+01    0.8068684    0.4285747 -86.36  0.003017092    1.838    0.456
       287 -11.5900     21.4396    150.4816   7.6926794514e+01   4.1127123145e+01    0.4342056    0.2466227 -54.82 0.0005823504    1.763    0.433
       288 -11.4928     23.7727    148.0032   7.5927683118e+01   4.1575138330e+01    0.3555989    0.2774659 -81.88 0.0008224562    1.195    0.163
       289 -10.7450      4.2996    153.1432   8.2497764992e+01   4.1748150202e+01    0.3170125    0.1730018  41.16 0.0009722964    1.747    0.428
       290  -9.2866     55.4577    152.1322   6.6182213321e+01   3.7021239227e+01     0.215386    0.1414137 -65.61 0.0004468743    1.504    0.335
       291 -11.3070     47.6965    147.0255   6.7964225830e+01   3.9336549199e+01    0.7203519    0.4386615 -39.46  0.003169249    1.940    0.484
       292  -9.0765     70.9523    151.2330   6.1100359464e+01   3.5112081383e+01     0.212026    0.1227005  31.95 0.0008920106    1.681    0.405
       293 -12.1914      3.7527    142.4064   8.1907237317e+01   4.4563400160e+01    0.7997214    0.4027571  54.33  0.003160687    1.987    0.497
       294 -11.7007     12.2963    135.6859   7.8509858984e+01   4.5757002370e+01     0.714968    0.3158327 -50.50  0.003019129    2.276    0.561
       295 -10.2265    104.1126    147.2830   5.0208268439e+01   3.0648939214e+01    0.2758677    0.2246504 -66.72 0.0006771942    1.338    0.253
       296 -10.6767     15.1996    141.0293   7.8045823123e+01   4.4128459940e+01     0.312354    0.2101649   0.85   0.00158156    1.824    0.452
       297 -10.1307     30.3450    152.1037   7.4248366108e+01   3.9879400645e+01    0.2714919    0.1868157 -18.28  0.001306501    1.916    0.478
       298 -10.6513     33.0529    143.9822   7.2417916408e+01   4.1762548472e+01    0.3181986    0.2792876 -85.31 0.0008734392    1.074    0.069
       299 -10.6525     40.5719    138.1774   6.9095375018e+01   4.2518067881e+01    0.3841813    0.2816613 -73.75 0.0008958898    1.320    0.243
       300 -11.5648     25.4527    135.8048   7.4004980372e+01   4.4668104279e+01    0.6246096    0.4678707 -11.60  0.003242364    1.621    0.383
       301 -11.1056     30.3586    132.4859   7.1868543476e+01   4.5101690799e+01    0.4157932    0.2741244 -45.84 0.0009511273    1.578    0.366
       302  -9.6451     26.4293    131.4965   7.3130166466e+01   4.5733367997e+01    0.2631977    0.1979898 -72.36 0.0006237337    1.236    0.191
       303  -9.5253     79.3478    138.0145   5.5987128114e+01   3.7235286715e+01    0.2176619    0.1972383 -68.12 0.0005544478    1.122    0.108
       304 -10.0290     20.8217    133.8861   7.5387750512e+01   4.5579183645e+01     0.340397    0.2665388 -50.48  0.001204703    1.293    0.227
       305  -9.5990    103.9443    130.7021   4.6665709580e+01   3.4727213084e+01    0.2183031    0.1922792  36.98 0.0003370485    1.116    0.104
       306 -11.1770     11.0120    125.6547   7.7958245903e+01   4.8506940524e+01    0.6843063    0.2667976 -55.51  0.002703929    2.299    0.565
       307  -8.8878     50.7242    129.3651   6.4139271857e+01   4.3671540657e+01    0.1572116    0.1100309  69.61 0.0006290203    1.671    0.402
       308  -9.5925     26.6901    127.2897   7.2487736417e+01   4.6837569091e+01    0.2167851    0.1682203 -72.13 0.0002424504    1.199    0.166
       309  -9.8368     27.2553    124.0127   7.1833257478e+01   4.7665288470e+01    0.2453734    0.1984465 -86.12 0.0003115326    1.202    0.168
       310  -9.5961     22.9908    126.5349   7.3731593813e+01   4.7363725984e+01     0.192486    0.1408532  18.81 0.0003415158    1.487    0.327
       311  -9.6098      2.1460    125.7053   8.1116367185e+01   4.9033791606e+01    0.2469577    0.1635699  85.43  0.001178752    1.421    0.296
       312 -10.7560    104.6431    122.1989   4.4445347812e+01   3.6650940986e+01    0.3718038    0.3326434  47.64  0.000996124    1.116    0.104
       313  -9.5629     49.7870    122.4344   6.3236269540e+01   4.5638691159e+01    0.3002309    0.1940728   3.42  0.001287111    2.007    0.502
