#   1 NUMBER                 Running object number                                     
#   2 MAG_AUTO               Kron-like elliptical aperture magnitude                    [mag]
#   3 X_IMAGE                Object position along x                                    [pixel]
#   4 Y_IMAGE                Object position along y                                    [pixel]
#   5 X_WORLD                Barycenter position along world x axis                     [deg]
#   6 Y_WORLD                Barycenter position along world y axis                     [deg]
#   7 A_WORLD                Profile RMS along major axis (world units)                 [deg]
#   8 B_WORLD                Profile RMS along minor axis (world units)                 [deg]
#   9 THETA_WORLD            Position angle (CCW/world-x)                               [deg]
#  10 FWHM_WORLD             FWHM assuming a gaussian core                              [deg]
#  11 ELONGATION             A_IMAGE/B_IMAGE                                           
#  12 ELLIPTICITY            1 - B_IMAGE/A_IMAGE                                       
         1 -13.0040     23.0000     40.0184   8.0547415724e+01  -8.5429689158e+01   0.01108497  0.005313214   3.71  0.001839062    2.148    0.535
         2 -10.9627    122.8951     11.8499   8.2108045839e+01  -8.4714155136e+01  0.005202428  0.004437045  53.71 0.0002949083    1.160    0.138
         3 -10.5962     54.4793     12.0326   8.2638498388e+01  -8.5191014558e+01  0.004929178  0.003485562   9.67 0.0003596712    1.445    0.308
         4 -11.6388     90.1889     11.4394   8.2387476640e+01  -8.4941791194e+01  0.005223559  0.003009697 -65.68 0.0009418941    1.670    0.401
         5 -11.1698     92.3860      8.2505   8.2614410940e+01  -8.4923976752e+01    0.0049186  0.003269227 -12.31 0.0006493903    1.597    0.374
         6 -11.6016     33.2676      7.7714   8.3184550225e+01  -8.5335101239e+01  0.005664512  0.004850039 -43.51 0.0003502145    1.186    0.157
         7 -10.2100    103.6803      7.3157   8.2593223649e+01  -8.4844563990e+01  0.003870803  0.002384037 -43.75 0.0002551649    1.656    0.396
         8 -10.6870     87.6911      7.3148   8.2725482173e+01  -8.4955918166e+01  0.003832556  0.002401688 -43.18 0.0003104437    1.630    0.387
         9 -10.4484    215.4485      2.5013   8.2123324251e+01  -8.4062062635e+01  0.003534334  0.003358923  60.52 6.314722e-05    1.037    0.036
        10 -10.7596    198.4625    240.9824   6.6205241709e+01  -8.4133871321e+01  0.007935641   0.00284113 -55.60  0.001039573    3.410    0.707
        11 -13.2274    245.9212    249.7347   6.6213510573e+01  -8.3797083198e+01   0.01036853  0.006868909 -76.89  0.001887647    1.587    0.370
        12 -11.0759    179.2764    249.6128   6.5383873218e+01  -8.4255608285e+01  0.009790051  0.002501566 -17.86  0.001248835    3.523    0.716
        13 -11.7202    139.5779    248.4897   6.4897636162e+01  -8.4529483205e+01   0.01025415   0.00404195 -10.06  0.001536831    2.623    0.619
        14 -11.3690    124.5413    250.2331   6.4545414244e+01  -8.4630242543e+01  0.006548252   0.00407098  44.70   0.00122945    1.597    0.374
        15 -11.6728     84.1009    250.6666   6.3848929794e+01  -8.4906245273e+01  0.008170059  0.003073094  73.93  0.001211017    2.490    0.598
        16 -13.7494     68.6456    247.2661   6.3836138574e+01  -8.5016615058e+01   0.01858352   0.01131501  89.93  0.003440059    1.715    0.417
        17 -13.1580     59.1921    249.1013   6.3523514943e+01  -8.5078508762e+01   0.01353492  0.007568869  75.20  0.001242548    1.727    0.421
        18 -14.2646     71.7122    231.2572   6.5120635286e+01  -8.5017082648e+01   0.03868989    0.0147448 -14.69  0.004595262    2.592    0.614
        19 -15.5383     58.1485    236.1776   6.4513489518e+01  -8.5103662431e+01   0.07532533   0.04658585  -3.29   0.01419763    1.705    0.414
        20 -15.0904      6.9324    197.8778   6.6826778368e+01  -8.5501922577e+01   0.02767257   0.02661984  89.83  0.006545821    1.030    0.029
        21 -16.0420     16.7018    210.4395   6.5911559767e+01  -8.5420521151e+01   0.07322095   0.02810096 -79.51  0.009909298    3.295    0.696
        22 -16.1770      6.2057    216.6505   6.5208730886e+01  -8.5485105877e+01   0.05004857   0.02608643 -65.35  0.008363078    2.184    0.542
        23 -16.0538      5.3542    247.3819   6.2597069960e+01  -8.5447625571e+01   0.04643112    0.0230978  86.93   0.00765328    2.175    0.540
        24 -16.8962     12.1356    238.9769   6.3438362439e+01  -8.5414169625e+01    0.0712035   0.02740887  49.55   0.01078255    2.480    0.597
        25 -16.2458      5.7003    230.5769   6.4017552177e+01  -8.5470099873e+01   0.05583384   0.02422922 -53.69   0.00844276    2.659    0.624
        26 -10.6628    186.9906    241.2742   6.6042521179e+01  -8.4212527393e+01  0.004813025  0.004251108  77.42            0    1.103    0.093
        27 -10.4630    140.6394    241.2881   6.5419581430e+01  -8.4531274923e+01  0.003859105  0.002427672 -55.98 0.0007024456    1.688    0.408
        28 -11.3012    107.2277    240.5669   6.4977370252e+01  -8.4761545698e+01  0.006347646   0.00409131  63.65 0.0006727734    1.466    0.318
        29 -12.9568    103.8293    236.9117   6.5194436102e+01  -8.4789506422e+01  0.008694298  0.007885315  31.76 0.0005833901    1.110    0.099
        30 -10.5390    124.3411    240.7328   6.5223225792e+01  -8.4643896331e+01  0.003737396  0.002471258 -57.43 0.0002586414    1.601    0.375
        31 -11.7686    148.5605    238.9929   6.5691101377e+01  -8.4479618589e+01  0.008002294  0.005050208  70.09 0.0008659225    1.505    0.336
        32 -11.2161     79.8067    237.1352   6.4800465286e+01  -8.4954012714e+01  0.005894201   0.00481538  11.08 0.0009012464    1.273    0.214
        33 -10.7185    177.1767    235.7693   6.6288208258e+01  -8.4286401101e+01  0.004881414  0.003800451  43.03 0.0004997491    1.274    0.215
        34 -10.8825    210.4846    235.5249   6.6705997907e+01  -8.4057053566e+01   0.00349932  0.003405795  72.43 0.0001302196    1.005    0.005
        35 -10.1033    137.2839    235.6958   6.5767582606e+01  -8.4561106635e+01  0.003698252  0.002467553 -50.67 0.0001748365    1.559    0.358
        36 -10.9434    121.9805    236.0000   6.5529671217e+01  -8.4665958409e+01  0.005960633  0.001968962  78.89 0.0008033683    2.949    0.661
        37 -11.2800    182.1236    231.9961   6.6603640244e+01  -8.4256489274e+01  0.007451435  0.005337364 -46.96  0.001504942    1.433    0.302
        38 -11.2326    194.1238    228.7946   6.6959460362e+01  -8.4177115872e+01  0.005660932  0.004715638 -58.13  0.001049262    1.229    0.187
        39 -11.6143    178.1998    228.5443   6.6789410614e+01  -8.4287286156e+01  0.006092217  0.004882616  -8.32 0.0003019973    1.280    0.219
        40 -10.6964    139.4444    229.5628   6.6231490587e+01  -8.4553364693e+01  0.003497049  0.003365678  60.61 7.133916e-05    1.013    0.012
        41 -12.2508     95.6884    228.7195   6.5681754021e+01  -8.4855503829e+01  0.009935134  0.004110294  72.84 0.0007791348    2.241    0.554
        42 -12.4929    237.4028    219.8103   6.8003207349e+01  -8.3886773234e+01  0.008829737  0.006803952 -25.90  0.001862629    1.316    0.240
        43 -12.0864    232.0176    227.1749   6.7480464624e+01  -8.3916979888e+01   0.01354489  0.006694888  19.71  0.002220463    2.252    0.556
        44 -12.2144    233.0966    220.3223   6.7928157489e+01  -8.3916104784e+01  0.007548496  0.006188534 -27.99 0.0003146006    1.240    0.194
        45 -11.5592    129.0211    226.4087   6.6318275488e+01  -8.4628741367e+01  0.006559907  0.004600563  21.48 0.0003456563    1.499    0.333
        46 -12.4884     91.6954    225.2554   6.5883572505e+01  -8.4887086938e+01   0.00953279  0.004531981 -18.71  0.001307716    2.069    0.517
        47 -13.0681     84.5646    222.5417   6.5985393697e+01  -8.4939337829e+01   0.01483425  0.005105535  49.29  0.001932553    2.760    0.638
        48 -12.2081     81.5351    225.5029   6.5714649034e+01  -8.4956684379e+01   0.01067837  0.006142024  35.61  0.001708088    1.812    0.448
        49 -12.7403     80.0033    222.0338   6.5957442577e+01  -8.4971324732e+01    0.0103485  0.007225439  12.09  0.002061845    1.516    0.341
        50 -13.0972     77.3763    219.7680   6.6093117310e+01  -8.4992038222e+01   0.01067141  0.007286762 -30.90  0.001289633    1.472    0.320
        51 -10.8502    222.4497    225.5302   6.7485388692e+01  -8.3984748908e+01  0.003479169  0.003407718  88.32 0.0001406136    1.019    0.019
        52 -11.0006    116.4658    225.4933   6.6215309957e+01  -8.4716276281e+01  0.003488614  0.003414455  86.15 0.0001944345    1.018    0.018
        53 -11.0645    211.5814    222.7411   6.7551216511e+01  -8.4062637054e+01  0.006544505  0.003472704  -3.78  0.001127977    1.965    0.491
        54 -12.0555    159.7929    222.4764   6.6984761256e+01  -8.4420757545e+01  0.009309013   0.00660361 -82.89  0.001063561    1.439    0.305
        55 -12.1721    124.8464    221.8629   6.6591199096e+01  -8.4662563675e+01  0.007606378  0.004862241 -80.80  0.001434646    1.633    0.388
        56 -12.4803    246.3514    220.5683   6.8042377003e+01  -8.3824121352e+01  0.006791204  0.005970562 -43.67 0.0005100269    1.160    0.138
        57 -12.4467    173.8148    219.7163   6.7338363835e+01  -8.4326727154e+01  0.009350366  0.005979825 -21.29 0.0008211652    1.569    0.363
        58 -12.0481    142.7966    205.1479   6.8007210526e+01  -8.4555393872e+01  0.009430259  0.004986982 -76.18 0.0008847371    2.035    0.509
        59 -12.7535    145.7791    201.7302   6.8282600877e+01  -8.4537848535e+01   0.01542004  0.006035918 -53.60  0.002229868    2.840    0.648
        60 -12.5240    144.9275    216.4947   6.7225967519e+01  -8.4529611304e+01    0.0123749  0.009564923 -27.82  0.002621226    1.311    0.237
        61 -12.8594    139.6016    212.9165   6.7417066271e+01  -8.4570026326e+01   0.01490201  0.007234162  28.35  0.001770457    2.252    0.556
        62 -12.4903    129.9968    216.5181   6.7042797794e+01  -8.4632722576e+01   0.00669134  0.004683714  21.92 0.0004740939    1.495    0.331
        63 -10.7110    225.9841    216.4922   6.8103246349e+01  -8.3968889816e+01  0.005157543  0.003416387  82.15 0.0003693762    1.475    0.322
        64 -13.4908     83.3488    214.1916   6.6606199042e+01  -8.4957139829e+01   0.01972462  0.008998352 -83.21   0.00307325    2.437    0.590
        65 -10.4214    207.5705    215.5379   6.7981295631e+01  -8.4097265470e+01  0.003530469  0.003334778  49.43 0.0001680528    1.042    0.040
        66 -10.5117    176.2816    214.6637   6.7710507042e+01  -8.4314638456e+01   0.00379691  0.002415071 -47.67 0.0004172826    1.619    0.382
        67 -13.1398    119.0218    213.4809   6.7126980730e+01  -8.4711669277e+01     0.012304  0.005526103 -70.87  0.001324195    2.583    0.613
        68 -13.0022    123.5339    210.2293   6.7419624829e+01  -8.4683784967e+01   0.01043365  0.006305105 -29.82 0.0008128407    1.652    0.395
        69 -10.6387    215.3913    212.8412   6.8235857898e+01  -8.4045570376e+01  0.004917087  0.003209374  14.65 0.0004250958    1.614    0.380
        70 -10.9603    156.4214    213.2392   6.7588397237e+01  -8.4453401325e+01  0.007695086  0.003637732 -29.71 0.0009913698    2.069    0.517
        71 -13.2804    159.1286    206.2666   6.8105020335e+01  -8.4441260255e+01    0.0126111  0.008110389  48.66  0.001448119    1.518    0.341
        72 -13.4384    107.7052    214.7359   6.6890660155e+01  -8.4788501272e+01   0.01362525  0.006734486 -46.71  0.002082035    2.110    0.526
        73 -12.0107    247.4696    212.9972   6.8528795385e+01  -8.3823137401e+01  0.006790871  0.005453286 -73.47 0.0005025225    1.263    0.208
        74 -11.5922    129.3939    211.7009   6.7383146463e+01  -8.4641804984e+01  0.004812241  0.003313845  10.11 0.0009377603    1.527    0.345
        75 -11.6713     74.5651    211.8345   6.6666496664e+01  -8.5020289956e+01  0.009786563   0.00548841  59.67  0.001194921    1.675    0.403
        76 -11.7253     90.9123    210.2328   6.7009909357e+01  -8.4909175001e+01  0.006038771  0.005033249   3.13 0.0002622587    1.237    0.192
        77 -12.7938    229.0349    206.4564   6.8777579135e+01  -8.3956528821e+01   0.01220146  0.009014287 -45.20  0.001606842    1.381    0.276
        78 -15.8205     36.8903    198.7422   6.7188447342e+01  -8.5294180388e+01   0.09858625   0.01905625  -9.40   0.01057931    5.179    0.807
        79 -11.4594    242.4580    207.9835   6.8800166171e+01  -8.3862144319e+01  0.005163545  0.003485667  -6.92 0.0003670204    1.519    0.342
        80 -11.6861    180.0447    207.9144   6.8209942045e+01  -8.4294878732e+01  0.005646423  0.005271036  57.86 0.0008501532    1.044    0.042
        81 -12.8071    103.9513    206.7374   6.7439111434e+01  -8.4822646376e+01  0.009332051   0.00639722 -45.46  0.001521796    1.493    0.330
        82 -12.1400     70.9222    206.7346   6.7013831341e+01  -8.5050863891e+01   0.01234262  0.007239319  64.68  0.002292471    1.603    0.376
        83 -12.7139    116.6084    205.2128   6.7704643058e+01  -8.4736598044e+01  0.008196735  0.005178424 -26.79  0.001567354    1.584    0.369
        84 -11.8009    239.0581    204.7057   6.8978379883e+01  -8.3888428956e+01  0.005983551  0.005427734  48.62 0.0004159064    1.084    0.077
        85 -13.9148     61.7485    171.0543   6.9731965412e+01  -8.5146058608e+01   0.01735241   0.00987386  73.22  0.003171326    1.671    0.401
        86 -14.6471     77.1625    171.8948   6.9814871583e+01  -8.5038276285e+01   0.03179201  0.009420438 -43.92  0.004123887    3.502    0.714
        87 -15.9513     70.4453    184.4378   6.8758817315e+01  -8.5075181100e+01   0.05121658   0.02824049 -64.37  0.008991628    1.936    0.483
        88 -13.8710     89.3509    201.3531   6.7666701571e+01  -8.4928905015e+01   0.02448446   0.01534172  69.83  0.004167059    1.515    0.340
        89 -12.9821     91.8665    188.3101   6.8693099966e+01  -8.4923316807e+01   0.01149127  0.006776643  52.80 0.0008063417    1.632    0.387
        90 -13.8888     94.0997    183.9449   6.9050495509e+01  -8.4911426756e+01   0.01639689  0.009425933  -8.41  0.001909704    1.777    0.437
        91 -12.1348    110.6931    203.2910   6.7777130603e+01  -8.4779372391e+01  0.006413505  0.005147001 -57.05 0.0008547788    1.277    0.217
        92 -13.1509    121.1532    200.8627   6.8076507508e+01  -8.4709232511e+01   0.01636896  0.004972117 -51.21  0.002032856    3.841    0.740
        93 -12.8116    122.1734    195.9055   6.8451234922e+01  -8.4706612316e+01  0.008967607  0.006310997 -48.41   0.00160593    1.456    0.313
        94 -14.6093     93.9793    193.5714   6.8314915561e+01  -8.4904093338e+01   0.02905281   0.01550351  89.33  0.004293353    1.894    0.472
        95 -13.7014     89.7507    183.0109   6.9077021997e+01  -8.4942370386e+01   0.01380485  0.009023262 -13.46   0.00116469    1.553    0.356
        96 -12.5996    136.3793    200.0693   6.8301112333e+01  -8.4604469244e+01   0.00983415  0.004439718 -32.08 0.0008752192    2.173    0.540
        97 -11.1320    138.3004    197.3078   6.8519918943e+01  -8.4593582682e+01  0.003819843  0.002384594  42.22 0.0002613227    1.598    0.374
        98 -11.2215    212.1162    199.8018   6.9058553677e+01  -8.4079382161e+01  0.005651013  0.004521376 -53.88 0.0006498108    1.276    0.216
        99 -12.3669    219.4269    198.2377   6.9224846388e+01  -8.4029865855e+01  0.006085316  0.005779333 -86.16 0.0002665397    1.042    0.041
       100 -11.6987    180.7384    198.9811   6.8825105098e+01  -8.4297813801e+01  0.006399723  0.004770706 -79.28  0.001313027    1.357    0.263
       101 -12.9033    173.0155    195.7478   6.8973524920e+01  -8.4354065305e+01  0.008235627  0.007037204 -50.67  0.000579035    1.192    0.161
       102 -15.6034      9.1158    186.0922   6.7871712077e+01  -8.5498691911e+01   0.06034191   0.03714142  82.51  0.008369237    1.591    0.372
       103 -11.8686    166.3602    196.4717   6.8860078532e+01  -8.4399659093e+01  0.006153937  0.005638718 -45.99 0.0004050241    1.112    0.101
       104 -12.3978    160.8435    191.3434   6.9165136403e+01  -8.4442101668e+01   0.01314311  0.006289145 -62.94  0.002065067    2.276    0.561
       105 -11.6925    201.9636    195.9009   6.9226664938e+01  -8.4152965944e+01  0.006273725  0.005019231  -5.74  0.001175595    1.282    0.220
       106 -12.0416    191.3237    196.0108   6.9124473683e+01  -8.4226759727e+01  0.008892918  0.006282633  25.89 0.0003826414    1.457    0.314
       107 -11.6581    189.3571    192.7290   6.9328360999e+01  -8.4242988110e+01  0.008490848  0.005602807  62.93   0.00137644    1.445    0.308
       108 -12.0982    153.3958    195.3650   6.8811164949e+01  -8.4490533228e+01   0.00651416  0.005750638 -58.95 0.0005441863    1.150    0.131
       109 -12.9601     61.6778    177.2991   6.9230974288e+01  -8.5141835845e+01   0.01041248  0.006252447  61.08  0.001069807    1.581    0.367
       110 -11.0622    212.5025    193.5137   6.9475162813e+01  -8.4081594152e+01  0.003509472  0.003400203 -74.09 -2.226903e-05    1.037    0.035
       111 -12.6645    133.7975    190.3660   6.8974759876e+01  -8.4630655689e+01  0.009092966  0.005610463  63.86  0.001723323    1.537    0.349
       112 -12.6519     50.7693    189.8990   6.8091959110e+01  -8.5206768320e+01   0.01173451  0.006006222  61.56 0.0009520723    1.823    0.451
       113 -13.8492    110.7434    187.5963   6.8946139451e+01  -8.4792931532e+01    0.0167697   0.00823754 -84.11  0.002771847    2.127    0.530
       114 -12.4026    208.9245    185.6689   6.9963537109e+01  -8.4112156610e+01   0.01471446   0.00573832  28.63   0.00129593    2.815    0.645
       115 -13.1621    110.7454    196.3113   6.8296580179e+01  -8.4785461328e+01   0.01122462  0.006658289  53.81 0.0002555081    1.617    0.382
       116 -13.8686    118.1587    179.5835   6.9614442983e+01  -8.4747657379e+01   0.01499254  0.008045902 -53.36  0.001731859    1.948    0.487
       117 -13.1897    122.0485    186.3091   6.9154966730e+01  -8.4715483530e+01  0.008762763  0.007783443  82.65  0.001122099    1.099    0.090
       118 -13.5677    127.3395    185.9571   6.9232317767e+01  -8.4679016690e+01   0.01181318  0.007361909  27.16  0.002225363    1.668    0.400
       119 -11.2892    240.8685    187.8575   7.0066175594e+01  -8.3888452273e+01  0.004897234  0.003901953 -49.55 0.0002895442    1.279    0.218
       120 -11.9009     43.3133    186.8676   6.8246821876e+01  -8.5261172093e+01  0.006447558  0.005492384 -55.14 0.0007854862    1.196    0.164
       121 -11.7934    248.0495    185.6344   7.0259989738e+01  -8.3839987334e+01  0.008052549  0.005732941  72.27  0.001153908    1.349    0.259
       122 -11.8531    163.9747    185.3707   6.9610913172e+01  -8.4424915540e+01  0.007009525   0.00508417 -10.05  0.000595144    1.409    0.290
       123 -11.6019    157.0074    185.6736   6.9528113698e+01  -8.4473114819e+01   0.00515748  0.004573511  73.50  0.001155656    1.093    0.085
       124 -12.7644     49.1564    182.6176   6.8663268670e+01  -8.5224390498e+01   0.01020996     0.007902 -79.65  0.001586188    1.303    0.233
       125 -12.3004    201.7628    182.4989   7.0118295498e+01  -8.4164155785e+01  0.006469726   0.00602631 -86.76 0.0003036862    1.059    0.056
       126 -11.0691    198.2683    180.3100   7.0237887371e+01  -8.4189941790e+01  0.005163025  0.004712636  47.23 0.0001905665    1.080    0.074
       127 -11.5902    151.9831    181.7695   6.9759756806e+01  -8.4510909468e+01  0.006585832  0.003073038  49.34  0.001075068    2.072    0.517
       128 -12.0365    142.1862    181.0552   6.9724799095e+01  -8.4579542702e+01  0.005901925  0.004977387  81.75 0.0003281183    1.155    0.134
       129 -11.3229    246.2273    179.7341   7.0621237586e+01  -8.3856446119e+01  0.005010561  0.003748303  47.28 0.0004291945    1.313    0.239
       130 -14.0446    106.2513    176.8769   6.9706000631e+01  -8.4832420099e+01    0.0115473  0.009230847 -27.43  0.001561743    1.272    0.214
       131 -12.2571     17.4971    179.4963   6.8544968595e+01  -8.5446604468e+01  0.009635679  0.004891491 -66.12 0.0009607121    2.144    0.534
       132 -12.3249     16.9773    175.4534   6.8883748378e+01  -8.5453627811e+01  0.007727398  0.004959089  -9.38 0.0004508663    1.591    0.371
       133 -15.0163    127.7629    172.9230   7.0190326705e+01  -8.4685549355e+01     0.021443   0.01516681   2.92  0.001863923    1.460    0.315
       134 -11.7399     53.8305    177.5938   6.9123197147e+01  -8.5196095527e+01  0.007180369  0.004592143 -59.12  0.001359079    1.625    0.385
       135 -13.4778    149.1323    175.6151   7.0173339317e+01  -8.4535027743e+01   0.01672645  0.007228868 -62.94  0.001059234    2.532    0.605
       136 -12.3032    137.4291    177.0764   6.9970097345e+01  -8.4615454450e+01  0.006646349  0.005059952 -84.22 0.0005137523    1.309    0.236
       137 -12.0189    247.8853    175.9132   7.0874716828e+01  -8.3847204346e+01  0.005740637  0.005606474  78.15  0.001354845    1.008    0.008
       138 -12.2785    101.0312    175.9713   6.9725772856e+01  -8.4869371766e+01  0.005595486  0.003660643  41.95  0.001073983    1.522    0.343
       139 -11.1391    242.5307    175.4866   7.0866911755e+01  -8.3884758576e+01  0.003492653  0.003411234  81.31  6.95973e-05    1.010    0.010
       140 -11.8946    206.8248    174.2716   7.0703918675e+01  -8.4134212257e+01   0.01043815   0.00605853  87.19  0.001904555    1.695    0.410
       141 -14.4505     95.6079    158.8375   7.0987136265e+01  -8.4918287515e+01   0.01832247    0.0107463 -12.75 0.0006843723    1.729    0.422
       142 -15.9825     78.4146    154.1020   7.1223701154e+01  -8.5040804891e+01    0.0445965   0.01829407 -33.12  0.002351655    2.413    0.586
       143 -14.2586     83.7990    144.5489   7.2010968958e+01  -8.5008038787e+01   0.01489694  0.009776553  89.57  0.002900851    1.497    0.332
       144 -14.1102     90.5365    172.4711   6.9895730502e+01  -8.4944856156e+01   0.01536568   0.01115412 -14.90  0.001295771    1.402    0.287
       145 -13.5148     91.8641    166.1797   7.0392120411e+01  -8.4939873773e+01   0.01284564  0.007283209 -81.81 0.0002981515    1.798    0.444
       146 -13.1091     30.1322    169.4023   6.9543840888e+01  -8.5367038619e+01   0.01821907  0.007244608  23.29  0.002443845    2.831    0.647
       147 -15.7258     39.4062    241.9736   6.3718930522e+01  -8.5223790436e+01   0.06315038   0.03977895   8.59   0.01189027    1.738    0.425
       148 -13.1141    100.4299    171.2589   7.0078202796e+01  -8.4876875468e+01  0.007195917  0.005666908  38.38 0.0008384144    1.269    0.212
       149 -12.3988     41.5093    172.1902   6.9432529409e+01  -8.5285881574e+01  0.006238418  0.004920505  84.00 0.0006295756    1.239    0.193
       150 -14.2394     24.5563    197.1580   6.7146314093e+01  -8.5381006744e+01   0.02978347   0.01654646  64.24  0.003639931    1.685    0.407
       151 -11.6415    225.7434    175.8137   7.0733540895e+01  -8.4001502341e+01  0.007503603   0.00460958 -78.84  0.001345603    1.655    0.396
       152 -12.1328    235.2522    170.9729   7.1109354895e+01  -8.3938073171e+01  0.007166619  0.004125773  60.36  0.001306417    1.655    0.396
       153 -13.1726    153.0025    170.0632   7.0599142054e+01  -8.4511677211e+01   0.01089154  0.007522141   1.13  0.001587276    1.493    0.330
       154 -12.7871    156.9499    165.6314   7.0942607167e+01  -8.4486843350e+01  0.008166074  0.006749411 -78.22  0.001777853    1.207    0.171
       155 -12.3909    151.4632    165.4608   7.0915153385e+01  -8.4525178426e+01  0.007433102    0.0053498  64.29 0.0007026418    1.335    0.251
       156 -10.8170    166.0337    170.8145   7.0644510615e+01  -8.4420450872e+01   0.00475702  0.004318252  81.10   0.00107586    1.073    0.068
       157 -11.4692    197.7968    169.8613   7.0936402364e+01  -8.4199735300e+01  0.005665036  0.004514907  40.29 0.0007806862    1.248    0.199
       158 -11.9713    110.0049    169.9827   7.0257989196e+01  -8.4811101817e+01  0.004177439  0.004112999  58.52 0.0003356475    1.016    0.016
       159 -11.5785     51.9817    162.0000   7.0371334037e+01  -8.5220233056e+01  0.006993396   0.00421869 -78.68 0.0009075936    1.693    0.409
       160 -12.6854     50.4237    165.2724   7.0089901404e+01  -8.5228895226e+01   0.01050501  0.007079364 -19.03  0.001052156    1.502    0.334
       161 -14.2059     47.4348    161.2440   7.0391746583e+01  -8.5252376252e+01   0.04299312  0.008029303 -47.21   0.00414176    6.363    0.843
       162 -11.3974     12.6905    161.0584   7.0073725954e+01  -8.5494290597e+01   0.01172945  0.004573624 -42.41  0.001752004    2.611    0.617
       163 -13.6669     18.3903    168.3674   6.9505357685e+01  -8.5449407906e+01   0.01834311  0.008318242  85.10  0.001451966    2.176    0.540
       164 -13.6718     13.0729    167.1533   6.9551714873e+01  -8.5487266879e+01   0.01398444   0.00951376 -84.20  0.002762768    1.477    0.323
       165 -12.7793    212.2724    163.9452   7.1424938904e+01  -8.4102094607e+01  0.008002012  0.006322814 -36.59 0.0004986291    1.288    0.224
       166 -12.4803    201.4801    165.8756   7.1228475663e+01  -8.4176312812e+01   0.01180848  0.005532156 -80.62 0.0006463421    2.205    0.547
       167 -10.8861    184.2162    165.7538   7.1123189095e+01  -8.4296730706e+01  0.005767528  0.002540382  12.99 0.0008855034    2.438    0.590
       168 -13.3845    110.6648    165.0854   7.0631270474e+01  -8.4809644735e+01    0.0101966  0.005024508  53.70  0.001731226    1.939    0.484
       169 -12.4893    104.5164    164.9694   7.0590277839e+01  -8.4852539823e+01  0.005792098  0.004759694  85.36 0.0009338453    1.189    0.159
       170 -14.1678     64.7840    162.5816   7.0439092987e+01  -8.5130729820e+01   0.01359527    0.0108206 -44.57   0.00291721    1.279    0.218
       171 -12.8276     57.2719    164.2534   7.0236833611e+01  -8.5181928412e+01   0.01050797  0.004512828 -34.63  0.001665013    2.308    0.567
       172 -10.8314     45.3305    165.1559   7.0050625855e+01  -8.5264409073e+01  0.005200654  0.003005949 -21.56  0.000939281    1.733    0.423
       173 -13.4414     38.1473    161.3954   7.0293219679e+01  -8.5316926132e+01   0.01399881   0.00836652  67.38  0.002620382    1.588    0.370
       174 -12.1045     32.5871    157.8045   7.0541847794e+01  -8.5357949332e+01   0.01270028  0.005974517 -11.77  0.002105966    2.140    0.533
       175 -11.5921     29.1907    156.4059   7.0628779478e+01  -8.5382474707e+01  0.007850768   0.00478948 -73.49 0.0009188826    1.684    0.406
       176 -11.6954     26.2392    153.5919   7.0840682718e+01  -8.5404742024e+01   0.01407098  0.005652213  83.43  0.002145696    2.416    0.586
       177 -12.6436     25.5948    161.4141   7.0171434155e+01  -8.5404268588e+01   0.00965165  0.007600566 -85.24  0.002053854    1.260    0.207
       178 -13.5551    117.5051    157.9782   7.1215217126e+01  -8.4766127482e+01   0.01024675  0.005644648  59.11  0.001838358    1.729    0.422
       179 -12.5733      4.1263    159.7647   7.0099328121e+01  -8.5554753654e+01   0.01136086  0.008275563 -11.93  0.002333741    1.401    0.286
       180 -12.0990      2.8123    152.8452   7.0693848863e+01  -8.5568378635e+01  0.008399352   0.00755431 -47.35 0.0009701951    1.130    0.115
       181 -11.4950      5.3138    150.6624   7.0908313260e+01  -8.5552261863e+01   0.01180119  0.004313054 -24.68  0.001748297    2.644    0.622
       182 -12.4826    169.7873    159.6303   7.1451381182e+01  -8.4400650591e+01  0.008714425  0.005521786 -59.87  0.001651067    1.619    0.382
       183 -12.7015    105.2295    158.5882   7.1079290968e+01  -8.4851366214e+01  0.007321345  0.004994527 -45.63  0.001047988    1.493    0.330
       184 -12.7497    133.6728    157.3528   7.1374639316e+01  -8.4653725000e+01    0.0102879  0.004710321 -44.16  0.001661169    2.232    0.552
       185 -11.8005    190.9892    155.5946   7.1858474197e+01  -8.4254736165e+01  0.007266865  0.004349537 -33.46  0.001344635    1.688    0.408
       186 -12.4952    112.2240    156.1177   7.1316708085e+01  -8.4803963052e+01  0.007527458  0.003698058 -58.18  0.001237603    2.134    0.531
       187 -14.0844     62.9693    153.4696   7.1155000204e+01  -8.5148834858e+01   0.01405243  0.009332596 -10.49  0.002351277    1.536    0.349
       188 -10.9885    141.5002    155.5038   7.1561243464e+01  -8.4600089242e+01   0.00354054  0.003369851 -62.49 -0.0002439522    1.059    0.056
       189 -11.6694     20.5924    154.3960   7.0722055438e+01  -8.5443594404e+01  0.006010811  0.005634536  87.08 0.0005534542    1.045    0.043
       190 -11.4403    237.6217    153.8428   7.2225982039e+01  -8.3930025188e+01  0.007377623  0.004709215  73.04  0.001090332    1.503    0.335
       191 -11.4917    212.0443    153.6905   7.2103250177e+01  -8.4108649230e+01  0.005138279   0.00456746  83.07  0.000625935    1.096    0.087
       192 -13.1624     51.5430    142.6055   7.1953127909e+01  -8.5234083457e+01   0.01168207  0.006311228  86.62 0.0006957467    1.811    0.448
       193 -12.2269     51.0277    152.9492   7.1102331630e+01  -8.5232369550e+01  0.007791527  0.005088411  58.86 0.0005711764    1.472    0.321
       194 -13.1889     55.5137    150.2406   7.1358474258e+01  -8.5202578593e+01   0.00914734  0.007340279 -51.51   0.00106938    1.266    0.210
       195 -13.0305     57.3699    144.2329   7.1860292286e+01  -8.5192653706e+01   0.01004894  0.006154574  40.03  0.001283276    1.630    0.387
       196 -11.4329    249.1162    151.9497   7.2403522609e+01  -8.3850562330e+01  0.005112152   0.00500369  84.11 0.0003131163    1.012    0.012
       197 -11.3441    224.6334    152.1539   7.2269933233e+01  -8.4021426153e+01  0.005090255  0.003090302  17.77 0.0001651533    1.702    0.412
       198 -13.0857    169.6360    151.0570   7.2048804404e+01  -8.4405873219e+01   0.01406459  0.007762044  87.85  0.002509097    1.777    0.437
       199 -13.2818    108.9505    149.2305   7.1813300367e+01  -8.4830300624e+01   0.01071689  0.007723849  11.01  0.001044025    1.428    0.300
       200 -13.7029    102.1520    142.8741   7.2253786103e+01  -8.4880639495e+01   0.01686859  0.007785214 -55.06  0.002543115    2.255    0.557
       201 -12.4233    133.4672    151.0091   7.1836830378e+01  -8.4658352347e+01  0.006481055  0.004740291  64.96  0.000985301    1.317    0.241
       202 -13.3437    124.3922    148.1713   7.1989613699e+01  -8.4723018951e+01   0.01289932  0.005287413 -28.86  0.001985609    2.413    0.586
       203 -13.5732    120.6573    144.2622   7.2257596939e+01  -8.4750824061e+01   0.01535876  0.008009944  74.49  0.001507811    1.827    0.453
       204 -14.2108     84.3574    149.8954   7.1596741977e+01  -8.5001574051e+01   0.01796748  0.008387851 -66.31  0.002854359    2.262    0.558
       205 -12.9154     95.6760    149.4618   7.1708034361e+01  -8.4922820501e+01  0.007901485  0.005423085  37.61  0.001041604    1.459    0.315
       206 -13.3438     26.4739    147.9909   7.1318121802e+01  -8.5406278368e+01   0.01539051  0.009808581 -16.12  0.002333163    1.591    0.371
       207 -12.2809     31.9266    147.4641   7.1405940000e+01  -8.5368536657e+01   0.00817966  0.006181333 -80.05 0.0009338792    1.320    0.242
       208 -12.2917     19.6388    149.7973   7.1107682578e+01  -8.5452933258e+01   0.01616507  0.004705664  71.34  0.001688882    3.048    0.672
       209 -12.1627     12.2954    149.8328   7.1041956523e+01  -8.5504092580e+01  0.006621485  0.005930127 -68.93 0.0003444571    1.120    0.107
       210 -11.8868      9.3930    146.8449   7.1277223771e+01  -8.5525988226e+01  0.006937999  0.005067722  72.73 0.0009823107    1.318    0.241
       211 -11.4061    146.8940    148.7093   7.2084420220e+01  -8.4565691491e+01  0.005791937  0.004676972  21.40 0.0003205666    1.260    0.207
       212 -13.3427     40.8537    148.2172   7.1412330637e+01  -8.5305884674e+01    0.0129772  0.007126394  37.32  0.001961883    1.839    0.456
       213 -13.6481     70.8900    143.1772   7.2035788919e+01  -8.5098775139e+01  0.009755947   0.00766918   7.63  0.001262175    1.306    0.234
       214 -13.0251     15.0756    141.3079   7.1802922886e+01  -8.5489187969e+01   0.01896189  0.007805797  87.18  0.002370783    2.390    0.582
       215 -12.9686     13.4704    135.1239   7.2327826315e+01  -8.5503173052e+01   0.01366359  0.006409527 -25.34  0.001738507    2.128    0.530
       216 -10.9554    177.9906    142.4756   7.2689495677e+01  -8.4351066924e+01  0.005411698  0.003410756  86.82 0.0005479177    1.549    0.354
       217 -12.2339    151.4000    145.7547   7.2321727685e+01  -8.4535506064e+01  0.006170673  0.005710945  74.07 0.0002861934    1.049    0.046
       218 -13.2514     94.9893    140.2186   7.2415554356e+01  -8.4931770538e+01   0.01068822  0.006066569  37.63  0.001358184    1.769    0.435
       219 -12.8115     39.9258    140.3914   7.2057177401e+01  -8.5316183311e+01   0.01087684  0.005406643  58.15 0.0008309497    1.914    0.478
       220 -11.7092     36.3011    138.3571   7.2203038844e+01  -8.5342387251e+01  0.005798335  0.003482261  78.06 0.0009640841    1.603    0.376
       221 -11.4279    131.8039    140.3861   7.2605601352e+01  -8.4674540341e+01  0.005193326  0.003034981  69.17 0.0005604876    1.635    0.388
       222 -11.6624     30.1403    139.8741   7.2033623759e+01  -8.5384723258e+01   0.00566502  0.004635894 -55.61 0.0008261697    1.238    0.192
       223 -12.0227     44.9629    152.6750   7.1075684359e+01  -8.5274797741e+01  0.005178038  0.004543491  87.50 0.0008923265    1.116    0.104
       224 -11.1936    109.4936    137.9823   7.2666776425e+01  -8.4831327107e+01  0.005289312  0.003498643   0.45  0.001018733    1.554    0.356
       225 -11.3285    233.0083    136.9800   7.3295498094e+01  -8.3968427671e+01  0.005347545  0.005126713 -69.00 0.0003690155    1.045    0.043
       226 -13.8179    117.7001    134.9072   7.2940082999e+01  -8.4775094034e+01   0.01637046  0.007928799 -72.63  0.002521957    2.117    0.528
       227 -12.5340     46.2994    136.2884   7.2439036316e+01  -8.5273436307e+01  0.006714891  0.006020535  51.49 0.0005172694    1.095    0.087
       228 -12.0594     90.0270    135.9939   7.2714801032e+01  -8.4968084204e+01  0.006531281  0.004930795 -67.74 0.0004511868    1.332    0.249
       229 -13.8144     84.7475    134.8527   7.2775382935e+01  -8.5005394412e+01   0.01169671  0.008968708  10.64  0.002461891    1.337    0.252
       230 -13.8813     82.0594    127.9889   7.3300429927e+01  -8.5026476428e+01   0.01238576  0.009460446  83.07  0.002604733    1.272    0.214
       231 -12.6785     75.3234    125.0478   7.3502365592e+01  -8.5074431377e+01  0.008389136  0.005504057  74.34  0.000891149    1.469    0.319
       232 -13.7712    101.8074    134.0561   7.2925564731e+01  -8.4886460365e+01   0.01828288  0.005815975  63.80  0.002550068    2.870    0.652
       233 -11.8354    102.1888    129.8335   7.3250285752e+01  -8.4885180219e+01  0.005039855  0.004706288  10.12 0.0005119783    1.094    0.086
       234 -10.6166    209.7657    134.0601   7.3398521119e+01  -8.4131780914e+01  0.004541508  0.002956372  -5.18 0.0005394864    1.574    0.365
       235 -13.4027     58.3939    133.4482   7.2742933902e+01  -8.5190048598e+01   0.01213972  0.005286098 -71.51  0.001880585    2.391    0.582
       236 -11.3963    128.2589    133.2443   7.3113867327e+01  -8.4701849203e+01  0.004954274  0.003862809 -51.51 0.0008386018    1.300    0.231
       237 -11.7524     73.5898    132.7181   7.2884394902e+01  -8.5084128812e+01  0.005112111  0.003175719 -20.95 0.0008473597    1.634    0.388
       238 -13.2456     35.2981    131.6276   7.2761964667e+01  -8.5352085964e+01   0.01398391  0.005159347  72.02  0.002076364    2.521    0.603
       239 -13.0675     35.5012    128.4570   7.3029733417e+01  -8.5351779867e+01   0.01075605  0.005231952 -41.70  0.001277313    2.089    0.521
       240 -12.0120     93.9944    129.6298   7.3228043447e+01  -8.4942531282e+01  0.009404261  0.003446371   1.62  0.001353086    2.830    0.647
       241 -13.2064     50.2008    130.5744   7.2932803379e+01  -8.5248327836e+01  0.008501506   0.00574154  73.35  0.001677802    1.426    0.299
       242 -10.7244     19.4763    131.5160   7.2677972580e+01  -8.5462662379e+01  0.006542534  0.002796138  68.67  0.001027531    2.195    0.544
       243 -10.8482      2.4171    131.2747   7.2593418221e+01  -8.5581915989e+01  0.004745142  0.003260153 -20.88 0.0005916113    1.480    0.325
       244 -10.7132    199.4676    130.4632   7.3601536537e+01  -8.4204790840e+01  0.003492989  0.003403319  85.79 0.0001204887    1.011    0.011
       245 -14.6661     61.1574    126.8456   7.3293038216e+01  -8.5172955870e+01   0.02743505   0.01012308 -81.97  0.003951599    2.765    0.638
       246 -10.3012    130.5062    128.4638   7.3476147550e+01  -8.4687587418e+01  0.003501159  0.003403052  82.81 0.0001029132    1.009    0.008
       247 -12.4416    122.1868    126.9221   7.3556302475e+01  -8.4746193075e+01   0.01176093  0.005296173  53.51  0.001908719    2.138    0.532
       248 -11.7075    169.4316    126.1002   7.3794292219e+01  -8.4415972029e+01  0.006215687   0.00448989  66.95  0.001261472    1.338    0.253
       249 -12.8780     26.6327    124.9309   7.3282048667e+01  -8.5414897827e+01   0.01085927  0.007692798  64.81  0.001443436    1.363    0.266
       250 -12.8573     14.3197    117.5532   7.3859906185e+01  -8.5502997344e+01  0.007523405   0.00707382 -86.34  0.000935398    1.045    0.043
       251 -11.6823      9.1457    117.1162   7.3875962707e+01  -8.5539287772e+01  0.007204771  0.005084506  86.06  0.001447216    1.380    0.275
       252 -12.6738     20.9552    122.8325   7.3433562276e+01  -8.5455211855e+01  0.008386651  0.006704447  57.38  0.000398267    1.219    0.179
       253 -12.5836     15.4321    123.3228   7.3363853276e+01  -8.5493681661e+01  0.007633013  0.005557138 -79.41  0.001467766    1.362    0.266
       254 -12.7093     18.4795    114.8855   7.4108125160e+01  -8.5474492980e+01    0.0109028  0.008415868  73.25  0.002304696    1.254    0.203
       255 -11.4844      5.2683    122.4737   7.3386811328e+01  -8.5564985901e+01  0.007865791  0.004293061   4.48   0.00138574    1.889    0.471
       256 -10.2049    188.0000    127.9487   7.3731583393e+01  -8.4285640970e+01  0.005446735  0.002021339  -2.03 0.0003306866    2.765    0.638
       257 -11.0960    230.1488    130.6129   7.3699046121e+01  -8.3990196564e+01  0.005642701  0.004599642 -25.61 0.0003958269    1.255    0.203
       258 -11.2676    194.9541    122.5338   7.4123659829e+01  -8.4238230962e+01   0.00529005  0.003405393  87.93 0.0003374174    1.515    0.340
       259 -13.5296    105.0844    121.5577   7.3894141720e+01  -8.4867169769e+01   0.01742098  0.006738309 -77.63   0.00256847    2.636    0.621
       260 -11.5287    199.5470    121.3049   7.4220460215e+01  -8.4206342033e+01  0.006715277  0.003642412  58.47  0.001182747    1.779    0.438
       261 -11.4877    189.0450    121.3315   7.4187999717e+01  -8.4279815205e+01   0.00497087  0.004458286  88.96 0.0004438917    1.089    0.082
       262 -13.3698     70.9597    119.3203   7.3940819700e+01  -8.5106401419e+01   0.01258072  0.005712508  63.67  0.002054417    2.096    0.523
       263 -14.0302     78.0716    119.2417   7.3973845094e+01  -8.5056667651e+01   0.01534509  0.008854428 -80.94  0.002795437    1.720    0.419
       264 -12.7958     57.3274    118.0630   7.3990409355e+01  -8.5202048380e+01  0.007425107  0.004745922  50.70 0.0006798082    1.530    0.347
       265 -12.3938     23.1463    116.6187   7.3977256096e+01  -8.5441474539e+01     0.011968  0.006843202  29.94  0.002171781    1.770    0.435
       266 -12.5676     63.9150    120.1589   7.3846005728e+01  -8.5155485227e+01  0.008374056  0.004540402  12.16  0.001468412    1.900    0.474
       267 -12.1695     94.8700    117.6763   7.4155986890e+01  -8.4939473113e+01  0.007224771  0.005259713 -16.88  0.001474563    1.406    0.289
       268 -11.3608    224.0905    120.3148   7.4354117356e+01  -8.4034802181e+01  0.004999857  0.004359535 -85.38 0.0004404353    1.125    0.111
       269 -13.1274    104.3714    114.6128   7.4421609154e+01  -8.4873555876e+01   0.01083859  0.007170336  68.09  0.001354087    1.460    0.315
       270 -12.0750    108.8810    111.9531   7.4636812636e+01  -8.4842412897e+01  0.006629041  0.006027136  35.20 0.0009578249    1.101    0.092
       271 -10.2962     29.2805    116.3189   7.4027239666e+01  -8.5398631266e+01  0.003796853  0.002376177  43.15 0.0002765752    1.581    0.368
       272 -11.1346    196.6768    115.5685   7.4601205757e+01  -8.4227406628e+01  0.006547066  0.003286398  80.91 0.0008790745    1.924    0.480
       273 -13.1115     83.1270    111.4918   7.4601801635e+01  -8.5022732813e+01   0.01337947  0.006161376   1.90 0.0006608549    2.231    0.552
       274 -12.5513    115.7540    113.2775   7.4555416651e+01  -8.4794111190e+01  0.008179368  0.005212231  57.14  0.001003525    1.525    0.344
       275 -11.0767    113.3656    109.8067   7.4810655072e+01  -8.4811310889e+01   0.00518314  0.004507774  10.02  0.001015491    1.175    0.149
       276 -12.1564     67.3999    114.1920   7.4339398537e+01  -8.5132351632e+01  0.008947629  0.003916003 -26.68  0.001085644    2.310    0.567
       277 -13.4013     62.6128    110.7465   7.4602646386e+01  -8.5166417817e+01   0.01607101   0.00715042 -21.23   0.00255703    2.281    0.562
       278 -11.5796     63.5287    105.5305   7.5027129002e+01  -8.5160651265e+01  0.006608551  0.004721204  31.08 0.0008238641    1.406    0.289
       279 -12.7600     90.3949    110.4509   7.4703101396e+01  -8.4972013044e+01    0.0120678  0.005878422  28.63 0.0002677731    2.079    0.519
       280 -11.8485     53.0451    110.3766   7.4604879756e+01  -8.5233433319e+01  0.008478709  0.005562551  84.51  0.001097627    1.481    0.325
       281 -12.0352    217.8121    109.6946   7.5039857145e+01  -8.4080195605e+01  0.009036451   0.00381499 -81.44  0.001395941    2.350    0.574
       282 -11.7459    121.8343    108.3095   7.4942631567e+01  -8.4752202084e+01  0.005872182  0.005453592  10.14 0.0004118852    1.101    0.091
       283 -11.4858    157.7403    107.0479   7.5108509315e+01  -8.4500961828e+01  0.009895459  0.004598214  57.57  0.001624462    2.080    0.519
       284 -12.0466      2.2806    107.2083   7.4724856393e+01  -8.5589148461e+01  0.007657181  0.005719045  62.00  0.001452063    1.301    0.231
       285 -11.3635    170.4811    109.4343   7.4965199043e+01  -8.4411539144e+01  0.003505588  0.003375804  75.79 6.788308e-05    1.009    0.009
       286 -10.8148    140.0125    107.2374   7.5060112389e+01  -8.4625053231e+01  0.004899248  0.002902002  87.55 0.0008885004    1.644    0.392
       287 -11.6375     72.2223    107.6130   7.4880391105e+01  -8.5099572229e+01  0.005304148  0.003047649  71.32 0.0008498128    1.678    0.404
       288 -12.9660     10.7638    105.2185   7.4924012362e+01  -8.5530022468e+01   0.01208214  0.009132197 -75.87  0.001832676    1.308    0.236
       289 -11.5531     13.2031    102.3908   7.5177027687e+01  -8.5513218503e+01    0.0103141   0.00578202 -73.52  0.001847019    1.774    0.436
       290 -11.2102    220.0438    104.3111   7.5399227406e+01  -8.4064976811e+01  0.004875128  0.004355535 -89.45 0.0002757478    1.093    0.085
       291 -11.0394    229.7760    103.1706   7.5487358034e+01  -8.3996898650e+01  0.005257045  0.004569153 -53.62 0.0005147452    1.160    0.138
       292 -11.1962    105.5820    102.8364   7.5323144548e+01  -8.4866453124e+01  0.005241406  0.003043704 -22.77 0.0009433674    1.763    0.433
       293 -11.1746    182.9155    102.5239   7.5467219759e+01  -8.4325007269e+01  0.005297832  0.003405638  87.43 0.0004892492    1.515    0.340
       294 -13.0219     78.7001     92.4825   7.6093963066e+01  -8.5054873945e+01  0.008479137  0.006142639 -40.03  0.001699651    1.406    0.289
       295 -12.3288     78.8133    101.6986   7.5364560064e+01  -8.5053943901e+01  0.007384545  0.006701629 -48.72 0.0006004507    1.116    0.104
       296 -12.6345     76.6548     97.1023   7.5725670182e+01  -8.5069226647e+01  0.008495959  0.005653318  54.73 0.0005314877    1.470    0.320
       297 -11.9539     31.8476     99.3012   7.5479334480e+01  -8.5382890265e+01   0.01434358  0.006023004  48.90  0.002244836    2.326    0.570
       298 -11.0426     25.6034     98.6045   7.5528172535e+01  -8.5426635984e+01  0.008923926  0.004575357 -50.08  0.001523871    1.978    0.494
       299 -13.0622    162.5598     99.2200   7.5671707571e+01  -8.4467647648e+01   0.01166461  0.004978522 -33.14  0.001285166    2.397    0.583
       300 -10.7835    191.6959     99.6704   7.5674258004e+01  -8.4263624770e+01  0.003909292  0.002333409  44.96 0.0007035664    1.652    0.395
       301 -11.6501     93.9735     99.5149   7.5559881310e+01  -8.4947896959e+01  0.005432534  0.003409641  88.18 0.0006470875    1.552    0.356
       302 -11.6371     58.9186     97.9305   7.5635429665e+01  -8.5193399978e+01   0.01100263  0.005581861 -61.19   0.00187309    1.982    0.495
       303 -12.4917      8.9267     97.6341   7.5585130681e+01  -8.5543423618e+01  0.008337115  0.006258001 -36.03  0.001623545    1.359    0.264
       304 -12.4050     64.9336     95.6908   7.5824703235e+01  -8.5151315287e+01  0.009583484  0.004792432  40.47  0.001627216    1.980    0.495
       305 -10.8366    118.1451     94.9228   7.5938202981e+01  -8.4778691435e+01  0.005089919  0.004425032 -48.40 0.0003306685    1.164    0.141
       306 -12.1040    152.9842     99.5790   7.5634498481e+01  -8.4534689674e+01  0.009393637  0.005892161 -44.02  0.001670205    1.619    0.383
       307 -10.5441     47.1436     93.3218   7.6000342466e+01  -8.5275871592e+01  0.005122602  0.002956596 -73.74 0.0004073852    1.712    0.416
       308 -11.8382    170.9845     91.4587   7.6225198942e+01  -8.4408564635e+01  0.006779019  0.004602771 -27.99 0.0006867028    1.511    0.338
       309 -11.4192     41.2717     91.7997   7.6122225361e+01  -8.5316951886e+01  0.005932933  0.004471941 -70.09 0.0004512597    1.314    0.239
       310 -12.3146    188.8448     90.9357   7.6269431921e+01  -8.4283466964e+01  0.008757133  0.004979735  76.98  0.001203998    1.707    0.414
       311 -10.8388    140.0894     90.8597   7.6253373215e+01  -8.4624897277e+01  0.006455053  0.003144954 -56.06 0.0008824853    2.065    0.516
       312 -11.6481     69.1929     89.8135   7.6301107338e+01  -8.5121343522e+01  0.005090687  0.003828222  48.70 0.0002899837    1.310    0.237
       313 -11.0571     28.4743     90.4744   7.6225654713e+01  -8.5406513148e+01  0.003499452  0.003404545  79.86 9.221798e-05    1.003    0.003
       314 -10.3984    249.4142     89.5205   7.6383195031e+01  -8.3859265797e+01  0.003470501  0.003387128  59.41 6.504819e-05    1.017    0.016
       315 -11.9520    125.9289     87.1264   7.6523736475e+01  -8.4723830910e+01   0.01120735  0.006219418   0.16  0.002004268    1.850    0.459
       316 -11.7773      3.3216     88.1719   7.6414352013e+01  -8.5582507425e+01  0.007937283  0.005445238 -14.66  0.001572782    1.501    0.334
       317 -12.1231      9.4035     86.5502   7.6558510418e+01  -8.5539801135e+01   0.01386525   0.00739987  72.51  0.001355477    1.822    0.451
       318 -12.0267    149.2587     87.9923   7.6463999881e+01  -8.4560511053e+01   0.00496842  0.004736454  -7.06  0.000677256    1.079    0.073
       319 -12.4560     54.6281     85.7555   7.6627048933e+01  -8.5223047110e+01   0.01291515  0.008542561  64.53  0.002500009    1.475    0.322
       320 -11.8092    160.8279     84.7807   7.6693938619e+01  -8.4479212763e+01  0.007073202  0.002341517  46.82 0.0009685498    2.951    0.661
       321 -11.9134    150.0183     83.1654   7.6811256066e+01  -8.4554742765e+01  0.006011474  0.005044753   9.53 0.0005994332    1.217    0.179
       322 -11.0083    133.3106     84.1254   7.6745115151e+01  -8.4671856500e+01  0.004650991  0.004412742 -17.13 0.0002939235    1.085    0.078
       323 -11.8876    112.6547     82.9989   7.6833940606e+01  -8.4816391466e+01  0.007348037  0.005260207 -74.57 0.0002934365    1.374    0.272
       324 -11.5580    112.1135     78.0283   7.7209735836e+01  -8.4819493351e+01   0.01015288  0.004912263 -40.51  0.001685292    2.115    0.527
       325 -13.2238     65.1110     81.3282   7.6984057721e+01  -8.5149136654e+01   0.01386292   0.00655783  47.02  0.002298495    2.079    0.519
       326 -11.3676     73.9641     82.4960   7.6886306651e+01  -8.5087288776e+01  0.005257721  0.003411243 -89.02 0.0004168895    1.502    0.334
       327 -11.4016    182.6464     81.3150   7.6930885171e+01  -8.4326022990e+01  0.003978013  0.002316786 -47.85 0.0007045873    1.737    0.424
       328 -11.2825     88.8453     78.8773   7.7162919058e+01  -8.4982573264e+01  0.005692434  0.004562743  49.40 0.0007829069    1.230    0.187
       329 -11.0882     51.6957     79.3063   7.7157755588e+01  -8.5242788543e+01   0.01074709  0.004406037 -56.68  0.001646398    2.437    0.590
       330 -10.8822     55.0182     77.9632   7.7265046780e+01  -8.5219306384e+01  0.006091872  0.005920757  57.52  0.000864088    1.020    0.020
       331 -10.4555     11.6823     71.6632   7.7859664450e+01  -8.5521452819e+01    0.0070339   0.00477203  82.57  0.001383675    1.437    0.304
       332 -11.3157     78.8206     82.1702   7.6910198752e+01  -8.5053238440e+01  0.005486288  0.004521699 -45.89 0.0004198916    1.230    0.187
       333 -11.4803    180.4934     77.4432   7.7199623991e+01  -8.4340544041e+01   0.00350174  0.003389341  87.45 -0.0001683688    1.011    0.011
       334 -11.7766    161.6997     77.0165   7.7243838322e+01  -8.4472081366e+01   0.00503397  0.004698893  15.64 0.0007197852    1.092    0.084
       335 -12.3370     75.5014     75.2663   7.7460356140e+01  -8.5075392568e+01  0.008686731  0.005487359  21.41  0.001653214    1.593    0.372
       336 -11.8455     86.2677     74.0121   7.7545740573e+01  -8.4999757796e+01   0.01073863  0.005861195   4.59  0.001116968    1.874    0.466
       337 -11.3977    156.0393     74.0328   7.7461215661e+01  -8.4511188845e+01   0.00612041  0.003731373 -43.15  0.001133658    1.668    0.401
       338 -11.9595    106.4320     73.2347   7.7579301150e+01  -8.4858403478e+01   0.01027155  0.004861828 -66.10  0.001410585    2.077    0.518
       339 -10.6862    150.5275     73.4997   7.7505514295e+01  -8.4549681912e+01  0.003572274  0.003333856  56.07 0.0008094604    1.054    0.051
       340 -11.2396    218.9426     72.2324   7.7517037752e+01  -8.4070387474e+01  0.005336551  0.004558539 -51.90 0.0004852202    1.179    0.152
       341 -11.2073    204.2997     72.3129   7.7527547729e+01  -8.4172927988e+01  0.003845003  0.002361292  46.52 0.0002052876    1.607    0.378
       342 -10.5214     68.2623     72.3499   7.7703297074e+01  -8.5125483346e+01  0.003824361  0.002348263  42.26 0.0006977289    1.611    0.379
       343 -11.8711      3.0557     71.5162   7.7889703640e+01  -8.5581806039e+01  0.005900441  0.004785587 -41.24 0.0007350497    1.255    0.203
       344 -13.1596      7.4477     77.1840   7.7382469359e+01  -8.5552256368e+01   0.01563369  0.009946709  49.97  0.001829644    1.548    0.354
       345 -10.5337     99.4525     68.5016   7.7952207551e+01  -8.4906200621e+01  0.003486603  0.003411127 -85.23 0.0001710837    1.016    0.015
       346 -11.0676    115.8232     74.5114   7.7471133926e+01  -8.4792894978e+01  0.005900948  0.004267727  -6.37   0.00119383    1.426    0.299
       347 -12.3570    241.6993     66.7429   7.7846299564e+01  -8.3909880879e+01  0.006492671  0.005713235  59.77 0.0003547997    1.114    0.102
       348 -10.9245    225.2416     67.2200   7.7838821555e+01  -8.4025204210e+01  0.004894292  0.003844724 -46.23 0.0003688549    1.289    0.224
       349 -11.8646     60.0477     66.9709   7.8153099908e+01  -8.5181672605e+01  0.005308428  0.005163919  59.42 0.0004679755    1.019    0.018
       350 -12.0606      9.6917     66.9077   7.8280057610e+01  -8.5534136736e+01  0.009002938  0.006317223  89.79 0.0003283781    1.389    0.280
       351 -11.3955     10.0138     63.2371   7.8600361250e+01  -8.5530756524e+01  0.006935443  0.004572441  74.17 0.0008209983    1.487    0.328
       352 -11.6141     12.7139     60.5496   7.8826053503e+01  -8.5510951880e+01   0.01018786  0.005256524   0.78  0.001752535    1.997    0.499
       353 -10.1054    185.2824     65.7145   7.8002489896e+01  -8.4304581491e+01  0.003665162  0.002440498 -45.84 0.0001695196    1.521    0.343
       354 -10.6688    178.8546     64.2222   7.8116908059e+01  -8.4349190759e+01  0.004968969  0.003782354  48.59 0.0003202037    1.297    0.229
       355 -11.4845    164.9530     64.0032   7.8158674113e+01  -8.4446450935e+01  0.005142314  0.005072625  55.27 0.0003475152    1.022    0.022
       356 -11.0044     92.1221     63.8735   7.8324841658e+01  -8.4956265749e+01  0.005394547  0.004450547 -48.11 0.0003231861    1.225    0.183
       357 -10.3424     23.2734     63.5794   7.8530656328e+01  -8.5438074304e+01   0.00398611  0.002265371 -39.60  0.000531751    1.804    0.446
       358 -11.5432    100.5759     62.0973   7.8441157358e+01  -8.4896557217e+01  0.006095059  0.004581498 -66.03 0.0005422615    1.313    0.238
       359 -11.6046    108.8172     59.4806   7.8619021673e+01  -8.4838042040e+01  0.007257649  0.005008808 -43.40  0.001002402    1.473    0.321
       360 -12.0307     41.1831     60.0073   7.8777358914e+01  -8.5311554612e+01  0.008723383  0.005080419  89.45  0.001116206    1.675    0.403
       361 -12.1078     18.3974     59.4124   7.8904785614e+01  -8.5470779241e+01  0.007270072  0.006020677   3.27  0.001583972    1.240    0.193
       362 -12.4612    192.7324     57.7053   7.8535068700e+01  -8.4250139235e+01  0.006770022  0.005714064 -29.27 0.0002273096    1.218    0.179
       363 -11.7497     54.9279     57.4354   7.8944023503e+01  -8.5214459597e+01  0.006143373  0.004776701 -45.91 0.0004810928    1.302    0.232
       364 -11.7249    159.9747     57.3320   7.8641277984e+01  -8.4479284978e+01   0.00507579  0.004491801 -87.99  0.000559334    1.101    0.092
       365 -11.2805    100.5969     56.7958   7.8847265088e+01  -8.4894655671e+01  0.005194857  0.003179752 -17.05 0.0009562557    1.706    0.414
       366 -12.4369     23.5833     55.8745   7.9189389062e+01  -8.5433159143e+01  0.009925789  0.006332497  63.55  0.001141031    1.549    0.354
       367 -11.6456     19.8390     53.0991   7.9442992567e+01  -8.5458209465e+01  0.005766576  0.005114509 -11.20 0.0003965976    1.165    0.141
       368 -11.2474     40.5209     53.0817   7.9357203293e+01  -8.5313548428e+01  0.006179606  0.004595759  71.80 0.0005716347    1.319    0.242
       369 -12.9378    113.9107     52.6595   7.9118307485e+01  -8.4799959919e+01   0.01035266  0.006875096 -72.59  0.002027956    1.470    0.320
       370 -11.7029    176.0136     50.9500   7.9043921859e+01  -8.4364786505e+01  0.005308819  0.005170477 -87.92 0.0003574063    1.012    0.012
       371 -12.1797    131.7610     49.9951   7.9255191409e+01  -8.4674021495e+01   0.01004042  0.005027765  38.03  0.001712347    1.964    0.491
       372 -11.9546    162.0682     50.7276   7.9102413698e+01  -8.4462273151e+01  0.009770208  0.004070196  21.76  0.001528108    2.353    0.575
       373 -13.3648     30.4957     49.8393   7.9673142320e+01  -8.5382253190e+01   0.01023346  0.007740218 -49.49  0.001317773    1.331    0.248
       374 -11.3063     99.4798     49.5013   7.9409892232e+01  -8.4899640477e+01  0.003500057  0.003410646 -84.78 0.0003031862    1.015    0.014
       375 -11.9130     19.6421     47.0430   7.9964563292e+01  -8.5456821514e+01   0.01251648  0.003281473  15.79  0.001590429    3.584    0.721
       376 -11.4817     41.6797     46.9315   7.9864035599e+01  -8.5302705171e+01  0.006975304  0.004934458 -70.56 0.0005770164    1.381    0.276
       377 -11.4473    197.0364     44.2277   7.9436579398e+01  -8.4215022714e+01   0.00496864   0.00456516 -81.96 0.0003755302    1.064    0.060
       378 -11.6560    142.8061     43.6894   7.9673432313e+01  -8.4594066772e+01  0.009081106  0.003788723 -38.68  0.001338355    2.506    0.601
       379 -11.2561     95.2156     44.6423   7.9800628607e+01  -8.4927302313e+01  0.005268356  0.003071414  76.33 0.0009467863    1.698    0.411
       380 -11.1324    158.1763     41.6003   7.9761857686e+01  -8.4485626492e+01  0.005682888  0.004690269 -20.75 0.0004757549    1.255    0.203
       381 -13.6599     30.2032     32.9080   8.1104412615e+01  -8.5375194725e+01   0.02183231  0.007868884  44.83  0.003167827    2.738    0.635
       382 -10.3321     97.6904    249.3716   6.4176163667e+01  -8.4815171553e+01  0.003961667  0.002362277 -50.07 0.0006045994    1.771    0.435
       383 -12.4816    124.4914     39.6400   8.0047254664e+01  -8.4720202748e+01  0.006217588  0.006069746  79.49 0.0002364404    1.005    0.005
       384 -10.9091    220.6474     38.1472   7.9757612227e+01  -8.4047214018e+01  0.004865581  0.004442391  24.08 0.0007551401    1.109    0.098
       385 -13.0586      8.5377     36.1666   8.0972238559e+01  -8.5528453177e+01   0.00893788  0.006790072 -12.84  0.001864688    1.373    0.272
       386 -11.3988    225.5030     36.0144   7.9878985171e+01  -8.4012265954e+01  0.005238009  0.004659429 -89.89 0.0003351641    1.095    0.087
       387 -12.5911     78.8420     32.1627   8.0855835693e+01  -8.5035117075e+01   0.01394407  0.006736368 -27.36  0.001915815    2.230    0.552
       388 -11.0219     42.7751     33.5692   8.0966097266e+01  -8.5287826022e+01  0.005264057  0.003006446 -66.86 0.0009441304    1.693    0.409
       389 -11.2287    106.5270     31.9907   8.0709860697e+01  -8.4841643535e+01  0.005383132  0.003502178   2.44  0.001028026    1.585    0.369
       390 -12.4130     96.3622     30.7152   8.0864804008e+01  -8.4911896856e+01  0.007850631  0.006350992 -73.79 0.0005900424    1.207    0.172
       391 -12.3328     96.5042     27.5322   8.1107828468e+01  -8.4908970500e+01  0.006783134   0.00569235 -40.70 7.245683e-05    1.215    0.177
       392 -10.7856    175.7764     31.1661   8.0415760888e+01  -8.4357361181e+01  0.005072528  0.003771938  48.05 0.0002514937    1.332    0.249
       393 -12.0816     46.3517     30.8144   8.1169813112e+01  -8.5261153079e+01   0.00599417  0.005366873  62.00 0.0006753824    1.098    0.089
       394 -12.5588     46.1224     25.6960   8.1592172713e+01  -8.5259401727e+01   0.01024377  0.007432824 -30.65  0.001110408    1.433    0.302
       395 -10.3733    218.0103     30.2562   8.0286656143e+01  -8.4061753271e+01  0.004414707  0.002979085 -87.62 0.0002746746    1.444    0.308
       396 -12.7736     35.0412     40.3017   8.0452618460e+01  -8.5345720781e+01    0.0116327  0.006625362  80.62  0.001432996    1.741    0.425
       397 -10.9516     84.7279     29.3580   8.1039461294e+01  -8.4992321986e+01  0.003826735  0.002390636 -39.49 0.0006654311    1.647    0.393
       398 -10.9008      2.7154     29.6334   8.1586385321e+01  -8.5564885326e+01  0.005180379  0.003093831 -71.86 0.0007005728    1.614    0.381
       399 -12.3006     60.2693     27.5929   8.1337880405e+01  -8.5161948208e+01  0.008387812  0.005245721  34.16            0    1.579    0.367
       400 -11.5690      4.6226     24.1740   8.2049023579e+01  -8.5547728598e+01  0.006409687  0.005287594  58.76 0.0003508173    1.199    0.166
       401 -11.8775     88.6773     24.0861   8.1423205599e+01  -8.4961395072e+01  0.004965286  0.004498787  20.28 0.0005661875    1.121    0.108
       402 -12.0248     84.0093     23.9701   8.1463540058e+01  -8.4993892966e+01  0.006144514  0.003705709 -43.31 0.0009682292    1.692    0.409
       403 -10.9413    132.9959     20.7787   8.1386026883e+01  -8.4649926991e+01  0.005281738   0.00447354 -46.08 0.0002166891    1.195    0.163
       404 -11.1580    131.8082     17.1970   8.1654641648e+01  -8.4655811496e+01  0.005663708   0.00468938 -14.94 0.0003823968    1.257    0.204
       405 -10.7768    123.4939     19.4744   8.1542118167e+01  -8.4715368107e+01  0.003518022  0.003390845  72.54 0.0002491765    1.014    0.014
       406 -11.1211     66.7266     15.5525   8.2253584270e+01  -8.5108436921e+01  0.006506448  0.003125511   6.08 0.0009870434    2.140    0.533
       407 -10.6949     31.6640     15.6431   8.2542753355e+01  -8.5352796370e+01  0.005664848   0.00341995  49.43 0.0006918763    1.654    0.395
       408 -10.8125     74.4968     13.5289   8.2350931500e+01  -8.5052744374e+01  0.003511278  0.003395702 -71.34 0.0001673884    1.028    0.027
       409 -11.4068    115.0000    246.8897   6.4637032320e+01  -8.4700033739e+01  0.009777419  0.002021068 -11.18  0.001054788    4.966    0.799
       410 -10.6769    122.6478    246.2679   6.4800266321e+01  -8.4648439472e+01  0.004721229  0.003270888   6.83 0.0005556336    1.534    0.348
       411 -15.4838     53.8726    203.5978   6.7029624615e+01  -8.5171868682e+01    0.0511725   0.03541199 -72.93   0.01016827    1.506    0.336
       412 -11.8148    168.7722    244.9693   6.5554974869e+01  -8.4333462627e+01  0.005732455  0.005238672 -56.92 0.0003483605    1.116    0.104
       413 -11.2937    205.8291    244.1431   6.6089072873e+01  -8.4079528924e+01  0.005476428  0.004649765 -54.06 0.0004716735    1.207    0.171
       414 -10.7087    221.4379    242.5134   6.6382740527e+01  -8.3973868129e+01  0.003471395  0.003410619 -83.78 0.0001716015    1.025    0.024
       415 -10.5965    246.6526    241.3192   6.6746242806e+01  -8.3801336728e+01  0.003932812  0.002384172 -52.63 5.524556e-06    1.732    0.423
