#   1 NUMBER                 Running object number                                     
#   2 MAG_AUTO               Kron-like elliptical aperture magnitude                    [mag]
#   3 X_IMAGE                Object position along x                                    [pixel]
#   4 Y_IMAGE                Object position along y                                    [pixel]
#   5 X_WORLD                Barycenter position along world x axis                     [deg]
#   6 Y_WORLD                Barycenter position along world y axis                     [deg]
#   7 A_WORLD                Profile RMS along major axis (world units)                 [deg]
#   8 B_WORLD                Profile RMS along minor axis (world units)                 [deg]
#   9 THETA_WORLD            Position angle (CCW/world-x)                               [deg]
#  10 FWHM_WORLD             FWHM assuming a gaussian core                              [deg]
#  11 ELONGATION             A_IMAGE/B_IMAGE                                           
#  12 ELLIPTICITY            1 - B_IMAGE/A_IMAGE                                       
         1 -12.4784    223.4404     25.8323   5.2294156025e+01   2.7686468392e+01    0.3682098    0.2319654 -60.15 0.0006691185    1.529    0.346
         2 -14.6311    151.6433     45.2730   6.8151191350e+01   4.1715113048e+01     4.832236     1.813488  68.70   0.01252996    6.326    0.842
         3 -15.4948    135.5979     24.4299   6.5509035997e+01   4.7859579371e+01     6.198427     1.148622  49.38   0.01977834    4.126    0.758
         4 -15.2250    221.5718     38.5029   5.5206778377e+01   2.6437459961e+01     3.690655     1.563899 -66.58   0.01245684    4.292    0.767
         5 -14.3246    210.8337     46.8814   5.8485230091e+01   2.7715100694e+01     1.039453      1.01768  43.77  0.004750947    1.287    0.223
         6 -15.6025    220.9156      2.8917   4.7862617552e+01   3.0916227444e+01     4.897178          nan  64.36   0.01299675    7.256    0.862
         7 -16.3183    240.8713     90.5016   6.3774496607e+01   1.3956335521e+01     9.079951     1.848657 -40.90   0.02632181    4.469    0.776
         8 -10.9950    232.4472     23.5497   5.0836294765e+01   2.5981216359e+01    0.2372234    0.1586352 -88.29  0.001126659    1.341    0.255
         9 -14.4776    245.8150     14.8533   4.7826996880e+01   2.4182033739e+01    0.9114493    0.5258733  80.37  0.005329873    1.519    0.341
        10 -15.7457    180.3165     78.3019   7.1173099670e+01   2.9880948475e+01     6.227063      2.38621 -52.09  0.005084703    3.410    0.707
        11 -14.5524    248.0500      4.9742   4.5804844075e+01   2.4878907915e+01     1.479444    0.6107798 -42.30  0.007806879    2.301    0.565
        12 -11.6412    115.7716      4.5365   6.3656003267e+01   5.3956646696e+01    0.3742724   0.09047028  55.95  0.001444201    3.191    0.687
        13 -11.3066    105.1422      2.3961   6.5321017254e+01   5.6239354597e+01    0.2379942    0.1541035  28.69  0.001464099    1.473    0.321
        14 -11.9611     69.6326      2.6747   7.4807624897e+01   6.2493533976e+01    0.3817301    0.1099927  42.04  0.001739541    2.824    0.646
        15 -14.7188      9.8078    207.8308   1.3502820812e+02   2.9599133687e+01     0.911979    0.6305868 -87.03  0.003928355    1.084    0.078
        16 -13.8285    172.6740     60.2833   6.8032355882e+01   3.4655038748e+01     0.536893    0.4559468  -8.24   0.00256633    1.476    0.322
        17 -11.9027    178.5388    138.9948   8.6302376884e+01   1.8218114554e+01    0.3225538    0.2723404 -77.69  0.001006399    1.314    0.239
        18 -11.1925    208.1575    122.9005   7.6521278958e+01   1.5012352672e+01    0.2339635    0.1974357 -76.21 0.0005382301    1.269    0.212
        19 -10.2643    135.0098    120.4900   9.2151222270e+01   3.1643102475e+01    0.2661079    0.1846086 -48.16  0.001111058    1.418    0.295
        20 -12.1693    167.5238    113.5589   8.2708548695e+01   2.6072664441e+01    0.4258522    0.3774397 -85.87  0.000872822    1.201    0.167
        21 -11.4396    134.9413    107.6994   8.8992170997e+01   3.4410714445e+01     1.049482    0.3312803 -43.43  0.003301014    3.186    0.686
        22 -11.3985    156.3964    101.7886   8.2290503053e+01   3.0979571390e+01    0.3525497     0.235247 -54.99  0.001255614    1.614    0.381
        23 -10.1254    148.5732    102.7823   8.4384489150e+01   3.2512138869e+01    0.2056522    0.1428404 -55.47 0.0003112947    1.544    0.353
        24 -10.6117    141.6755    102.6283   8.6016724878e+01   3.4039287915e+01    0.2304706    0.1818149   4.07 0.0007005531    1.680    0.405
        25 -12.9470    180.0218    133.4325   8.4698328154e+01   1.9082840377e+01    0.5256231    0.4541636 -13.01  0.002627249    1.381    0.276
        26 -11.6805    148.0160     97.1724   8.3066895948e+01   3.3760339325e+01      0.37659    0.3129438   9.20 0.0006937953    1.483    0.326
        27 -13.0661    157.8871     89.3566   7.8735172645e+01   3.3065871743e+01    0.7911978    0.4980218  22.96  0.003103398    2.567    0.610
        28 -12.2976    225.8348     95.5694   6.7197150257e+01   1.6312774199e+01    0.4228705    0.2484563  55.46  0.001507295    1.760    0.432
        29 -10.7129    134.3616     94.4797   8.5704054264e+01   3.7232036179e+01    0.2804603    0.2444344 -85.29  0.000524984    1.335    0.251
        30 -11.6391    141.6423     86.2589   8.1705914404e+01   3.7261600986e+01    0.3242896     0.313872 -62.97  0.001033583    1.063    0.059
        31 -11.6485    218.0540     85.6135   6.6212808987e+01   1.9831832921e+01    0.2729124    0.1959269 -54.24 0.0005382175    1.333    0.250
        32 -15.1655     41.6817    183.2994   1.2650180573e+02   3.1670734891e+01     1.879609     1.451238 -18.46   0.00153442    2.149    0.535
        33 -12.8770    156.1842     77.9611   7.6102887478e+01   3.5535466176e+01    0.3573869    0.3197995 -36.04  0.000813857    1.172    0.147
        34 -10.3607    223.5470     74.8241   6.2920014407e+01   2.0444872064e+01    0.2688883    0.1734638  84.57  0.001224303    1.816    0.449
        35 -10.2046    130.5196     66.2117   7.8857071968e+01   4.3190319770e+01    0.2608841    0.1946779  47.78 0.0008513622    1.287    0.223
        36 -12.4206    190.3861     63.0462   6.5513023496e+01   3.0053416407e+01    0.3866035    0.2620123  41.25  0.001883869    1.712    0.416
        37 -12.5797    195.6122     59.2538   6.3705858647e+01   2.9418574936e+01    0.4141707    0.2884263  37.62  0.001501146    1.811    0.448
        38 -14.6428     52.0276    174.6024   1.2317572846e+02   3.2459195237e+01     1.147317     1.076745  -4.66  0.002470539    1.454    0.312
        39 -12.3537    229.9292    167.2044   8.2054154429e+01   1.7762961869e+00    0.4442771    0.2714551 -57.80  0.001977822    2.033    0.508
        40 -12.0658    222.0743    179.9524   8.6164500638e+01   8.3811357884e-01    0.4608274    0.2386992 -35.28  0.001581382    2.003    0.501
        41 -10.2691    128.9859     46.4006   7.3453015952e+01   4.6533458427e+01    0.2753298    0.1080564  45.51  0.001103329    2.356    0.576
        42  -9.7934    165.8083     39.9534   6.3986912308e+01   3.9182791908e+01    0.1734405    0.1615978  76.63 0.0002960454    1.050    0.048
        43 -11.7784     66.4833    144.5015   1.1512729576e+02   3.7712305264e+01    0.5077463    0.2884397 -71.89   0.00159223    1.836    0.455
        44 -11.7650     69.3407    145.6772   1.1460376656e+02   3.7056274575e+01    0.3626791    0.3016239  82.09  0.001399497    1.257    0.205
        45 -11.0420    232.2544     26.9939   5.1552604271e+01   2.5584918813e+01    0.2317009    0.1937015 -44.13 0.0007258682    1.380    0.275
        46 -12.7840    226.9525    173.6622   8.3946419896e+01   1.1125790342e+00    0.6305814    0.3321942 -24.70  0.002413481    2.769    0.639
        47  -9.3944    210.1116    170.1918   8.6511102849e+01   5.0521351429e+00    0.1857252    0.1684742  88.31  0.000248614    1.274    0.215
        48 -12.6669    245.3371    164.6560   7.8731505880e+01  -6.0709566783e-01    0.4632716    0.3349046   1.31  0.001824446    1.863    0.463
        49 -10.4203    191.2859    192.2843   9.4833723897e+01   4.3464131425e+00    0.4846697    0.2464187 -68.62  0.001181687    7.279    0.863
        50 -11.8609    160.4520    128.3243   8.7889370857e+01   2.4503591963e+01    0.4592978    0.3003303 -51.56  0.002012228    1.541    0.351
        51  -9.9696    136.0000    129.9393   9.4153312501e+01   2.9337192726e+01    0.2619003   0.08598754 -48.09 0.0008092606    2.990    0.666
        52 -10.1269    202.0264    248.0797   1.0254134596e+02  -7.5091118759e+00    0.1863457    0.1601013  27.50 0.0003016684    1.014    0.014
        53 -10.9674     92.3674    236.2102   1.2235555994e+02   1.3166189171e+01    0.1747293     0.110103 -80.28 0.0009475347    1.653    0.395
