#   1 NUMBER                 Running object number                                     
#   2 MAG_AUTO               Kron-like elliptical aperture magnitude                    [mag]
#   3 X_IMAGE                Object position along x                                    [pixel]
#   4 Y_IMAGE                Object position along y                                    [pixel]
#   5 X_WORLD                Barycenter position along world x axis                     [deg]
#   6 Y_WORLD                Barycenter position along world y axis                     [deg]
#   7 A_WORLD                Profile RMS along major axis (world units)                 [deg]
#   8 B_WORLD                Profile RMS along minor axis (world units)                 [deg]
#   9 THETA_WORLD            Position angle (CCW/world-x)                               [deg]
#  10 FWHM_WORLD             FWHM assuming a gaussian core                              [deg]
#  11 ELONGATION             A_IMAGE/B_IMAGE                                           
#  12 ELLIPTICITY            1 - B_IMAGE/A_IMAGE                                       
         1  -9.3691      3.9326     27.8030   8.0806130481e+01   7.5832778352e+01    0.2708678    0.1928894 -84.65 0.0009477281    1.660    0.397
         2  -9.0343     74.2053     19.0466   3.1435220651e+01   6.4614518161e+01    0.4178956    0.2179941 -42.59   0.00139878    2.035    0.509
         3  -8.0510     17.1573     14.1241   5.9849013193e+01   7.7352772114e+01    0.1679186    0.1565719  56.96  0.000474115    1.329    0.248
         4  -7.9355     47.6061      9.7934   3.5619138798e+01   7.2134759657e+01    0.1832116    0.1227396 -39.70 0.0006223607    1.626    0.385
         5  -8.2055     91.0375      8.9533   2.1978689249e+01   6.1337189294e+01    0.2326756    0.1491066 -63.98 0.0006263845    1.705    0.414
         6  -8.6220     55.7106      9.7453   3.2147993115e+01   7.0241341707e+01    0.2605056    0.1942856 -51.71 0.0007097422    1.544    0.352
         7  -8.0090     70.3725      6.1477   2.5124809946e+01   6.6962947197e+01    0.1913757    0.1188021 -37.26 0.0005443029    1.701    0.412
         8  -8.5479     33.2552      4.7403   3.9298372974e+01   7.5890957889e+01    0.3082165    0.1539375 -44.25  0.001360645    2.454    0.592
         9  -7.9178    216.6360      4.7362   9.4281813287e+00   3.1470686064e+01    0.1001542    0.0866919  47.77 0.0006984901    1.643    0.392
        10  -8.5528     79.0825      3.6123   2.1588900565e+01   6.4934405460e+01    0.2713475     0.164811 -42.52 0.0009219276    1.734    0.423
        11  -7.9715     44.6104      2.7778   3.1671511013e+01   7.3587924101e+01    0.1801849    0.1180715 -36.98 0.0004097056    1.668    0.401
        12  -7.9924     62.5141      1.4083   2.4305601694e+01   6.9362314790e+01    0.1344713    0.1214286  71.87  0.000164372    1.052    0.049
        13  -9.5518    146.9212    245.7015   7.0193988911e+01   6.3253030439e+00    0.2589713    0.1739154  44.44  0.001168672    1.887    0.470
        14  -9.5654    246.5521    228.8640   5.0956078915e+01  -1.4805730874e+00    0.2428607    0.1189505 -30.93 0.0009756953    1.713    0.416
        15 -10.2041    248.7980    241.5055   5.2423457079e+01  -2.9954339912e+00    0.6368991    0.1422834 -35.54  0.003130379    3.893    0.743
        16  -8.4765     94.1818    249.3939   8.1478969925e+01   1.1545548412e+01       0.2473    0.1031424  48.00 0.0009912377    2.743    0.635
        17  -7.7390     25.9947    250.2530   9.6412200604e+01   1.8241741415e+01     0.151601   0.07662436  28.01 0.0006100651    1.539    0.350
        18  -8.0612    142.2338    247.6315   7.1343499276e+01   6.5590600281e+00    0.1633125   0.08629694  17.33    0.0005715    1.651    0.394
        19  -9.2227    120.1527    245.2139   7.5565126600e+01   9.3505646702e+00    0.2976747    0.1911408  54.94  0.001742431    2.210    0.548
        20  -8.3577     67.4044    244.6931   8.6967585929e+01   1.5205621784e+01    0.1830745    0.1168645 -82.14 0.0008100233    2.042    0.510
        21  -8.7448      9.6669    243.4943   9.9757823709e+01   2.0880888517e+01    0.3694054   0.07881875  71.52  0.001158641    6.883    0.855
        22  -8.8608    201.9540    242.7920   5.9800893894e+01   1.0220748688e+00     0.240593    0.1298267 -44.06  0.001005408    2.454    0.592
        23  -8.2053    139.4200    244.2112   7.1507878843e+01   7.3625816154e+00    0.1302416    0.1141618 -67.25 0.0009435154    1.732    0.423
        24  -7.8209     58.3016    244.6190   8.8994576537e+01   1.6160263776e+01    0.1276257   0.06772758  51.69 0.0007023144    1.774    0.436
        25  -8.7091    169.0769    243.2074   6.5652733220e+01   4.2933170343e+00    0.1871364    0.1288814  31.69  0.000802541    1.500    0.333
        26  -8.6652     77.6702    243.1002   8.4559552936e+01   1.4393164387e+01    0.1825091    0.1284988  56.63   0.00116295    1.526    0.345
        27  -9.2444    183.1893    240.1966   6.2691454586e+01   3.2155792386e+00    0.3199631    0.2199797  49.16  0.001956865    2.764    0.638
        28  -9.3664    160.1935    240.2813   6.6953983615e+01   5.6445928847e+00    0.2516491    0.2182156  89.54  0.001252273    2.229    0.551
        29  -8.2111    153.3511    241.8384   6.8469459270e+01   6.1724763365e+00    0.1753267    0.1093122 -56.48 0.0009458149    2.440    0.590
        30  -7.8923     88.1697    242.1283   8.2147733338e+01   1.3415416836e+01    0.1585727    0.1189639  49.95 0.0005755878    1.370    0.270
        31  -7.9573    214.4790    241.4606   5.7572584005e+01  -6.7009113033e-03    0.1043904   0.07379378  -1.79 0.0003013513    1.021    0.021
        32  -8.1236    240.5966    239.7815   5.3356999724e+01  -2.1375460811e+00    0.1421072   0.07452518 -26.32 0.0006198637    1.546    0.353
        33  -9.0989    242.9842    236.0158   5.2485026905e+01  -1.9408440411e+00    0.2423735    0.1048123  -4.61  0.001285155    3.071    0.674
        34  -9.1292    194.1547    239.3626   6.0658481523e+01   2.2058852558e+00    0.1829847      0.14951  -7.72 0.0008088938    1.259    0.206
        35  -8.6052    146.1865    239.2044   6.9556072833e+01   7.3459479689e+00    0.1453123    0.1230697  33.12 0.0004416488    1.368    0.269
        36  -7.7901     41.0000    239.0817   9.2575797500e+01   1.8899445203e+01    0.1599562   0.06714973 -77.14 0.0006006617    2.851    0.649
        37  -8.8566    230.9309    236.7514   5.4363189466e+01  -9.7217756593e-01     0.183827     0.163063 -14.04  0.001209162    1.774    0.436
        38  -7.9758    208.9976    238.2352   5.8014368853e+01   8.8645327613e-01    0.1263206    0.1054117 -27.46 0.0005161896    1.615    0.381
        39  -8.3836    135.2337    238.2572   7.1658325228e+01   8.7245342309e+00    0.1458169    0.1240834  39.38 0.0005219493    1.384    0.278
        40  -7.9835     25.4644    236.9481   9.6017379831e+01   2.0758450706e+01    0.1733127    0.0670984  62.34 0.0008093831    2.611    0.617
        41  -7.9033     13.3455    237.7153   9.8784752757e+01   2.1667594703e+01    0.1291686   0.05830413  47.61 0.0006343192    1.646    0.392
        42  -9.7205    214.8797    233.0599   5.6336626407e+01   9.3507059738e-01    0.3705289    0.3225137 -89.34  0.002342801    3.861    0.741
        43  -8.9813    203.0567    234.2641   5.8443630802e+01   1.9467514527e+00    0.2293987    0.1438071 -41.88 0.0009820055    2.005    0.501
        44  -9.7862    175.6385    233.1973   6.3117436943e+01   4.9423798527e+00      0.37444    0.2294082 -54.16  0.002195945    2.673    0.626
        45  -8.9465    108.6691    234.0393   7.6831390419e+01   1.2469745213e+01    0.3083802    0.1779643  52.47  0.001055571    2.206    0.547
        46  -8.6536    194.7582    232.7822   5.9646750381e+01   2.9731915409e+00    0.2039718    0.1691212  54.99    0.0013084    2.499    0.600
        47  -8.2934    123.2040    234.1178   7.3691763184e+01   1.0763282426e+01    0.2327986    0.1263725  46.08   0.00115196    2.146    0.534
        48  -8.2171     99.7204    233.9746   7.8806923911e+01   1.3517898514e+01    0.1882434    0.1220199  60.23  0.001054171    2.052    0.513
        49  -8.6863     78.2620    233.7709   8.3650492785e+01   1.5992354283e+01    0.1864151    0.1539826 -86.83  0.001251367    1.497    0.332
        50  -8.0892      8.2851    234.3648   9.9831169798e+01   2.2734662278e+01    0.1033004   0.08542193 -36.01  0.000702009    1.691    0.409
        51  -8.5850    132.6402    232.6357   7.1521782388e+01   9.8998730623e+00    0.1902303    0.1468471  83.62  0.001024577    2.340    0.573
        52  -9.1760     67.8575    231.4424   8.5866151719e+01   1.7571287282e+01     0.413736    0.2066469  62.79  0.001977548    2.634    0.620
        53  -9.4860    186.4222    230.4838   6.0786949786e+01   4.1465105760e+00    0.2616759    0.2168325 -62.27  0.001505141    2.332    0.571
        54  -8.1133    157.6220    231.8097   6.6354378425e+01   7.1413537848e+00    0.1334207     0.109814 -47.36 0.0003973157    1.618    0.382
        55  -8.3212     92.7540    231.6282   8.0141471397e+01   1.4735414393e+01    0.2267482    0.1418479  63.39 0.0008818088    2.186    0.543
        56  -8.9761    236.0051    230.3942   5.2702000670e+01  -7.2065301758e-01    0.2347852    0.1280074 -32.83  0.001129434    1.708    0.415
        57 -10.0052    149.6634    225.9895   6.7165265264e+01   8.9392067228e+00    0.4795052    0.3453942  89.99  0.002428383    3.612    0.723
        58  -9.0112    140.2792    230.1612   6.9626969510e+01   9.3955188228e+00    0.2408939    0.1332508  36.61   0.00108742    1.705    0.413
        59  -8.2002      1.4157    230.2857   1.0129292560e+02   2.4083922815e+01    0.1604095   0.08638087  67.18 0.0009403331    1.649    0.394
        60  -8.1130    229.9491    228.7150   5.3365046476e+01   1.9787018460e-02    0.1619881     0.117301 -32.81  0.001250408    1.656    0.396
        61  -8.8386    162.1878    227.7515   6.4919610952e+01   7.2147751629e+00    0.2494554    0.1886805  41.48  0.001597474    1.677    0.404
        62  -8.8569    127.8933    227.1969   7.1863063618e+01   1.1342752972e+01    0.2859928    0.1771111  49.68  0.001254986    2.069    0.517
        63  -8.1668    223.5188    226.7234   5.4061104262e+01   8.5559416314e-01    0.1859326   0.08033944 -30.05 0.0007169702    1.988    0.497
        64  -7.9419    119.8919    227.5780   7.3641702855e+01   1.2238617480e+01    0.1763977   0.09204977  37.22 0.0006542698    1.707    0.414
        65  -7.9856     49.3475    226.5463   8.9885781303e+01   2.0484639681e+01    0.2125951   0.09761456  80.26 0.0009415399    3.088    0.676
        66  -8.5323    206.1163    225.6644   5.6703361770e+01   2.7084772721e+00    0.1818511    0.1379848 -37.99  0.001067543    1.697    0.411
        67  -7.9404    200.1419    226.1553   5.7779439345e+01   3.2636470275e+00    0.1343459    0.1145843  -6.65 0.0004951013    1.326    0.246
        68  -8.8141    180.4904    224.1455   6.0959654191e+01   5.6563581902e+00    0.2287661    0.1422913  32.09 0.0008338594    1.614    0.380
        69  -8.8976    104.7749    223.5164   7.6548774103e+01   1.4771155918e+01    0.3072965    0.2003673  67.53  0.001390319    2.370    0.578
        70  -8.7341     93.9571    223.9321   7.9085162353e+01   1.5994192611e+01    0.3296396    0.1592352  49.18  0.001392366    2.318    0.569
        71  -8.8590    216.3609    223.2844   5.4683571961e+01   1.9680252165e+00    0.2028297    0.1561621 -31.54 0.0008050987    1.548    0.354
        72  -7.7124    113.6534    223.7680   7.4571098389e+01   1.3648891202e+01    0.1428995    0.1200814 -73.22 0.0004403514    1.584    0.369
        73  -7.6829     38.2700    224.5951   9.2424336222e+01   2.1989055793e+01    0.1345592   0.07037999  55.40 0.0006974425    1.753    0.430
        74  -8.3611    173.0904    222.7420   6.2133482002e+01   6.6925474621e+00    0.1786898    0.1471501 -35.70  0.000622022    1.450    0.310
        75  -7.9743    140.5779    222.7325   6.8602595422e+01   1.0542523455e+01    0.1365954    0.1197846 -59.58 0.0006847513    1.558    0.358
        76  -9.6057    239.2999    220.9796   5.0841616535e+01   3.9170858179e-02    0.3118913    0.1527977 -26.56  0.001774263    1.626    0.385
        77  -9.0216    225.5146    221.5883   5.2995703348e+01   1.2718540715e+00    0.1875997    0.1555402  -0.70 0.0009500278    1.365    0.267
        78  -9.3524    192.3146    221.0588   5.8387614723e+01   4.7716280807e+00    0.2498824    0.1986955 -43.19  0.001094258    1.729    0.422
        79  -8.8492    158.9127    220.2171   6.4517131335e+01   8.7284302332e+00    0.2465014    0.1727451  49.14  0.000900355    2.065    0.516
        80  -8.5329     82.7408    220.2836   8.1357923039e+01   1.8014455033e+01    0.2258358    0.1487037  63.85  0.001236616    1.852    0.460
        81  -8.0582     73.1653    220.7544   8.3702306309e+01   1.9035902547e+01    0.2160261   0.09878278  55.94 0.0009322137    2.710    0.631
        82  -9.2019      7.1673    221.3984   9.9743838419e+01   2.5428477792e+01    0.3223751   0.04735086  41.19  0.001253395    3.091    0.676
        83  -8.1092    202.8397    220.1177   5.6434527665e+01   3.7609694350e+00    0.1542944    0.1281576  -5.60 0.0005451778    1.238    0.192
        84  -9.0653    120.5596    219.0681   7.2456361269e+01   1.3624869051e+01    0.4020022       0.2257  55.42  0.001875977    2.803    0.643
        85  -7.6287     27.6772    220.6715   9.4782541395e+01   2.3802622410e+01    0.1149095   0.09134237 -25.98 0.0006067767    1.693    0.410
        86  -8.3843    210.0184    218.8389   5.5048143943e+01   3.1703211776e+00    0.1807109    0.1267579 -23.01 0.0005723621    1.247    0.198
        87  -9.1402    248.8221    217.8535   4.9018910080e+01  -4.7398897511e-01    0.2143327    0.1573613  48.04  0.001430082    3.396    0.706
        88  -8.6840     51.9607    217.5244   8.8624874273e+01   2.2035878830e+01      0.26708    0.1539448  55.46  0.001246967    1.674    0.403
        89  -8.7973    169.3712    215.9836   6.1861546865e+01   8.1215687671e+00    0.2385811    0.2021053 -77.77  0.001140798    2.206    0.547
        90  -8.5895    143.0587    216.4104   6.7225361736e+01   1.1270844734e+01    0.2316734    0.1765747  59.36  0.001233079    2.009    0.502
        91  -8.1467     61.7640    216.9220   8.6154119750e+01   2.1092743018e+01    0.2105009    0.1190095  61.51  0.001060474    1.982    0.495
        92  -8.5099     18.4920    214.8905   9.6778690802e+01   2.5845349343e+01    0.3009699     0.114861 -89.57  0.001333424    2.910    0.656
        93  -9.2428    133.0091    215.8574   6.9298112096e+01   1.2622901811e+01    0.4534399    0.2819922  63.13  0.002065788    3.348    0.701
        94  -8.7687    232.2158    214.5995   5.0925258385e+01   1.4534672413e+00    0.1824191    0.1449616 -36.79   0.00085496    1.780    0.438
        95  -8.1908    154.4965    214.9787   6.4657702262e+01   1.0083935868e+01    0.2187136    0.1337688  55.95  0.001019338    3.285    0.696
        96  -8.4812    185.3769    214.0035   5.8572275805e+01   6.5306120613e+00    0.1756975    0.1525858  26.59 0.0007448162    1.451    0.311
        97  -8.9520     93.2312    213.8981   7.8172658215e+01   1.7986454059e+01    0.3359607    0.1553119  49.38  0.001475149    2.476    0.596
        98  -9.1844     73.3751    211.7279   8.2806838436e+01   2.0825534421e+01    0.7375925    0.2257719  50.21  0.002380971    4.426    0.774
        99  -7.9130    247.3238    213.2971   4.8541046783e+01   1.7395503545e-01    0.1060135   0.05833792  -7.16 0.0003447144    1.624    0.384
       100  -9.3295    213.9189    212.0446   5.3377093680e+01   3.6310612862e+00    0.2527824    0.2059972  36.53  0.001411141    1.831    0.454
       101  -7.6792    197.6351    213.6864   5.6352296071e+01   5.1837751054e+00    0.1218981   0.07107694  -4.44 0.0007039608    1.763    0.433
       102  -7.7252    224.9721    212.4645   5.1697471682e+01   2.4324897242e+00    0.1138085    0.0909146  43.67 0.0004660191    2.235    0.553
       103  -9.3948    175.6502    210.0924   5.9779156435e+01   8.2522184406e+00    0.3563293    0.2530255  58.84  0.001817966    2.940    0.660
       104  -8.5010    161.6402    212.1369   6.2806252679e+01   9.6511462824e+00    0.1906143    0.1497597  30.03  0.000730927    1.315    0.240
       105  -7.8322    106.4610    212.5265   7.4870231581e+01   1.6591086568e+01    0.1295427    0.1093964  32.73 0.0008071985    1.090    0.083
       106  -8.9753    204.1206    210.7178   5.4787948283e+01   4.8657901974e+00    0.1952539    0.1626206 -31.19  0.000728938    1.472    0.321
       107  -8.2429    192.4788    210.4643   5.6757774190e+01   6.2129305799e+00    0.1715416    0.1041887 -46.95  0.000696548    2.114    0.527
       108  -8.7198    147.8882    210.2720   6.5339802828e+01   1.1679769220e+01    0.2580893    0.2110994  81.51  0.001217724    2.140    0.533
       109  -8.6726    116.5336    210.5095   7.2273478623e+01   1.5678647539e+01    0.3344159    0.1733895  47.25  0.001095912    2.233    0.552
       110  -9.0284      6.1820    208.5840   9.9618511947e+01   2.8232453389e+01     0.496635    0.1029011  65.05  0.001512389    5.436    0.816
       111  -7.9716     32.3195    209.9987   9.3069016645e+01   2.5628787205e+01    0.2076402   0.07123276  70.33 0.0007043477    4.230    0.764
       112  -8.9477    236.4956    208.0947   4.9289385164e+01   1.8123585536e+00    0.2182378    0.1703154 -46.72  0.001398023    2.198    0.545
       113  -8.3968     85.3629    208.9252   7.9540332073e+01   1.9947774338e+01    0.2516902    0.1635962  69.93  0.001283609    2.052    0.513
       114  -8.0413     46.3756    209.1733   8.9423742795e+01   2.4390189957e+01    0.1740019     0.111859  78.57 0.0006393612    1.712    0.416
       115  -9.1920    246.4417    207.1567   4.7721134302e+01   9.6135753326e-01    0.2120337    0.1351573 -28.67 0.0005849789    1.359    0.264
       116  -7.8966    156.5471    207.7444   6.3176187037e+01   1.0992558659e+01    0.1476681    0.1192815 -53.67 0.0009144678    1.630    0.386
       117  -8.2624    139.2363    208.0460   6.6859504170e+01   1.3172140164e+01    0.2246119    0.1477665  50.90 0.0008643641    2.030    0.507
       118  -8.1207    126.5982    208.3291   6.9689465907e+01   1.4770178612e+01    0.1841378    0.1440126  57.51 0.0008303493    1.664    0.399
       119  -9.1827     99.3210    205.8479   7.5756547571e+01   1.8799369518e+01    0.3478004    0.2206734  70.64  0.001260024    2.462    0.594
       120  -8.2156     56.5764    205.4404   8.6502202733e+01   2.4090731823e+01    0.2798504    0.1285792  51.10 0.0009023056    2.124    0.529
       121  -8.3478     11.6761    206.6821   9.8171510472e+01   2.8206637305e+01    0.1160197   0.09283663 -34.24 0.0005067622    1.671    0.402
       122  -9.1242    183.6743    203.7814   5.7297625428e+01   8.2223830032e+00     0.252713    0.2252202  68.98  0.001215309    2.013    0.503
       123  -7.9972    109.1903    205.1772   7.3296593998e+01   1.7644583034e+01    0.1745108    0.1432356  53.95 0.0005688805    1.372    0.271
       124  -9.2726    194.7468    203.4340   5.5251773182e+01   6.9450679321e+00    0.2517175    0.2164548 -26.25 0.0008795304    1.349    0.259
       125  -9.4071    192.3604    197.1928   5.4661302005e+01   8.1373351787e+00    0.3967537    0.3009105 -39.42   0.00206784    1.485    0.326
       126  -9.6137    163.7619    202.8635   6.0971525926e+01   1.0861020194e+01    0.3740982    0.2355133  46.36  0.001403758    2.110    0.526
       127  -8.6929    131.1572    203.6276   6.8001915483e+01   1.5020361042e+01     0.248066    0.1969772  67.91  0.001067145    1.848    0.459
       128  -8.0754     25.3071    204.6853   9.4582382828e+01   2.7459501691e+01    0.1404469   0.07395852  52.63 0.0003889939    1.626    0.385
       129  -9.4016    250.1466    201.4877   4.6322229425e+01   1.2682473209e+00     0.346081    0.1157278 -33.29  0.001571102    2.359    0.576
       130  -8.9764    243.2040    200.6791   4.7158250566e+01   2.0392970077e+00    0.2409097     0.131027 -34.89 0.0008963538    1.651    0.394
       131  -8.4933    211.0311    201.8341   5.2234853228e+01   5.2917472284e+00    0.1779203    0.1306856 -39.41   0.00062692    1.611    0.379
       132  -8.9568    140.6230    201.0008   6.5519542471e+01   1.4224603991e+01    0.3199169      0.23659  66.14  0.001387776    2.249    0.555
       133  -8.5469     80.1306    201.2544   8.0010767824e+01   2.2191350131e+01    0.3256517     0.185225  59.51  0.001353836    2.158    0.537
       134  -8.2225     48.7509    202.1708   8.8277006180e+01   2.5670831357e+01    0.2501515   0.09574849  55.04 0.0009658283    2.868    0.651
       135  -9.3878    149.6591    198.5845   6.3204177255e+01   1.3433385623e+01    0.3625972    0.2786408  80.33  0.001511157    2.511    0.602
       136  -8.9040    124.1421    199.1358   6.8950146846e+01   1.6799525622e+01     0.292814    0.2202863  75.01  0.001297716    2.083    0.520
       137  -9.2738    113.0344    198.2755   7.1446550022e+01   1.8479088773e+01    0.4220676    0.2540681  60.27  0.001913184    2.554    0.608
       138  -8.9836    237.0223    198.3152   4.7663477124e+01   2.9502180127e+00    0.2239419    0.1188094 -38.06  0.001001289    1.836    0.455
       139  -8.4192    177.0691    198.7310   5.7721641788e+01   9.8138456393e+00    0.1860509    0.1564645 -35.05 0.0005100783    1.344    0.256
       140  -8.9313     88.6680    198.2797   7.7482699811e+01   2.1730918133e+01    0.3481808    0.2094522  66.85   0.00143107    2.372    0.578
       141  -8.6345    202.3445    197.6625   5.3003821778e+01   6.8683062690e+00    0.1986242    0.1908358 -51.44    0.0010007    1.708    0.415
       142  -8.9372     61.3964    196.8842   8.4458044328e+01   2.5424476758e+01    0.4500863    0.2004538  57.67  0.001799129    2.739    0.635
       143  -7.4488     29.3222    197.6721   9.3132264762e+01   2.8669560662e+01    0.1463221    0.0765295  53.36  0.000262573    1.691    0.409
       144  -8.0415     12.4142    196.6683   9.7599190821e+01   3.0404201219e+01    0.2559404   0.08520028  75.09 0.0009533738    3.373    0.704
       145  -8.8204    215.8584    195.2959   5.0388620908e+01   5.6289913178e+00    0.2294867    0.1423399 -45.04   0.00114707    2.021    0.505
       146  -8.2745    132.9923    195.6746   6.6407614408e+01   1.6233592155e+01    0.2021448    0.1717221 -72.35 0.0006391655    1.581    0.368
       147  -8.0211     36.2390    196.2413   9.1177591389e+01   2.8320833603e+01    0.2035898   0.09789649  82.67 0.0007645864    2.443    0.591
       148  -9.3880    245.7009    193.2643   4.5617996411e+01   2.6837327445e+00    0.2451701    0.1849442 -40.97  0.001329451    1.814    0.449
       149  -8.7460    224.7147    194.1809   4.8821214401e+01   4.7860814989e+00    0.2352033    0.1234943 -44.17  0.001339547    2.297    0.565
       150  -8.9124    185.2994    194.8128   5.5543055101e+01   9.3735751433e+00    0.1898857    0.1833479   2.21  0.000648539    1.429    0.300
       151  -8.2394    230.8907    194.0976   4.7876790104e+01   4.1246682579e+00    0.1566719    0.1250311 -21.83 0.0004702093    1.270    0.213
       152  -8.8200     77.0805    193.7718   7.9957478639e+01   2.4196142649e+01    0.2717508    0.2003036  54.38 0.0006247001    1.363    0.266
       153  -9.0093     43.9170    193.1649   8.8859224535e+01   2.8236122068e+01    0.4548573    0.2010374  56.52  0.001918663    2.352    0.575
       154  -8.3220    172.4594    191.6297   5.7438207642e+01   1.1543074284e+01    0.1953965    0.1711188 -47.38 0.0007028136    1.463    0.317
       155  -9.2068    139.5332    190.4666   6.4121432496e+01   1.6285881874e+01    0.3411279    0.2608472  80.34  0.001261008    2.275    0.560
       156  -8.0766      6.8412    192.2259   9.8922678607e+01   3.1880859638e+01    0.2513818   0.06819453  52.10 0.0009553151    2.889    0.654
       157  -7.9699    205.4021    191.3112   5.1432244022e+01   7.4050892384e+00      0.14789   0.09822688 -38.75 0.0009271662    1.541    0.351
       158  -8.1549    198.9635    191.3265   5.2528258079e+01   8.1870848663e+00    0.1617255    0.1313133  -3.34  0.000564604    1.062    0.059
       159  -9.1603    160.9979    194.1252   6.0133423279e+01   1.2667185307e+01    0.2719074    0.2331834 -86.88   0.00124615    1.948    0.487
       160  -9.1111    129.5972    188.9968   6.6150166211e+01   1.7978014210e+01    0.3760908    0.2685791 -82.22   0.00185768    2.366    0.577
       161 -10.2797     92.3733    188.4265   7.5268604122e+01   2.3347814731e+01     1.000047    0.4025748  44.30  0.003243333    2.487    0.598
       162  -7.6188    210.2785    189.5936   5.0336198925e+01   7.0638341533e+00    0.1036211   0.08776203 -49.86 0.0006980952    1.779    0.438
       163  -8.3564    148.6583    189.1671   6.1907631549e+01   1.5233983419e+01    0.1846979    0.1684649 -77.79   0.00115296    1.520    0.342
       164  -8.8570     34.3481    188.0941   9.1126947499e+01   3.0418758751e+01    0.3635185     0.159795  62.80   0.00127289    2.470    0.595
       165  -8.2833    237.3212    188.1242   4.5951152698e+01   4.1951203292e+00     0.157861     0.104156 -24.23  0.000693202    1.168    0.144
       166  -8.8614    216.4926    187.6196   4.9002150659e+01   6.6031972077e+00    0.2064312    0.1621317 -31.37 0.0007958873    1.336    0.251
       167  -8.7910    191.4237    187.0766   5.3127258601e+01   9.7722076320e+00    0.2636902    0.1913573 -57.71  0.001267035    2.215    0.549
       168  -9.3131    155.8673    186.9672   6.0007071610e+01   1.4608684859e+01    0.3454061    0.1891607 -52.16  0.001358199    2.183    0.542
       169  -9.4864    120.5711    185.7854   6.7783438806e+01   1.9912254832e+01    0.4424235    0.2629109 -69.94  0.001766939    2.570    0.611
       170  -9.1248     54.9012    186.8353   8.5256184438e+01   2.8491832182e+01    0.4762321    0.2119652  59.92  0.001649774    2.780    0.640
       171  -8.3477    230.6747    187.1528   4.6754524408e+01   5.0458894957e+00    0.1659084    0.1170277 -35.55  0.000817309    1.459    0.314
       172  -8.7754    165.0121    186.5590   5.8056258663e+01   1.3399024908e+01    0.2166716    0.1789686 -55.61 0.0007148465    1.586    0.370
       173  -9.1506    109.6103    185.7957   7.0482029769e+01   2.1491336763e+01    0.3674941    0.2598328  70.55  0.001292322    2.039    0.510
       174  -8.9461    249.3730    185.4147   4.3829787483e+01   3.2648277139e+00    0.2256389    0.1388224 -36.78 0.0009999389    1.584    0.369
       175  -8.7545    210.2527    184.2293   4.9422975945e+01   7.8260875078e+00    0.1887969    0.1624763 -23.06 0.0004453926    1.280    0.219
       176  -8.6790    202.8796    184.4837   5.0689630866e+01   8.7025730314e+00    0.2020968    0.1495781 -43.00 0.0006953168    1.576    0.365
       177  -8.7668    182.9172    184.6852   5.4263578620e+01   1.1262758090e+01    0.2231493    0.1657856 -38.61 0.0007222385    1.379    0.275
       178  -9.0745     66.6804    184.3784   8.1706757911e+01   2.7644987883e+01    0.4015385    0.1978528  56.78  0.001042412    2.385    0.581
       179  -7.9167     12.3521    185.0244   9.7124205428e+01   3.3152510117e+01    0.2322472    0.0641576  68.99 0.0007047536    4.499    0.778
       180  -8.5759    223.9136    183.0377   4.7067916644e+01   6.3616711904e+00    0.2293492    0.1277176 -38.48 0.0008318471    1.685    0.407
       181  -8.3054    197.2421    183.5598   5.1493900466e+01   9.5560825066e+00     0.204232    0.1322119 -44.14 0.0005793701    1.709    0.415
       182  -8.8130    174.2557    183.5206   5.5704429270e+01   1.2629013176e+01    0.2194192    0.2016781 -76.57 0.0006273544    1.651    0.394
       183  -7.7713    242.6452    183.2839   4.4391666156e+01   4.2360326432e+00   0.09196261   0.08030971 -37.40  0.000701911    1.665    0.399
       184  -8.9948     44.5350    182.0927   8.7753521395e+01   3.0795397468e+01      0.42646    0.2078918  60.97  0.001114626    2.245    0.555
       185  -7.8785      1.7633    183.5623   1.0002608289e+02   3.4315007533e+01    0.1882432   0.09520754  37.22 0.0009403887    1.628    0.386
       186  -7.8363    235.3591    181.2427   4.5071710907e+01   5.2947151023e+00    0.1516628   0.08381718 -37.50 0.0005235321    1.649    0.394
       187  -9.1555    147.3217    180.3275   6.0706429596e+01   1.7044364950e+01    0.2611781    0.2260753 -72.36 0.0007655803    1.577    0.366
       188  -9.4078     25.6945    178.9405   9.2972014147e+01   3.3476750293e+01    0.6666484    0.2201039  64.71  0.002181869    3.868    0.742
       189  -7.8165    240.4261    180.2133   4.4180499285e+01   4.8665648004e+00    0.1500523   0.08420479 -37.59 0.0009469381    1.639    0.390
       190  -8.6136    137.4433    179.0156   6.2696092353e+01   1.8762962542e+01    0.2633572    0.2138494  81.86    0.0011007    1.860    0.462
       191  -9.2645    191.5616    178.3276   5.1568841751e+01   1.1105557562e+01    0.2315733    0.2013251  47.31 0.0008190594    1.613    0.380
       192  -8.5231    250.5175    172.7947   4.1550658032e+01   4.7059363143e+00      0.20292     0.114151 -31.32  0.001348389    1.365    0.268
       193  -9.1863    249.0337    177.1551   4.2489971062e+01   4.3204603338e+00    0.2647638    0.1902912 -33.24  0.001092816    1.376    0.273
       194  -8.4800    247.3213    173.7002   4.2127301269e+01   4.9398041969e+00    0.1749534   0.08546717 -34.02 0.0003064858    1.611    0.379
       195  -8.6199    204.9414    177.3803   4.9095444750e+01   9.4885955585e+00    0.2057521    0.1428804 -37.86 0.0007604698    1.412    0.292
       196  -8.0143    169.3894    178.2799   5.5733882484e+01   1.4195165818e+01    0.1680247    0.1169959 -48.57 0.0004347966    1.626    0.385
       197  -8.4943    129.1055    177.1721   6.4329095259e+01   2.0383804802e+01     0.234528    0.1816189  88.67 0.0008084539    1.979    0.495
       198  -9.0463     35.6353    176.0510   8.9835423115e+01   3.3223144607e+01    0.5315909     0.207402  72.56  0.001781786    3.688    0.729
       199  -8.4055    231.1745    176.9401   4.4934055785e+01   6.3386074770e+00    0.1650975    0.1246619 -30.60 0.0005953186    1.275    0.216
       200  -8.5668    217.4607    176.7804   4.6971551514e+01   7.9991779488e+00    0.2197961     0.136869 -35.81 0.0007750211    1.439    0.305
       201  -9.1780    183.0763    175.9947   5.2692802742e+01   1.2640255036e+01    0.2599952    0.1874984 -46.91 0.0007519446    1.582    0.368
       202  -8.0609     97.3617    177.2680   7.2365370578e+01   2.5105821145e+01    0.1426112    0.1065587  -7.35 0.0005446594    1.647    0.393
       203  -8.6795     89.0701    176.6236   7.4509305224e+01   2.6443888921e+01    0.2888604    0.2027534  69.21 0.0009215341    1.780    0.438
       204  -9.4289     59.2846    175.7387   8.2835904935e+01   3.0627710299e+01    0.5244336    0.2308638  57.16  0.001941842    2.808    0.644
       205  -9.1378     55.8273    170.6589   8.3280140940e+01   3.2304496114e+01    0.4262464    0.2250674  70.71  0.001708508    2.465    0.594
       206  -8.2033    211.7915    175.9798   4.7726425479e+01   8.8201322093e+00    0.1725704    0.1268508 -51.25 0.0008458021    1.916    0.478
       207  -9.1978    158.7118    174.8060   5.7286580565e+01   1.6367058455e+01    0.3070602    0.2478873  79.14  0.001100348    2.095    0.523
       208  -9.2594    104.4218    174.6790   7.0096933202e+01   2.4639906352e+01    0.5263292     0.257164  54.20  0.001961403    2.940    0.660
       209 -10.6561     75.8508    170.0388   7.7296141545e+01   2.9848342170e+01     1.245362    0.5232897 -79.54  0.003820689    4.424    0.774
       210  -9.6826     80.8620    155.4211   7.3610199292e+01   3.2713436491e+01    0.5735928    0.4725672  -0.74  0.001883961    1.427    0.299
       211  -8.5204    224.2901    174.0659   4.5446366704e+01   7.5450939842e+00    0.1630226    0.1202414 -25.36 0.0007125594    1.121    0.108
       212  -9.5729    175.8317    172.1137   5.3354068542e+01   1.4316730103e+01    0.3292066    0.2317323 -44.17  0.001143715    1.482    0.325
       213  -7.9403    143.0289    172.5148   6.0283014035e+01   1.9174751563e+01    0.1968957      0.12717  34.28  0.000408034    1.506    0.336
       214  -8.4825    134.8040    171.5524   6.2002747814e+01   2.0637982024e+01     0.244884    0.1876647 -73.53 0.0008460384    1.825    0.452
       215  -9.1797     45.1996    171.1025   8.6525371855e+01   3.3437646444e+01    0.4010932    0.2149605  73.16  0.001273436    2.205    0.546
       216  -9.5297    121.3476    170.0300   6.4986527545e+01   2.3052601740e+01    0.3922085    0.2877059 -77.25 0.0009987543    1.907    0.476
       217  -8.4585    237.3227    169.5972   4.2772279103e+01   6.6010875921e+00    0.1884477    0.1472737 -44.26   0.00114622    1.653    0.395
       218  -8.7281    230.4737    169.9726   4.3809243094e+01   7.3611278965e+00    0.1664972    0.1330191  -7.19   0.00062165    1.120    0.107
       219  -8.4160    205.7962    169.9520   4.7611545952e+01   1.0486144210e+01    0.2100233    0.1477914 -45.55 0.0007588924    1.630    0.387
       220  -8.4334    198.1834    169.9067   4.8881681196e+01   1.1519528624e+01    0.1758611    0.1564728 -36.05  0.000680157    1.332    0.249
       221  -8.7122    149.9305    169.4130   5.8181559395e+01   1.8702109270e+01    0.2361376    0.1933275 -66.30 0.0007992405    1.612    0.380
       222  -8.2206    244.6416    169.1175   4.1690096022e+01   5.8233974323e+00    0.1692124    0.1102976 -37.26 0.0006438176    1.460    0.315
       223  -8.6164    218.8162    168.2976   4.5241397178e+01   9.0354942551e+00    0.1899844    0.1347814 -34.42 0.0005700135    1.288    0.223
       224  -9.1487    166.9219    168.3964   5.4417935527e+01   1.6282204554e+01    0.2594169    0.2181289  68.60 0.0009101793    1.791    0.442
       225  -8.0554     88.7100    168.5772   7.3411688420e+01   2.8363972415e+01    0.2417405    0.1747516  81.96 0.0008201721    1.768    0.434
       226  -7.9867    211.4920    167.9954   4.6330378317e+01   1.0025378546e+01    0.1586762   0.09525525 -52.84 0.0008102616    2.523    0.604
       227  -8.5200    111.8691    167.4507   6.6951217023e+01   2.5093733718e+01    0.3344019    0.2131076  62.39  0.001111257    2.255    0.557
       228  -9.1397     21.0370    166.3758   9.3536718714e+01   3.7070362577e+01    0.5920964    0.1557605  49.81  0.001951137    3.427    0.708
       229  -8.9977    191.9237    166.3473   4.9307683429e+01   1.2954069472e+01    0.2787742    0.1626308 -39.89 0.0007416338    1.589    0.371
       230  -8.9340    184.8951    165.9537   5.0498584463e+01   1.4029782241e+01    0.2214282    0.1582254 -40.72 0.0006961148    1.378    0.274
       231  -9.6460    137.5298    164.5888   6.0090368450e+01   2.1607647338e+01    0.6528696    0.2914603  51.49  0.002298801    3.500    0.714
       232  -9.9512     95.0900    162.7624   7.0688562492e+01   2.8772449815e+01    0.8685276    0.4350586  64.74  0.002601107    4.579    0.782
       233  -8.1973    234.1194    164.7548   4.2356243599e+01   7.6305936059e+00    0.1970165    0.1197531 -36.56 0.0006685655    1.435    0.303
       234  -8.8046    159.5533    164.1085   5.5119169860e+01   1.8193875205e+01    0.2697324    0.2253749 -75.51  0.001008988    1.738    0.425
       235  -9.6334     33.8201    163.2958   8.9298944765e+01   3.6655534897e+01    0.6394882    0.1992317  47.06  0.002214794    2.945    0.660
       236  -7.9450    240.4222    163.9504   4.1344094300e+01   6.9859519203e+00    0.1695032   0.08556081 -33.66 0.0005298384    1.551    0.355
       237  -8.7954    212.8706    163.1459   4.5215071268e+01   1.0559659822e+01    0.2596841    0.1415864 -42.44 0.0007854933    1.789    0.441
       238  -8.6576     12.8819    176.2908   9.6564395246e+01   3.5247158790e+01    0.3086258    0.1530344  70.03    0.0010584    1.933    0.483
       239  -9.0732    246.0505    162.6680   4.0367070043e+01   6.4974368005e+00    0.2262054     0.115187 -35.08 0.0004518644    1.554    0.357
       240  -7.9473    242.3208    159.7183   4.0330411347e+01   7.3214910583e+00    0.1180537   0.08562399 -18.58 0.0002654455    1.071    0.066
       241  -9.7069    250.1661    157.7040   3.8953627170e+01   6.6641075756e+00    0.2815644    0.1300215 -35.21 0.0008074846    1.668    0.401
       242  -8.8699    246.5963    155.4881   3.9009356704e+01   7.3705607887e+00    0.1663479    0.1072094 -12.06 8.641592e-05    1.465    0.318
       243  -8.8880    204.8637    162.6095   4.6399474967e+01   1.1726971466e+01    0.2315693     0.151018 -39.19 0.0006705347    1.431    0.301
       244  -9.4645      3.3489    162.3266   9.8805279128e+01   3.9500103749e+01    0.4615973    0.1681717  42.89  0.001697209    2.228    0.551
       245  -9.3118    177.5431    160.5822   5.0841267771e+01   1.6034706840e+01     0.262675    0.2156541 -51.23  0.000849712    1.440    0.305
       246  -8.8595    151.7749    160.9601   5.6175889997e+01   2.0025096872e+01    0.2981633    0.2116202 -61.06  0.001205654    1.826    0.452
       247  -7.4111    222.2946    161.6334   4.3493717383e+01   9.5426692396e+00    0.1102933   0.08529057 -50.25 0.0004416721    1.718    0.418
       248  -8.6353    227.4195    158.9882   4.2254573071e+01   9.2593228878e+00    0.2734941    0.1587283 -49.26  0.001145184    2.251    0.556
       249  -8.6747     60.6474    160.0573   8.0501999767e+01   3.4376583799e+01    0.3396387    0.1676182  45.46  0.001044636    1.936    0.483
       250  -8.5997    237.0528    159.0229   4.0912429437e+01   8.0501508216e+00    0.1643637    0.1240996 -46.54 0.0006267841    1.657    0.397
       251  -8.4375    128.3219    158.9771   6.1235876638e+01   2.4271473751e+01    0.2582985    0.1941061  59.89  0.001146395    1.674    0.403
       252  -9.6266    105.8265    157.7911   6.6850571021e+01   2.8232070171e+01     0.507377    0.3144941  64.38  0.001272018    2.401    0.583
       253  -8.6942    196.4544    157.7904   4.6885213873e+01   1.3673923155e+01      0.21203    0.1863317 -51.01 0.0007834874    1.440    0.305
       254  -8.1275    188.2749    157.4431   4.8247441196e+01   1.4939818725e+01    0.2056737    0.1424419 -51.54 0.0005914444    1.733    0.423
       255  -9.1477    167.6903    157.1154   5.2084952504e+01   1.8186057603e+01    0.3063498     0.247376 -86.90  0.001221781    2.047    0.511
       256  -8.5503    218.0017    156.4720   4.3170329212e+01   1.0855581247e+01    0.2271393     0.140322 -44.55 0.0007224435    1.697    0.411
       257  -8.9579    157.5542    155.8709   5.3928104651e+01   2.0055832111e+01    0.2789761     0.218403 -54.74 0.0008363135    1.464    0.317
       258  -9.2773     50.0710    155.3158   8.3250896776e+01   3.6936107537e+01    0.5501881     0.221951  51.75  0.001947492    2.722    0.633
       259  -9.1225    119.4912    155.1887   6.2733883429e+01   2.6562800964e+01     0.358778    0.2750403  87.81  0.001529564    1.846    0.458
       260  -9.7750    241.6630    154.0721   3.9391102479e+01   8.1526894571e+00    0.2784469    0.2070489  65.19  0.001768098    2.687    0.628
       261  -8.1702    204.7003    155.1770   4.5004343335e+01   1.2896151735e+01    0.1894162    0.1336728 -41.36 0.0005097533    1.392    0.282
       262  -9.5436     68.1044    153.6168   7.7254341271e+01   3.5020856660e+01    0.4761504     0.256574  62.40  0.001273493    2.429    0.588
       263  -8.7958    144.3429    154.2780   5.6514232258e+01   2.2562527266e+01    0.2255027    0.1994746  34.40 0.0005562723    1.165    0.142
       264  -9.6314    132.8262    152.5905   5.8883268287e+01   2.4863624882e+01    0.4225999     0.340185  77.24  0.001191074    1.711    0.416
       265  -9.0101    133.3462    148.3146   5.7886689058e+01   2.5676974879e+01       0.3044    0.2297628 -15.00  0.001202892    1.564    0.360
       266  -8.5169    151.8241    152.7878   5.4541336343e+01   2.1599084442e+01    0.2453315    0.1955793 -48.12  0.001114733    1.298    0.230
       267 -10.4163    148.9037    145.0363   5.3577178055e+01   2.3628609203e+01    0.6241785    0.4506557 -85.02  0.001711913    2.469    0.595
       268 -10.4478     55.2169    144.7519   8.0132183744e+01   3.9092068242e+01    0.9343109    0.3875791  61.64  0.002725193    4.132    0.758
       269  -9.7071     29.2174    150.1861   8.9594503977e+01   4.0586444973e+01    0.6210133    0.2382307  62.50   0.00207305    3.244    0.692
       270  -8.2165     20.0615    152.5152   9.2862962325e+01   4.0798282103e+01     0.204933    0.1302325  29.11 0.0006737779    1.518    0.341
       271  -8.8000      3.0856    150.6022   9.8383895753e+01   4.2589882134e+01    0.4199812    0.1533893  79.06   0.00155999    2.750    0.636
       272  -9.0713    189.4160    149.7557   4.6515999809e+01   1.6044338012e+01      0.34624    0.2010834 -51.66  0.001455175    2.095    0.523
       273  -8.3633    182.5966    151.2512   4.8044533706e+01   1.6856187924e+01    0.1904531    0.1522618 -65.22  0.001071857    1.773    0.436
       274  -8.6510     98.3558    150.6397   6.7622825429e+01   3.1129735821e+01     0.314053     0.231192  72.37 0.0008218981    1.733    0.423
       275  -9.4405    248.9336    149.0549   3.7544047549e+01   7.9341010926e+00    0.2646551    0.1245591 -33.31 0.0007647556    1.598    0.374
       276  -8.9594    243.1528    149.7616   3.8404361038e+01   8.5466080277e+00     0.206312    0.1175042 -37.54  0.001128835    1.461    0.316
       277  -8.3428    213.0831    149.6651   4.2608808287e+01   1.2547557991e+01    0.1964752    0.1424057 -37.26 0.0004214995    1.256    0.204
       278  -8.3616    162.4231    150.3040   5.1779572931e+01   2.0298833438e+01    0.2116686    0.1731459  65.72 0.0006090234    1.682    0.405
       279  -9.7687     40.3478    147.8605   8.5577429597e+01   4.0053587138e+01    0.6872386    0.2773706  58.54  0.002096402    3.112    0.679
       280  -8.1007     39.6541    141.6655   8.5072763296e+01   4.1813849767e+01    0.1560702    0.1079376 -35.39 0.0007049257    1.769    0.435
       281  -8.4483    198.9395    148.8122   4.4696783841e+01   1.4744913787e+01    0.2185264    0.1558983 -34.67 0.0005215104    1.218    0.179
       282  -9.8975     89.1290    145.9385   6.9459199507e+01   3.3781066613e+01    0.7086987    0.4070083  89.10  0.002415403    3.339    0.700
       283  -9.1786    233.5753    147.5295   3.9248871033e+01   1.0068552338e+01    0.2160181    0.1386254 -28.04 0.0006767498    1.215    0.177
       284  -8.3892    223.1636    146.7090   4.0540265762e+01   1.1579695100e+01    0.1986548    0.1342363 -37.34 0.0003399504    1.293    0.227
       285 -10.0926    139.1036    144.9273   5.5800645362e+01   2.5376054700e+01    0.4391408    0.2933812 -70.45  0.001292188    2.275    0.560
       286 -10.1461    106.7515    143.9690   6.3943883489e+01   3.1295964607e+01    0.8045444    0.5261846  87.41  0.002497169    2.643    0.622
       287  -9.2819     13.3426    145.9968   9.4665559336e+01   4.3102013334e+01    0.3797352    0.1708176  62.97  0.001234672    2.220    0.550
       288  -7.8956    206.7273    146.5339   4.2979439711e+01   1.3945582064e+01    0.1430442    0.1232989  51.37 0.0009319516    1.553    0.356
       289  -8.1852    175.6730    146.1076   4.8283601092e+01   1.8867913775e+01     0.205646      0.15762 -53.74 0.0007404275    1.505    0.336
       290  -9.0399    240.4582    145.0204   3.7867283061e+01   9.5250301426e+00    0.1703989    0.1112594 -30.73 0.0004321002    1.170    0.145
       291  -9.3934    243.3287    141.6944   3.6876235376e+01   9.6088905315e+00    0.3449017     0.124527 -29.08  0.001599092    2.497    0.599
       292  -9.7693    125.0666    142.4632   5.8723440421e+01   2.8404451968e+01    0.5129236    0.3546597 -84.96  0.001339483    2.417    0.586
       293 -11.1141     69.3745    139.5296   7.4554290494e+01   3.8502581914e+01     1.060685    0.5593386 -67.80  0.003715278    2.004    0.501
       294  -9.9145     73.3430    129.2815   7.1311001957e+01   4.0591999624e+01    0.5141411    0.3267857  79.79  0.001436688    2.212    0.548
       295  -8.9458    247.1111    143.6514   3.6772420615e+01   8.8701441902e+00    0.2160156    0.1240007 -29.06 0.0005830096    1.320    0.242
       296  -8.0387    250.4901    140.5400   3.5782732671e+01   8.8614002301e+00    0.1559689    0.1162897 -25.82 0.0007115605    1.026    0.025
       297  -7.9368    194.4623    143.9555   4.4463622282e+01   1.6219465177e+01    0.1719863    0.1027377 -55.78  0.000806576    2.362    0.577
       298  -8.8762    165.6859    143.9194   4.9780093581e+01   2.0939289208e+01    0.2607923    0.2202381  74.45  0.000964597    1.650    0.394
       299  -9.4954      2.7356    141.4423   9.8065222509e+01   4.5072952779e+01    0.4724956    0.2050056  64.33   0.00193844    2.196    0.545
       300  -8.9381     78.3659    147.2206   7.2996738758e+01   3.5154468419e+01    0.3423595    0.1884741  59.91  0.001229245    2.388    0.581
       301  -8.5897    182.1767    141.5956   4.6128478160e+01   1.8589456095e+01    0.2591245    0.1904523 -58.77  0.000809136    1.744    0.427
       302  -9.9475     23.5505    138.0434   9.0415403408e+01   4.4434475039e+01    0.5933951    0.2519267  60.75  0.001817183    2.620    0.618
       303  -8.7101    172.3118    138.0271   4.7211299886e+01   2.0885128720e+01    0.2713656    0.1924405 -56.22 0.0006379288    1.671    0.402
       304  -7.9401    218.7600    138.5579   3.9568380710e+01   1.3401427034e+01    0.1334176     0.121581  59.89 0.0006328382    1.535    0.349
       305  -8.2411    207.8694    137.9579   4.1067957036e+01   1.5110941729e+01    0.1875778    0.1452669 -59.94  0.001116652    1.736    0.424
       306  -8.7214    197.6653    137.4285   4.2578173261e+01   1.6782516600e+01    0.2412045     0.168386 -52.78  0.001006466    1.674    0.403
       307  -9.2699    140.2958    136.6934   5.3733311812e+01   2.6873386887e+01    0.2898431    0.1800644  15.52  0.001174878    2.445    0.591
       308  -8.8900    248.4865    135.0507   3.4991677872e+01   9.8392935687e+00     0.233442    0.1337961 -39.02 0.0008114408    1.440    0.306
       309  -8.6595    250.7408    129.7985   3.3731571557e+01   1.0245723901e+01    0.4143524   0.08113881 -32.81   0.00141319    4.505    0.778
       310  -7.5452    192.3058    136.6381   4.3303938506e+01   1.7774185394e+01    0.1285914   0.09847581 -61.66 0.0007038843    1.735    0.424
       311  -8.2859    187.9328    135.9083   4.3898152126e+01   1.8614819816e+01    0.1953962    0.1550101 -62.53 0.0007160565    1.636    0.389
       312  -8.3073    162.4935    136.1627   4.8750184412e+01   2.2951735256e+01    0.2068686    0.1905213 -73.08 0.0005700915    1.302    0.232
       313  -8.8873     39.0457    135.7669   8.4540162003e+01   4.3503421485e+01    0.3149465    0.2163342  70.02 0.0009277053    1.505    0.335
       314  -8.6739    151.1166    135.3459   5.0977234492e+01   2.5163792739e+01    0.2786852    0.1302332  33.85  0.001081207    2.532    0.605
       315 -10.3361     83.5024    132.9595   6.8689538134e+01   3.7978764018e+01    0.5663164    0.3686033 -78.56  0.001388195    1.913    0.477
       316 -10.1423     56.6591    135.0496   7.8137643435e+01   4.1513333731e+01    0.6401579    0.3483035  -4.57  0.002033834    3.859    0.741
       317  -8.9968    179.3896    133.7012   4.4942647520e+01   2.0439681348e+01    0.2697142    0.2049994 -62.59  0.000798729    1.701    0.412
       318  -9.0407    112.9455    133.0784   5.9902672270e+01   3.2735201550e+01    0.3750954     0.271764  76.10 0.0009746118    1.946    0.486
       319  -7.5083    237.5269    133.4962   3.6035470897e+01   1.1494929534e+01    0.1183311   0.09022705 -32.39 0.0002418967    1.099    0.090
       320 -10.2804    132.0403    130.9268   5.4416271735e+01   2.9636044552e+01    0.4929467    0.3406984 -74.14  0.001119362    2.124    0.529
       321  -9.1087    143.1261    131.4951   5.1901793391e+01   2.7423860646e+01    0.3166901    0.2364402 -72.54 0.0007754359    1.815    0.449
       322 -10.0487     12.8041    128.4402   9.3543976124e+01   4.7983021025e+01    0.7179171     0.280391  74.91  0.002118342    2.978    0.664
       323  -8.3555    247.0155    129.8321   3.4170732322e+01   1.0726664237e+01    0.2076421    0.1231818 -33.54 0.0005201543    1.262    0.208
       324  -8.0907    192.8896    130.1162   4.1810323277e+01   1.8764672779e+01     0.192403    0.1606383 -46.25 0.0004341667    1.231    0.188
       325  -9.5036    168.2042    128.9838   4.6003482839e+01   2.3269404079e+01    0.3753331    0.3028595 -40.04  0.001089213    1.143    0.125
       326  -8.8343    161.4492    129.7587   4.7527361043e+01   2.4357534981e+01    0.2783778    0.1282159 -45.93  0.001129665    2.086    0.521
       327  -9.5678    152.9321    128.6809   4.9067314277e+01   2.6149245085e+01    0.4844581    0.2479514 -51.37  0.001602929    2.097    0.523
       328  -8.3199      1.8094    130.2038   9.7810159551e+01   4.8206008222e+01    0.2631373   0.08961555  53.35 0.0009418972    2.788    0.641
       329  -8.2194    220.5018    129.5551   3.7500602019e+01   1.4485590867e+01    0.1236636   0.09903962 -28.91  7.88828e-05    1.019    0.018
       330  -8.2208    211.4922    129.0200   3.8673942478e+01   1.5939615759e+01    0.1942685    0.1031351 -38.69  0.000999638    1.568    0.362
       331  -9.0817     97.9948    127.6899   6.3026692657e+01   3.6768652711e+01    0.4844395    0.2316012 -58.01  0.001794777    2.214    0.548
       332 -10.5087     60.2020    125.0915   7.5123695504e+01   4.3719679551e+01    0.8732524    0.4824633  70.68  0.002859417    2.699    0.630
       333  -9.1830     49.8248    128.2196   7.9481067843e+01   4.4289620073e+01    0.4164811    0.2344562  63.54  0.001147496    2.148    0.534
       334 -10.5077     44.3976    123.2159   8.0708813317e+01   4.6363288424e+01     1.100423    0.5035878  80.32  0.003257997    3.963    0.748
       335  -9.9153    117.8560    124.7023   5.6628231885e+01   3.3735609418e+01    0.5910407    0.4268283 -83.21  0.001468737    1.979    0.495
       336  -8.8546    179.2899    124.5074   4.2913788544e+01   2.2078746307e+01    0.2685545    0.2084527 -58.03 0.0008464621    1.477    0.323
       337 -10.4484     28.1123    121.6361   8.6854136760e+01   4.8602282691e+01    0.9749469    0.4825175  77.22  0.003650253    2.458    0.593
       338  -9.2748     27.3197    113.3242   8.6058833934e+01   5.1032987132e+01    0.4176033    0.1517291  19.85  0.001430076    2.967    0.663
       339  -7.9591    204.5270    130.0811   3.9942983671e+01   1.6871028861e+01    0.1948843    0.1071398 -38.00 0.0005667992    1.530    0.347
       340  -8.0101    188.5055    123.5404   4.1096246390e+01   2.0617423119e+01    0.2400766    0.1085638 -46.94 0.0008397601    2.212    0.548
       341  -8.0951    186.6356    129.3304   4.2697652982e+01   1.9954580904e+01    0.1327137    0.1028588 -69.56 0.0007037254    1.810    0.447
       342  -9.6726    158.6159    120.9243   4.6048415266e+01   2.6581391064e+01    0.4695804    0.2815162 -49.87  0.001516678    1.681    0.405
       343  -8.7685     85.0184    122.4588   6.5951928378e+01   4.0406264446e+01    0.4837947    0.2738554  16.84  0.001710072    2.751    0.637
       344  -7.6560    203.2878    121.7002   3.8333956880e+01   1.8405053876e+01    0.1232536   0.09265904 -56.80 0.0002746815    1.557    0.358
       345  -7.6945    194.9792    121.5168   3.9584757224e+01   1.9836260915e+01    0.1560428    0.1164756 -87.61 0.0004132479    2.221    0.550
       346  -8.5905    171.8916    121.2100   4.3511625443e+01   2.4018254428e+01    0.2078347    0.1800796 -56.07 0.0005148929    1.234    0.190
       347  -8.5670     99.1191    120.1245   6.0928321060e+01   3.8410665487e+01    0.3411918    0.2328515 -14.62  0.001342349    2.340    0.573
       348  -9.5044     71.1667    119.5074   7.0045860451e+01   4.3528899178e+01    0.4169828    0.2638296 -89.42  0.001026197    2.181    0.541
       349  -9.9818    141.6326    117.7462   4.8971216446e+01   3.0548720352e+01    0.6478148    0.3181088 -52.89  0.001373488    2.243    0.554
       350  -9.6947    130.5204    117.9614   5.1688451438e+01   3.2732319490e+01    0.4927492    0.2832533 -62.63  0.001403131    2.349    0.574
       351  -9.7797      2.8000    116.6056   9.6591663570e+01   5.1941486882e+01    0.6867922    0.2670037  73.16  0.002487168    2.736    0.635
       352  -7.9824    231.4460    117.2637   3.3548816914e+01   1.4641925292e+01    0.1712455   0.08908644 -42.16 0.0009305577    1.623    0.384
       353  -8.2919    185.8423    115.7528   3.9773224431e+01   2.2415511238e+01    0.2535969    0.1529706 -55.98 0.0007022765    2.006    0.501
       354  -9.9081    109.4213    114.0292   5.6355347004e+01   3.7860088056e+01    0.5101372    0.3341561 -73.89  0.001337511    2.148    0.534
       355 -10.0656     92.7631    112.4116   6.1028093360e+01   4.1514760795e+01    0.5988616    0.3517322 -69.66  0.001391953    2.230    0.552
       356  -8.9511     93.1629    104.6373   5.8871435689e+01   4.3348252920e+01    0.6325237    0.3618293  16.49  0.002001755    3.565    0.719
       357  -9.9325     79.1721    112.5942   6.5640273893e+01   4.3977939672e+01    0.6191731    0.3952691  77.88  0.001912433    2.408    0.585
       358  -8.6368     59.2123    114.8980   7.3476298343e+01   4.6641729394e+01     0.302272    0.2065998 -11.54  0.001047212    2.158    0.537
       359  -7.8834    250.5182    114.5444   3.0809092025e+01   1.2294040591e+01    0.1160176   0.08565866 -31.04 0.0001320663    1.005    0.005
       360  -8.3924    167.0950    114.2893   4.2774993026e+01   2.6194092644e+01     0.186856    0.1862066 -31.61 0.0005076883    1.108    0.098
       361 -10.0857    133.6763    109.3078   4.8702140115e+01   3.3930908230e+01    0.7176549    0.3211342 -47.30  0.002311289    2.171    0.539
       362  -9.7882    121.9520    112.2606   5.2438288187e+01   3.5720260843e+01    0.3578062    0.2803639 -71.07 0.0006243379    1.480    0.324
       363  -9.8288    248.7832    108.5896   2.9817927339e+01   1.3323968206e+01    0.2353718    0.2000337 -55.90  0.001373681    1.391    0.281
       364 -10.6100    249.1039    103.1272   2.8693984186e+01   1.4001720257e+01    0.4101044     0.200728 -29.02  0.002298445    1.676    0.403
       365  -9.0331    159.2671    111.7761   4.3689533862e+01   2.8201856837e+01    0.2685241    0.2003459 -60.20  0.000740945    1.499    0.333
       366 -10.3328     66.6371    109.7436   6.9519626092e+01   4.6869972776e+01    0.6422411    0.3936779 -67.80  0.002209935    1.716    0.417
       367 -10.0395     14.4520    110.7256   9.1195844730e+01   5.2863866368e+01     0.544973    0.2842046  76.77  0.001748379    2.051    0.512
       368  -8.9732     43.5497    109.0233   7.8548508107e+01   5.0436084692e+01    0.4426275     0.203665  11.60   0.00143336    3.355    0.702
       369  -8.1877    189.3962    107.7260   3.7323313757e+01   2.3117346393e+01    0.2601405    0.1096795 -41.59 0.0009271537    2.044    0.511
       370  -8.3275    193.0325    115.0385   3.8438534402e+01   2.1245602019e+01    0.2015826    0.1471121 -59.18 0.0004865929    1.614    0.380
       371 -10.5877     45.8277    102.1018   7.6187938355e+01   5.2066204934e+01    0.9683471    0.4766051  64.44  0.003134875    3.265    0.694
       372 -10.7607     22.7826    102.4206   8.6453099834e+01   5.4551555747e+01    0.8238977    0.3970704  64.82  0.002221742    2.582    0.613
       373  -9.5918    150.6762    102.9455   4.3194673119e+01   3.1652411647e+01    0.5113329    0.2782027 -59.39  0.001349219    2.475    0.596
       374  -8.6143     78.2583    104.8725   6.4036928445e+01   4.6132330905e+01    0.3006171    0.2161511  -1.59  0.001097753    2.103    0.524
       375  -8.5827    166.5098    103.8639   4.0307444389e+01   2.8217440889e+01    0.2623058    0.2025921 -62.59  0.000629803    1.440    0.305
       376  -9.0184      6.8375    103.0791   9.3759838286e+01   5.5534954289e+01    0.3524377    0.1944543  51.49  0.001117736    1.830    0.454
       377 -10.2164    128.7116    101.2514   4.7755490462e+01   3.6680285147e+01    0.5752928    0.3302933 -43.40  0.001682472    1.676    0.403
       378  -7.8960    175.5476    101.7750   3.8169126306e+01   2.6781447545e+01    0.1978941    0.1177393 -47.77 0.0006890566    1.588    0.370
       379 -10.3722    108.6895     98.5568   5.2387127077e+01   4.1577966625e+01    0.6078558    0.4023353  73.68  0.001169482    2.209    0.547
       380  -9.0835    108.2247     92.0225   5.0611440575e+01   4.3145126734e+01    0.6245294     0.308788  32.00  0.002065071    3.051    0.672
       381  -9.2174     82.2894     99.9866   6.1296242389e+01   4.6618238794e+01    0.4568786    0.2996833 -84.79   0.00109515    2.271    0.560
       382  -8.3620    159.7144    100.5900   4.0756806748e+01   3.0209879686e+01     0.248924    0.1577477 -55.54 0.0005317702    1.708    0.415
       383  -9.2165     95.0630     96.9772   5.6117494122e+01   4.4809554118e+01    0.3536473    0.2516607 -67.19 0.0007539028    1.590    0.371
       384 -10.1424     63.7659     95.5287   6.7099547625e+01   5.1118657229e+01     0.655108    0.4012251  83.98  0.001528616    2.701    0.630
       385  -8.4114     63.8154     88.0131   6.4983027827e+01   5.3064695705e+01     0.321271    0.1945355 -35.01  0.001098749    2.076    0.518
       386  -8.7429    174.8471    111.5686   4.0687594686e+01   2.5194002724e+01    0.2819089    0.1605886 -51.79 0.0007911582    1.870    0.465
       387  -8.2644    164.8405     94.0581   3.8085413257e+01   3.0326194919e+01    0.2202186    0.1775074 -56.33  0.000479819    1.225    0.184
       388 -10.3946    124.6182     90.6871   4.5766815596e+01   3.9789517802e+01    0.5470759    0.4874853  36.19  0.001051939    1.229    0.186
       389  -7.7384    188.5319     93.4619   3.4027401350e+01   2.5628528807e+01    0.1373394    0.1172447 -42.99 0.0001066331    1.023    0.022
       390  -8.4077    176.1814     92.9160   3.5828936576e+01   2.8178914727e+01     0.220069    0.1708327 -57.88 0.0005119682    1.307    0.235
       391  -9.0365    138.9824     92.0979   4.2762178019e+01   3.6295446143e+01    0.3488194    0.2544549 -81.50  0.000729332    1.819    0.450
       392  -9.4840      5.1144     91.6020   9.3405062366e+01   5.8876528112e+01    0.4265383    0.2125353  53.24  0.001148581    2.123    0.529
       393  -8.8435     46.1264     92.0272   7.3754179734e+01   5.4795484815e+01    0.3518287    0.2190371   2.90  0.001380696    2.343    0.573
       394  -9.2872     22.6719     90.2687   8.4522410530e+01   5.7998938233e+01    0.4176104     0.291831 -13.82  0.001556452    1.729    0.422
       395  -8.2959    249.2970     91.6612   2.6359020782e+01   1.5477613523e+01    0.1188373   0.06860795 -50.36 0.0007032225    1.658    0.397
       396  -7.9385    157.8044     91.4131   3.8685826234e+01   3.2299287233e+01    0.2007173     0.167234 -50.46 0.0004505682    1.117    0.105
       397  -9.7489     34.8439     89.7768   7.8488657608e+01   5.6868632657e+01     0.497239    0.2769583  77.52  0.001591865    2.568    0.611
       398  -8.3906    150.7151     88.9304   3.9385265265e+01   3.4301206154e+01     0.215575    0.1770779 -47.16 0.0004919008    1.125    0.111
       399  -9.9183     86.4019     85.8547   5.5680058705e+01   4.9240789832e+01    0.6430923    0.4060839 -66.91    0.0013828    1.960    0.490
       400  -7.9161    164.2060     86.9919   3.6314373631e+01   3.1707953438e+01    0.1970209    0.1056504 -38.43 0.0004435712    1.687    0.407
       401  -9.8070     48.7979     84.3294   7.0526842420e+01   5.6479839691e+01    0.6954545    0.3820458  66.13  0.002217479    2.996    0.666
       402  -9.2933    139.8864    104.4732   4.5963153153e+01   3.3625405147e+01    0.3724355    0.2838561  89.22 0.0008455222    1.756    0.430
       403  -7.6740    179.3678     85.2366   3.3346321498e+01   2.8807554825e+01    0.2056608    0.1095363 -45.18 0.0004523829    1.672    0.402
       404  -9.7589    104.9062     83.1549   4.8843335125e+01   4.5828835949e+01    0.5079357    0.3404716 -74.26  0.001147699    2.082    0.520
       405  -8.5366    158.0757     83.6972   3.6513474811e+01   3.3622342234e+01    0.2489332    0.1793612 -49.41 0.0004349373    1.293    0.226
       406  -9.1346    140.8227     82.4956   3.9576796262e+01   3.7724699065e+01    0.3338686    0.2007871 -49.50  0.000783745    1.618    0.382
       407  -9.0556    193.0054     94.7890   3.3690619113e+01   2.4553582952e+01    0.2329955    0.1655672 -39.90 0.0005283707    1.192    0.161
       408  -9.6502     24.6788     80.3004   8.1534426867e+01   6.0588503580e+01    0.5437774    0.3095712  78.05  0.001525975    2.300    0.565
       409  -8.3743    150.1441     80.2256   3.7020715335e+01   3.6015311159e+01    0.2818407    0.1706952 -60.41 0.0008614765    1.941    0.485
       410  -8.7913    119.3273     79.8558   4.3799332971e+01   4.3211679788e+01    0.3773565    0.2185516 -53.99  0.001173217    1.838    0.456
       411  -8.8250     74.8412     80.3238   5.8162100387e+01   5.2913272349e+01    0.3506379    0.2196429 -67.77 0.0009570948    1.976    0.494
       412  -9.2443      9.6362     80.5403   8.9653983357e+01   6.1725019195e+01    0.3560641    0.1899709  46.96  0.001198267    2.006    0.502
       413  -9.1646    248.6908     80.4331   2.4113403530e+01   1.7018391594e+01    0.1776908    0.1161546  74.91  0.001146588    2.146    0.534
       414  -8.2509    166.8773     79.3323   3.3770070068e+01   3.2439536459e+01    0.1894809     0.175761 -47.72 0.0005258663    1.053    0.051
       415  -8.2001    184.3459     78.1684   3.0781051693e+01   2.8912994409e+01    0.2081576    0.1045957 -43.47  0.000734802    1.711    0.415
       416  -8.5383     50.5167     77.3167   6.7671645442e+01   5.8049423294e+01    0.4204818    0.1546874  25.87  0.001247945    3.689    0.729
       417  -8.1887    157.1379     76.1636   3.4552350014e+01   3.5141353439e+01    0.2057745    0.1560772 -61.62 0.0004410389    1.339    0.253
       418  -9.2952    128.1789     75.1762   4.0145224366e+01   4.2048460008e+01    0.3684853    0.2316374 -57.36 0.0006163303    1.735    0.424
       419  -8.1751    105.6420     76.7131   4.6522051214e+01   4.7031751988e+01    0.1566023    0.1258049  13.05 0.0005418467    1.679    0.405
       420  -8.6452     91.3640     75.8592   5.0689174249e+01   5.0453156755e+01    0.2233951    0.1935337 -46.64 0.0005505582    1.151    0.131
       421  -9.9306     63.3220     73.5211   6.0608013053e+01   5.6780221241e+01    0.5436774     0.334784 -70.06  0.001230641    2.097    0.523
       422  -8.4566    140.4714     75.1777   3.7452768020e+01   3.9154233278e+01    0.2377865    0.1933666 -72.90 0.0005328686    1.302    0.232
       423  -9.7978     82.6110     71.1828   5.2095240356e+01   5.3407612523e+01    0.8999237    0.3656933 -45.55   0.00250259    2.452    0.592
       424  -7.9616    163.4927     73.0066   3.2566346193e+01   3.4240091318e+01    0.2235349    0.1286653 -39.01  0.001019404    1.559    0.359
       425  -8.0931    151.4003     73.2089   3.4729500317e+01   3.6959392335e+01    0.2120942    0.1236303 -47.45 0.0004582473    1.608    0.378
       426  -8.6203    115.7475     72.6820   4.2389888267e+01   4.5477731671e+01     0.308899    0.1959043 -51.93 0.0005703208    1.597    0.374
       427  -8.2325     42.6993     72.5572   7.0046925661e+01   6.0470816239e+01    0.2613246      0.18332 -86.97 0.0008087181    1.784    0.440
       428  -7.4650    175.5308     72.4480   3.0539300763e+01   3.1677352291e+01    0.1412088    0.1218635 -51.77 0.0002145871    1.024    0.024
       429  -8.9539    105.7923     71.5048   4.4710216989e+01   4.8066697753e+01    0.3002755     0.227862 -71.69 0.0007951895    1.524    0.344
       430  -9.2442     95.1811     71.0379   4.7759877349e+01   5.0629247731e+01    0.4184344    0.2522045 -59.80 0.0009975921    1.966    0.491
       431  -9.5157     51.4106     69.4597   6.4684411151e+01   5.9890755839e+01    0.4988101    0.2799985 -71.18  0.001483446    2.396    0.583
       432  -8.6415     28.5079     70.7962   7.7142719088e+01   6.2768559743e+01    0.3000018    0.1685323 -27.85  0.001186251    2.341    0.573
       433  -9.1098     16.6035     69.7304   8.3729428238e+01   6.4210041261e+01    0.3443921    0.2262883  83.43 0.0009558545    1.729    0.422
       434  -8.9096    147.0265     67.5672   3.3840038729e+01   3.8943350121e+01     0.423517    0.1853435 -41.31  0.001135008    2.073    0.518
       435  -7.8793    129.6373     69.6767   3.8047980973e+01   4.2723005725e+01    0.1547342    0.1207914  17.95 0.0003691621    1.785    0.440
       436  -8.6842    138.7050     65.9270   3.4928273975e+01   4.1207024308e+01     0.283875    0.1789989 -52.96 0.0006644386    1.583    0.368
       437  -8.6362    121.8821     65.8185   3.8552331775e+01   4.5301111983e+01    0.2743882    0.2095156 -60.04 0.0005945442    1.338    0.252
       438  -8.7655     37.3617     64.1596   7.0183660430e+01   6.3383702104e+01    0.3747114    0.2383251  83.00  0.001286461    2.453    0.592
       439  -8.7858    110.0792     63.3534   4.0655831074e+01   4.8629000252e+01    0.3292125    0.2248387 -62.03 0.0006516826    1.654    0.395
       440  -9.4407     97.5947     60.5130   4.3145663299e+01   5.2184108979e+01    0.3150876     0.283331  89.36 0.0007228634    1.135    0.119
       441  -8.6011     65.3372     62.5098   5.5695316600e+01   5.8963078159e+01    0.3739065    0.2273175  11.28  0.001104517    3.596    0.722
       442  -8.1004    157.9939     61.5165   3.0120193153e+01   3.7349936902e+01    0.1997711    0.1411575  70.54 0.0003775978    1.508    0.337
       443  -9.6396     73.2934     59.2687   5.1099318574e+01   5.8009126014e+01    0.4293366    0.2687955 -57.74 0.0009869615    1.806    0.446
       444  -7.9218     88.9997     59.2348   4.5373072865e+01   5.4469511691e+01    0.2263607     0.161676 -63.74 0.0004996713    1.618    0.382
       445  -8.3660    130.9877     57.7073   3.3789982215e+01   4.4480824216e+01    0.2788352    0.1687063 -51.07 0.0007251928    1.642    0.391
       446  -9.8578     23.3960     56.1492   7.5880319543e+01   6.7157060515e+01    0.5202068    0.3087038  77.17  0.001963364    2.652    0.623
       447  -9.6458      7.4531     56.9501   8.6676326391e+01   6.8290820601e+01    0.3676321    0.2402004  85.53  0.001137825    1.697    0.411
       448  -9.0259    119.1285     55.4735   3.5582418760e+01   4.7804196163e+01    0.4813436    0.2000221 -46.00  0.001552084    2.402    0.584
       449  -8.1191    140.0135     55.9829   3.1466733075e+01   4.2537782089e+01    0.2372179    0.1596676 -63.60 0.0004568463    1.592    0.372
       450  -8.7294     44.1476     55.4555   6.3218892799e+01   6.4478282326e+01    0.2804674    0.2283105 -89.77 0.0007547509    1.516    0.341
       451  -8.9745     62.8827     54.5046   5.3510305298e+01   6.1212918771e+01     0.322633    0.2172708 -57.08 0.0006385911    1.621    0.383
       452  -9.0221     54.1536     53.7904   5.7312212481e+01   6.3086450772e+01     0.392913    0.2332215 -64.04  0.001085565    2.183    0.542
       453  -8.4982    105.7815     52.7648   3.7860925710e+01   5.1600648701e+01    0.3006681    0.1930866 -49.64 0.0006140139    1.578    0.366
       454  -9.4148     92.4913     50.3485   4.0677370244e+01   5.5305967685e+01    0.4436024    0.2466849 -50.49  0.001271375    1.933    0.483
       455  -8.1790     74.9652     51.4976   4.7194207940e+01   5.9221686315e+01    0.2236915    0.1276893  28.89 0.0008094959    2.637    0.621
       456  -8.2191    144.5731     48.9282   2.8367129921e+01   4.2501529907e+01    0.2204346    0.1352921 -34.40 0.0004871596    1.576    0.366
       457  -8.9151    129.8706     49.0630   3.1034576707e+01   4.6147535640e+01    0.2355893    0.1880787 -63.30 0.0005597419    1.223    0.183
       458  -8.6560    112.6806     47.0724   3.3956199380e+01   5.0814437306e+01    0.3326184    0.1710483 -51.70 0.0009260967    2.116    0.527
       459  -8.0752    120.8162     47.3274   3.2244013072e+01   4.8707620661e+01    0.2102801    0.1734687 -54.63 0.0004711366    1.167    0.143
       460  -9.1591     82.1560     45.9895   4.2164049602e+01   5.8579793566e+01    0.3697575    0.2270462 -49.38 0.0007220614    1.721    0.419
       461  -8.4781     45.1179     44.6298   5.7939566986e+01   6.6740264122e+01    0.2437092    0.1983266 -60.88 0.0006101283    1.342    0.255
       462  -9.0778     16.7759     44.3607   7.6384120225e+01   7.0788936131e+01    0.2878582    0.2142195  86.22 0.0008233172    1.672    0.402
       463  -8.7024    132.8581     43.1168   2.8395289206e+01   4.6283282914e+01    0.2341747    0.1781259 -65.07 0.0004232533    1.297    0.229
       464  -8.5126     92.7430     42.4443   3.7261334741e+01   5.6596252661e+01    0.2527987    0.1938062  -1.12 0.0009159276    1.775    0.437
       465  -9.4211     69.6739     40.8443   4.4393186629e+01   6.2418453815e+01    0.5291768    0.2895598 -44.79  0.001972514    1.890    0.471
       466  -8.7181     58.2943     42.4981   5.0130061174e+01   6.4607757737e+01    0.3385175    0.2437101 -73.19  0.001119522    1.956    0.489
       467  -9.7864      5.3229     41.6861   8.4371649759e+01   7.2363005937e+01    0.4279816     0.237167  84.41  0.001763302    2.399    0.583
       468  -8.6020    105.9991     41.4374   3.3318728831e+01   5.3401134624e+01    0.2990812    0.1872248 -51.41 0.0007464553    1.658    0.397
       469  -7.9981    140.3651     41.2455   2.6490581321e+01   4.4655443240e+01    0.2046426    0.1186826 -43.58 0.0003440937    1.590    0.371
       470  -8.5701     36.8820     40.6678   6.0897452044e+01   6.9002084742e+01    0.2690427    0.2104073 -59.34 0.0009174966    1.384    0.278
       471  -7.3498    160.6482     39.3307   2.3013092737e+01   3.9927224967e+01    0.1558712   0.08975331 -61.70 0.0007047158    1.775    0.437
       472  -8.8933     95.7399     37.9375   3.4463877490e+01   5.6552989884e+01    0.2752775    0.1882542 -53.91 0.0006653065    1.554    0.356
       473  -8.3887     80.7237     36.5667   3.8319528654e+01   6.0518988647e+01    0.2541822    0.1692069 -56.89 0.0006419467    1.735    0.424
       474  -9.3716     26.2191     35.1808   6.5367171212e+01   7.1811208761e+01    0.3377521    0.2415719 -72.36 0.0009482193    1.795    0.443
       475  -7.5263    179.2501     35.6992   1.9878972992e+01   3.6048446013e+01    0.1375618   0.08207016 -55.28            0    1.496    0.332
       476  -8.1114    126.0102     35.2974   2.6780749271e+01   4.9128710917e+01     0.199315    0.1786347 -87.43 0.0004293411    1.045    0.043
       477  -8.6964    111.9073     34.4503   2.9156268771e+01   5.2896825364e+01    0.2828639    0.1841349 -52.60 0.0006398692    1.564    0.360
       478  -8.7634     48.6509     33.0159   5.0004231033e+01   6.8376076191e+01    0.2720242    0.2155962 -52.03 0.0006393792    1.373    0.272
       479  -8.3637    119.3406     32.9209   2.7085604989e+01   5.1173342976e+01     0.285027    0.1097399 -38.75 0.0007082559    2.397    0.583
       480  -8.8032     60.6774     32.3211   4.3793295722e+01   6.5931074224e+01    0.2413003    0.2155808 -75.64 0.0006091787    1.267    0.210
       481  -8.8837     72.2480     30.4887   3.8218157465e+01   6.3525890376e+01    0.3928765    0.2025758 -41.70  0.001284287    2.007    0.502
       482  -9.0211     13.1091     30.2938   7.3453347989e+01   7.4483599115e+01    0.2946918    0.2156932 -82.78 0.0008887957    1.750    0.429
       483  -8.4186    101.4272     29.2012   2.9232151706e+01   5.6331844188e+01    0.2063436    0.1261458 -45.24 0.0006326803    1.648    0.393
       484  -7.5281     42.3161     29.6951   5.1648176740e+01   7.0230899995e+01    0.1368157    0.1135963  86.70  0.000702595    1.624    0.384
       485  -8.7418    218.5855    248.2458   5.7840134955e+01  -1.1413969385e+00    0.2132241    0.1200555 -27.74  0.001285686    1.586    0.370
       486  -7.6328    110.4218     27.4391   2.6585994895e+01   5.4209677655e+01    0.1457345    0.1308611 -77.43 8.311777e-05    1.047    0.045
       487  -8.8506     91.9111     26.1333   3.0114302450e+01   5.9202194629e+01    0.3308189    0.1799774 -43.00 0.0006449553    1.875    0.467
       488  -8.2133    104.4837     22.5431   2.5669699824e+01   5.6364281861e+01    0.1453301    0.1310133 -83.23 0.0001581778    1.040    0.039
       489  -9.0104     63.5608     20.7615   3.6064273078e+01   6.7009569127e+01    0.3517581    0.2188174 -49.72  0.001028497    1.855    0.461
       490  -8.7747     48.3005     21.3620   4.3197681224e+01   7.0409078098e+01    0.2528704    0.2161562 -55.76   0.00087516    1.341    0.254
       491  -7.9127     19.4475     21.2470   6.2780281964e+01   7.5663867423e+01    0.1728215    0.1294715 -60.60 0.0005832827    1.568    0.362
       492  -8.1617    191.6772    249.3988   6.2414356302e+01   1.2240255309e+00    0.1393102    0.1126911  29.64 0.0006609884    1.674    0.403
       493  -8.0955     87.9870     17.5243   2.6905605227e+01   6.1261841847e+01    0.2126094    0.1859909 -36.44 0.0005091197    1.206    0.171
       494  -8.3033     38.8439     18.1321   4.6301563943e+01   7.2879163735e+01    0.1978016     0.187436 -84.27 0.0005350965    1.255    0.203
       495  -7.6344    112.5433     16.5336   2.1658898354e+01   5.4909135682e+01    0.1438736    0.1259157 -76.44 0.0001894044    1.058    0.054
       496  -7.9033     29.9172     15.8173   5.0547780751e+01   7.4962314538e+01    0.1703301    0.1618912  89.06 0.0005764193    1.304    0.233
       497  -8.8665     81.6264     27.2296   3.3472322631e+01   6.1682540881e+01    0.3264157    0.2178955 -61.48 0.0008880127    1.793    0.442
       498  -8.1463     97.3805     15.1848   2.3746720788e+01   5.9052979714e+01     0.200179    0.1204515 -40.20  0.000401413    1.671    0.402
       499  -7.8794      7.6918     15.3295   7.0388119257e+01   7.8289880573e+01    0.1236277    0.1004984  61.84 0.0007039627    1.661    0.398
       500  -9.1305    175.6069    247.4847   6.5001112136e+01   3.0574097432e+00    0.2289931    0.2245867 -57.47  0.001414881    1.814    0.449
       501  -8.7556    132.6826    248.0985   7.3305623478e+01   7.5317198757e+00    0.2851125    0.1630445  47.06  0.001264677    2.260    0.558
       502  -8.0692    113.0898    248.6320   7.7394563821e+01   9.6011902522e+00    0.1675625    0.1555359  61.46 0.0008731558    1.415    0.294
       503  -8.6683    156.2377    247.9646   6.8660972763e+01   5.0096797437e+00     0.183451    0.1528731  46.86  0.000828503    1.757    0.431
       504  -8.9674    103.8815    246.8369   7.9166299037e+01   1.0898722367e+01    0.3071418    0.1974306 -86.47  0.001750962    2.724    0.633
       505  -9.1090    242.9565    245.9170   5.3859322254e+01  -2.9712702216e+00    0.2888626    0.1018555 -28.88  0.001757662    2.368    0.578
       506  -9.1270    233.1406    245.8127   5.5283525962e+01  -2.1434351752e+00    0.3448249     0.149499 -18.03  0.002074725    2.201    0.546
       507  -9.9576    223.9740    243.9528   5.6421531215e+01  -1.1476996086e+00    0.3501135     0.174979 -40.76   0.00226422    2.480    0.597
       508  -9.0807    210.8752    246.2520   5.8801149200e+01  -2.2110277798e-01    0.1802281    0.1312197 -38.40 0.0009396354    1.900    0.474
