#   1 NUMBER                 Running object number                                     
#   2 MAG_AUTO               Kron-like elliptical aperture magnitude                    [mag]
#   3 X_IMAGE                Object position along x                                    [pixel]
#   4 Y_IMAGE                Object position along y                                    [pixel]
#   5 X_WORLD                Barycenter position along world x axis                     [deg]
#   6 Y_WORLD                Barycenter position along world y axis                     [deg]
#   7 A_WORLD                Profile RMS along major axis (world units)                 [deg]
#   8 B_WORLD                Profile RMS along minor axis (world units)                 [deg]
#   9 THETA_WORLD            Position angle (CCW/world-x)                               [deg]
#  10 FWHM_WORLD             FWHM assuming a gaussian core                              [deg]
#  11 ELONGATION             A_IMAGE/B_IMAGE                                           
#  12 ELLIPTICITY            1 - B_IMAGE/A_IMAGE                                       
         1 -13.5920     30.4603     59.8719   1.0930262810e+02   6.2015514155e+01     2.159546    0.9032233  38.54  0.005367297    2.619    0.618
         2 -12.5993    203.8791     21.7433   4.9231646166e+01   3.0430505990e+01    0.7332524    0.3128942 -64.98  0.002451821    3.688    0.729
         3 -12.0449     42.8267     20.4945   8.8724905958e+01   6.9145318611e+01    0.6320928    0.3641372  36.74  0.001658746    1.905    0.475
         4 -12.6066    215.9805     14.6900   4.6069693170e+01   2.8163349406e+01    0.7419552    0.5261983  17.85  0.003107182    1.740    0.425
         5 -13.2626    188.1445      8.0060   4.6554569935e+01   3.5795530221e+01    0.8672484    0.4855866 -68.07  0.003783578    2.047    0.512
         6 -12.0965     43.8280      8.8830   8.1616840645e+01   7.1026628088e+01    0.3515452    0.3432211  59.77  0.001706932    1.329    0.247
         7 -10.4823     47.2187      1.4027   7.5028576588e+01   7.1570815803e+01    0.5304631    0.1202706  48.23  0.001725619    4.545    0.780
         8 -12.0263     58.0101      8.3069   7.4439850368e+01   6.8593005012e+01    0.5058042     0.375058  30.98  0.002510471    1.362    0.266
         9 -11.1586     55.2950      3.1045   7.2375691406e+01   6.9835680155e+01    0.4464406    0.2981981 -36.39  0.002104095    1.501    0.334
        10 -10.1302    109.5025      8.5018   5.8310969816e+01   5.6789949926e+01    0.1415526    0.1405661  16.28 0.0008099715    1.060    0.056
        11  -9.6913      5.0120      2.8305   1.0392584066e+02   7.6791806597e+01    0.1672555    0.1233715 -72.32  0.001044874    1.604    0.376
        12 -11.7938    166.6398      1.7308   4.6628861340e+01   4.2064467634e+01    0.6542482     0.159949  69.96  0.002034382    3.565    0.720
        13  -9.9850      1.4108      2.0209   1.0647113526e+02   7.7198413204e+01    0.1742199   0.09362786 -56.36 0.0003703013    1.505    0.336
        14  -9.9425    173.8138    221.4176   9.9720703070e+01   8.8056070670e+00    0.1797961   0.08690919 -43.84  0.001029849    2.725    0.633
        15 -10.9023    239.6932    215.8757   8.8174744511e+01   2.1254756841e-01    0.2304498   0.07698052 -37.28  0.001097188    4.239    0.764
        16 -11.3943    224.2491    212.8976   9.0107725851e+01   2.5719274573e+00    0.3344021    0.1505249  27.19  0.001882531    1.948    0.487
        17 -10.6709    115.9030    209.5804   1.0899374911e+02   1.8814118523e+01    0.2122301    0.1485031  88.65  0.001332465    2.007    0.502
        18  -9.8642    185.6585    204.3338   9.5263979330e+01   9.1135974400e+00     0.108038   0.08660166  58.64 0.0007051041    1.755    0.430
        19 -10.6538     48.9440    201.4444   1.2164933309e+02   2.8784453723e+01    0.2491674    0.1299363  86.87  0.001481226    2.074    0.518
        20 -10.8768     41.6933    201.0185   1.2308377608e+02   2.9650651972e+01    0.2169586    0.1688317 -76.08 0.0009223747    1.454    0.312
        21 -10.4174      4.0878    200.1646   1.3045994077e+02   3.3378776741e+01     0.242918   0.07306607  45.29  0.001379839    2.146    0.534
        22 -10.5072    149.4921    198.9827   1.0115868469e+02   1.5393312886e+01    0.1458078    0.1052388 -87.25 0.0008100704    2.508    0.601
        23 -10.2299    112.9965    198.1809   1.0827417811e+02   2.1036157191e+01     0.209151    0.1116942  56.92  0.001090699    2.058    0.514
        24 -12.5466    160.6084    192.1159   9.8039617976e+01   1.4633128975e+01    0.6091316    0.4347552  62.09  0.003185126    1.893    0.472
        25  -9.8873    215.3180    193.9859   8.8575555497e+01   5.8389291514e+00    0.1579374    0.0878848 -51.45 0.0007047884    4.275    0.766
        26 -10.0658     66.0001    194.4943   1.1761857135e+02   2.8034432029e+01    0.1763083     0.062307  51.62 0.0008101704    2.511    0.602
        27 -10.1344    110.1737    186.7771   1.0747268182e+02   2.3366571108e+01    0.2140053    0.1124748  64.64 0.0009560689    2.869    0.651
        28 -10.1212     34.3294    187.6578   1.2379391920e+02   3.2873575498e+01    0.1240254   0.06026542  60.23 0.0006251927    1.745    0.427
        29 -10.3865    183.6550    181.6693   9.2049697798e+01   1.2345871312e+01     0.173746    0.1199446 -11.61  0.001013851    1.672    0.402
        30 -10.8768    224.7615    184.1712   8.5380726275e+01   5.5036069845e+00    0.1607544    0.1343784 -82.52 0.0009511853    2.807    0.644
        31  -9.5704    133.3215    195.6713   1.0387405644e+02   1.8387245248e+01    0.1208928   0.08422973  62.14 0.0003879876    1.691    0.409
        32 -10.0286    128.9912    177.7588   1.0226089058e+02   2.1981973028e+01    0.1783679   0.09305222  39.71 0.0008930234    1.642    0.391
        33 -10.2188    192.0229    178.5291   8.9990986699e+01   1.1386165147e+01    0.1638547    0.1024293  58.85  0.000809545    2.518    0.603
        34 -10.3040    105.9660    175.4660   1.0691508015e+02   2.6011506407e+01    0.2587227    0.1414288  74.90  0.001043351    3.580    0.721
        35 -11.0241     38.3276    174.9664   1.2208712122e+02   3.4912643265e+01    0.1612933    0.1298447  73.89 0.0008529692    1.074    0.069
        36 -10.5368    176.4885    171.5046   9.1646873805e+01   1.4975317444e+01    0.2459764    0.1246476 -37.81  0.001221284    2.203    0.546
        37 -10.6235     45.1610    172.3216   1.2034014111e+02   3.4701288021e+01    0.2822101   0.08042163  50.65   0.00117362    3.057    0.673
        38 -11.9779    121.1589    167.4870   1.0240972273e+02   2.5059139164e+01    0.5423794    0.2190519 -55.41  0.002323144    2.927    0.658
        39 -11.3073     55.4338    167.7977   1.1757146937e+02   3.4431327489e+01    0.3916794    0.2077082  82.09  0.002016144    2.167    0.539
        40 -10.2829    167.7155    168.7206   9.2857237285e+01   1.6905145148e+01    0.2307979    0.1585065 -65.52  0.001166699    2.472    0.595
        41 -10.0199    159.6357    175.3183   9.5583092895e+01   1.7283552904e+01    0.1258429   0.09578022  66.29 0.0007040303    1.775    0.437
        42 -10.0253     19.4783    166.5371   1.2581661565e+02   3.8448105661e+01    0.1158565   0.08625931  66.42 0.0001956305    1.048    0.046
        43 -10.0133    138.4987    164.4869   9.8143331496e+01   2.2671949923e+01    0.2186807    0.1278081 -62.17  0.001035108    2.415    0.586
        44 -11.7800    106.6630    157.9898   1.0424804860e+02   2.9199654339e+01    0.6053791    0.3809967  71.55  0.002932152    2.167    0.539
        45 -10.7429     22.4552    159.8600   1.2472278229e+02   3.9549996944e+01    0.2705999    0.1228819  53.62  0.001482887    1.846    0.458
        46 -11.2753    167.8258    157.6404   9.0818456134e+01   1.8602718167e+01    0.3226069    0.2313286  57.47  0.001455597    1.663    0.398
        47 -11.4648    118.9802    157.1147   1.0125223657e+02   2.7338723473e+01    0.3645187    0.2624646  53.94  0.001720152    1.347    0.258
        48 -10.4659    218.4896    156.4695   8.1307977663e+01   9.7806146415e+00    0.2564118     0.115046 -30.24  0.001227568    2.224    0.550
        49  -9.8816      7.0000    155.9972   1.2816437883e+02   4.1666340502e+01    0.1764999   0.05383778 -81.84 0.0005424656    2.893    0.654
        50  -9.7492     81.7518    154.9967   1.0978985629e+02   3.3602129801e+01    0.2510152    0.1075574  61.13 0.0009028324    3.641    0.725
        51  -9.8625    144.3552    154.6726   9.5159671336e+01   2.3348103464e+01    0.1361693    0.1029381  72.35 0.0007045803    1.775    0.437
        52  -9.9115     68.0285    154.5214   1.1311173969e+02   3.5592671062e+01     0.190464   0.07947624  53.64 0.0008095345    2.485    0.598
        53 -10.0771     23.7485    153.7476   1.2400594326e+02   4.0715647858e+01    0.1669196    0.1052477  61.64 0.0005380902    1.337    0.252
        54 -10.5913    132.7231    152.4857   9.7331517158e+01   2.5821728951e+01    0.2968269    0.1741496 -85.88 0.0008929842    5.980    0.833
        55 -10.5222    189.7955    150.3431   8.5143051708e+01   1.5694917817e+01    0.2945045    0.1756239 -49.95  0.001414392    2.314    0.568
        56  -9.7848     21.6492    149.7988   1.2425107512e+02   4.1749091720e+01    0.1643753   0.09077114  85.72 0.0004998817    1.630    0.386
        57 -11.2599    107.6726    145.8375   1.0203423853e+02   3.1440523313e+01     0.647175    0.3177842  64.19  0.002236025    3.909    0.744
        58  -9.1981    206.3179    147.6512   8.1615780272e+01   1.3063514080e+01     0.119282    0.1056347 -71.91 0.0005875383    1.732    0.423
        59 -11.0666    148.7729    145.2832   9.2417870954e+01   2.4186899796e+01    0.4140816    0.2594891  70.83  0.001710193    2.910    0.656
        60 -10.4639     55.8278    146.0056   1.1519066093e+02   3.8966154587e+01    0.2232102     0.122717  72.43  0.001086378    2.073    0.518
        61 -10.5319     87.7312    144.1775   1.0673151198e+02   3.4977260224e+01    0.2168794    0.1608495  83.08   0.00119498    1.485    0.327
        62 -10.4138    182.2440    142.1359   8.4893463490e+01   1.8339930477e+01    0.2450645    0.1825245  71.98  0.001233155    2.085    0.520
        63 -10.3670    131.9952    131.7113   9.3478488501e+01   2.9878143060e+01    0.2831652    0.1813583 -75.93  0.001171245    2.689    0.628
        64 -12.2021     99.9856    128.8468   1.0091579864e+02   3.6267776441e+01    0.8148932     0.443402  65.19  0.003192704    2.838    0.648
        65  -9.9694     73.2980    129.6658   1.0826744553e+02   4.0273346067e+01    0.1403485   0.09446803  71.64 0.0005591585    1.649    0.394
        66 -11.1357     82.6204    127.3833   1.0531844500e+02   3.9399403290e+01    0.3390774    0.1132695 -54.40  0.001262104    2.924    0.658
        67 -10.4522     59.5617    124.8463   1.1138463658e+02   4.3234425668e+01    0.5232291    0.2381044  76.22  0.001625758    5.009    0.800
        68 -10.4607    118.2496    125.9945   9.5639184631e+01   3.3609041076e+01     0.309672    0.1702324  63.37  0.001184585    2.775    0.640
        69 -11.0630     44.2033    123.7555   1.1566502033e+02   4.5327901126e+01    0.6141461    0.2708844  73.33  0.002291004    3.564    0.719
        70 -11.1189     26.9762    120.9163   1.2036529913e+02   4.7726875823e+01    0.6058991    0.2235571  77.01  0.002050284    4.474    0.776
        71 -10.7658     14.9849    120.8981   1.2385730513e+02   4.8743021949e+01      0.35128    0.2280596  17.97  0.002098108    1.932    0.482
        72 -11.9388    193.4227    118.4667   7.7515521088e+01   1.9755084155e+01    0.5130361    0.4312524 -76.66  0.001885006    1.704    0.413
        73 -11.0212     70.5854    119.4590   1.0733476098e+02   4.2973110950e+01    0.3723391    0.1776435 -81.05   0.00134717    3.374    0.704
        74 -10.8404    130.5141    118.7217   9.0995579777e+01   3.2712079019e+01    0.3724882     0.236237 -79.89  0.001406756    3.102    0.678
        75 -10.0870      2.3149    116.6459   1.2722083512e+02   5.0612028622e+01     0.129556   0.06721147  63.91 0.0007045655    1.738    0.425
        76 -10.7473    108.4586    112.8260   9.5319503636e+01   3.8188758412e+01    0.5886868    0.2619075 -63.74  0.001930552    3.649    0.726
        77 -11.1505     78.6121    111.9718   1.0359193068e+02   4.3493328680e+01    0.4873006    0.2691545 -80.78  0.001952172    2.675    0.626
        78 -11.1858    174.4414    110.8722   7.9309852607e+01   2.4951512938e+01    0.4204181     0.272002 -35.90   0.00123121    1.551    0.355
        79 -12.8679    160.0457    110.4872   8.2205580740e+01   2.8115461713e+01    0.8732128    0.5196623 -59.25  0.003529131    2.507    0.601
        80 -10.9998    122.4015    112.2186   9.1512054917e+01   3.5632426259e+01     0.467629    0.3010313 -70.83  0.001982211    2.264    0.558
        81 -10.6108     91.8681    110.9943   9.9529344719e+01   4.1555305330e+01     0.458404    0.1976139 -62.72  0.001683456    2.817    0.645
        82 -13.0153    151.9304    109.9566   8.3858662519e+01   2.9952835965e+01    0.7184219    0.4346996  63.53  0.002993698    2.212    0.548
        83 -13.1644    141.4057    104.1549   8.4817268110e+01   3.3296837044e+01    0.7229491     0.656632 -57.38  0.003949766    1.174    0.148
        84 -11.5346     15.0236    110.1622   1.2290124722e+02   5.1232567745e+01     0.614255    0.3098524  75.54  0.003115028    1.977    0.494
        85 -11.6344    141.3239    118.3597   8.8324182189e+01   3.0602259675e+01    0.4208902    0.2646307 -41.25  0.001965862    1.653    0.395
        86 -11.8458     44.7587    101.3478   1.1222885697e+02   5.0547847859e+01    0.6930616    0.3559375  80.81  0.002834033    2.818    0.645
        87 -12.4829    127.5102    100.9305   8.7400538317e+01   3.6881935845e+01    0.6312196    0.4113428 -71.08  0.002591472    2.351    0.575
        88 -12.3825    109.2427     99.9936   9.2026799651e+01   4.0781798359e+01    0.8001415    0.4982524  74.70  0.003068867    2.795    0.642
        89 -10.8909     82.2949    100.5357   1.0005189064e+02   4.5523488394e+01    0.2704471    0.2561619 -84.21 0.0007730469    1.003    0.003
        90 -10.2688     94.5613     97.0364   9.5507035477e+01   4.4193046045e+01    0.3031953    0.1887939 -70.74   0.00129697    2.071    0.517
        91 -10.8793     63.8023     96.9857   1.0514200539e+02   4.9173136699e+01    0.2370459    0.1518507  84.25  0.001081374    2.049    0.512
        92 -12.8523    170.2998     90.8596   7.4914639327e+01   2.9210129944e+01    0.4575166    0.3778742  71.73  0.001531111    1.425    0.298
        93 -12.1504    116.0041    102.5005   9.0814675186e+01   3.8916736997e+01    0.7495445    0.2656251  41.03  0.002537755    2.921    0.658
        94 -10.6930     34.1731     88.7714   1.1374357773e+02   5.4696151552e+01    0.4469011    0.1682397 -80.92  0.001553877    3.599    0.722
        95 -11.7207     42.6710     87.6937   1.1050641407e+02   5.4063508810e+01    0.5640611    0.3623222  -3.88  0.001469046    2.524    0.604
        96 -11.0577     45.4666     81.8979   1.0831571363e+02   5.5139072134e+01    0.3200283    0.1910904 -72.05  0.000911105    1.620    0.383
        97 -11.3962     87.6709     87.2106   9.5087286761e+01   4.7625431583e+01    0.4836063    0.2890743  52.86  0.002150802    1.858    0.462
        98 -11.0346    104.9793     83.8989   8.8887676452e+01   4.5057514185e+01    0.4049075    0.3007314  82.07  0.001857219    1.844    0.458
        99 -10.2751    140.4304     83.1959   7.9259513930e+01   3.7475682956e+01    0.2244273    0.1394757 -49.46 0.0009525232    1.735    0.424
       100 -10.5797     23.9070     80.2520   1.1610348397e+02   5.7692808235e+01    0.3369988    0.1494009  88.84  0.001330616    2.997    0.666
       101 -10.7127     10.3615     81.2472   1.2136517384e+02   5.8444689093e+01    0.1997973    0.1791122  56.61   0.00132114    1.225    0.184
       102  -9.6290      2.2242     77.5522   1.2400778073e+02   5.9799441574e+01    0.1467516    0.1117207 -24.09 0.0009351614    1.651    0.394
       103 -11.6293     82.7820     72.9828   9.2635166414e+01   5.1669152839e+01    0.7116277    0.3926671 -66.62  0.002652627    2.559    0.609
       104 -10.8149     62.3972     70.8015   9.9246443014e+01   5.5517704402e+01    0.3105059    0.1294204 -54.62  0.001230352    2.188    0.543
       105 -10.2780    116.1840     73.0133   8.2368652399e+01   4.4921869859e+01    0.2597914     0.176545 -68.60  0.001084933    2.061    0.515
       106 -11.6091    223.4614     70.9437   6.0735912403e+01   2.0015841647e+01    0.2995896    0.2415086 -30.12 0.0007658073    1.133    0.117
       107 -10.2570     94.6763     71.1604   8.8169705441e+01   4.9816349045e+01    0.3143671    0.1303814 -52.51  0.001098388    2.637    0.621
       108 -10.5052     51.8947     70.8695   1.0326399302e+02   5.6970442538e+01    0.2540049    0.1973693 -75.41 0.0008635808    1.298    0.230
       109 -10.4382    196.7939     67.7384   6.3675559540e+01   2.6524097673e+01    0.3959366    0.1805899  62.88   0.00146842    2.481    0.597
       110 -11.2076     28.1412     52.1412   1.0836104800e+02   6.4061933134e+01     0.319907    0.2365573 -24.09 0.0008633919    1.565    0.361
       111 -10.6973     39.5368     53.2078   1.0344330944e+02   6.2617976649e+01    0.3592557    0.1805565 -45.12  0.001020654    1.877    0.467
       112 -11.3010    220.7221    249.0152   9.5646207110e+01  -2.7146367978e-01     0.226087    0.1087286  39.74  0.001500896    1.781    0.439
       113 -11.4381     19.3542     59.3851   1.1411239669e+02   6.3089843051e+01    0.2763344    0.2614661 -30.65   0.00113058    1.203    0.169
       114 -10.4887    101.4292     61.5781   8.2857346153e+01   5.0394470688e+01    0.3669558    0.2259397  80.23   0.00123891    3.571    0.720
       115 -10.4100     73.0444     59.1143   9.1614423983e+01   5.6422473353e+01    0.3780782    0.1912615 -60.25  0.001469752    2.436    0.589
       116 -10.1425    119.4841     56.9678   7.6037479415e+01   4.7204934281e+01    0.2245995    0.1230503 -56.71 0.0008099462    2.531    0.605
       117 -11.8129    238.2483     64.1339   5.7160953188e+01   1.7686436701e+01    0.2551721    0.1675048 -67.77   0.00125534    2.138    0.532
       118 -10.2992     53.9505     54.0124   9.7431229077e+01   6.0570825784e+01    0.4482874    0.1890839 -66.97  0.001384475    4.312    0.768
       119 -12.4670    149.1737     52.2517   6.7365194592e+01   4.0663032843e+01    0.3926947    0.3167903  53.44 0.0004332985    1.244    0.196
       120 -10.5596    162.2517     53.5431   6.5224879279e+01   3.7127576840e+01    0.2896853    0.1551641  65.94  0.001137422    2.088    0.521
       121 -10.7574    157.0861     44.9522   6.3301664339e+01   3.9709353568e+01    0.2929563    0.2116349  54.23 0.0004155421    1.380    0.275
       122 -11.9560     71.4394     42.3962   8.5941579280e+01   6.0177251463e+01    0.6867961    0.3612034  55.13  0.002802155    2.529    0.605
       123  -9.9052     59.0781     44.0103   9.1632133288e+01   6.1967262503e+01    0.2151493     0.171854  88.83  0.001120571    1.725    0.420
       124 -10.9556     10.0222     44.0000   1.1519592911e+02   6.7381657881e+01     0.252894    0.1812769  15.40  0.001408748    1.682    0.405
       125 -11.2764      6.3279     43.6886   1.1702510561e+02   6.7667333370e+01    0.4039105    0.2455618  82.05  0.001623055    1.881    0.468
       126 -12.0957     41.6223     37.9139   9.7198118811e+01   6.5783785401e+01     0.449736     0.346393 -11.58  0.001870312    1.507    0.336
       127 -11.8249    120.2731     34.3758   6.7184239372e+01   5.0738515853e+01    0.3315406    0.2943768  86.92  0.001269169    1.260    0.206
       128 -10.2570     49.8151     34.6261   9.1920384769e+01   6.5336588865e+01     0.356092    0.1706076  31.32   0.00154038    2.446    0.591
       129 -11.4517    101.8709     30.2094   7.0294178783e+01   5.5869293793e+01    0.9635584    0.4782642  69.17  0.003399311    3.062    0.673
       130 -10.2091     73.4765     32.2584   8.0730583509e+01   6.1706076732e+01      0.29999    0.1830911  61.35  0.001307137    2.268    0.559
       131 -10.2150     15.3367    249.3456   1.2988318419e+02   2.4442308166e+01   0.07387634   0.07132939  -3.58 0.0007048731    1.774    0.436
       132 -10.9963     36.2848     23.1107   9.3541191981e+01   6.9546593532e+01    0.3488371    0.1755151  42.03  0.001644351    2.369    0.578
       133  -9.4511    188.2739    247.9967   1.0058846841e+02   3.9522323057e+00    0.1837612    0.0825246  18.51 0.0008889082    3.378    0.704
       134  -9.6914     46.5526     16.5137   8.4667810870e+01   6.9297105914e+01     0.203546    0.1698624   8.67 0.0009603675    1.228    0.185
       135 -12.3043     22.1210    239.3709   1.2845484785e+02   2.5293862943e+01    0.5277033    0.1406185  58.65  0.002843628    2.876    0.652
       136 -11.1537    239.7790     20.6078   4.5785321522e+01   2.2091442233e+01     0.270685    0.2256671  71.28 0.0006666984    1.337    0.252
       137  -9.9109     88.9193     18.3152   6.8576754904e+01   6.0633685782e+01     0.223464    0.1860626  82.70  0.001071502    1.496    0.332
       138 -10.6556     31.4972     17.8018   9.3612536180e+01   7.1202502981e+01    0.2677031    0.2116953  15.15  0.001639742    1.380    0.276
       139  -9.9888    126.3918     15.8088   5.8061043983e+01   5.1582281449e+01    0.2113969    0.1413474  -4.24 0.0006886359    1.702    0.412
       140 -10.5210     32.4439    242.1928   1.2680132981e+02   2.3868213918e+01    0.1284978   0.06970602  71.91 0.0009432247    1.649    0.394
       141 -10.5750      7.8240    240.4087   1.3088458004e+02   2.6441921392e+01    0.1192845    0.0765105  30.54 0.0006348339    1.687    0.407
       142  -9.9110     71.7802    229.9381   1.1918097871e+02   2.1442465340e+01    0.1170168   0.08229999 -77.56 0.0008732277    1.685    0.406
       143 -11.1353     12.6644    227.3904   1.2970585315e+02   2.8034983946e+01    0.2098206    0.1187479  61.76 0.0005649402    1.278    0.218
       144  -9.9658    104.4621    225.0070   1.1273270703e+02   1.8069448712e+01    0.1369113    0.1086569 -69.73  0.001031706    1.595    0.373
       145 -10.7579     95.6325    225.1302   1.1439085844e+02   1.9208575187e+01    0.2283721    0.1025356  51.56  0.001285145    1.948    0.487
       146 -10.6360    149.3917    223.2036   1.0427722517e+02   1.2091263264e+01    0.1292461    0.1085844 -72.11  0.000953961    1.735    0.424
       147 -11.2207    226.8142    221.5767   9.0991524353e+01   1.3908487145e+00    0.1560006    0.1428286  66.41  0.001194033    2.190    0.543
