#   1 NUMBER                 Running object number                                     
#   2 MAG_AUTO               Kron-like elliptical aperture magnitude                    [mag]
#   3 X_IMAGE                Object position along x                                    [pixel]
#   4 Y_IMAGE                Object position along y                                    [pixel]
#   5 X_WORLD                Barycenter position along world x axis                     [deg]
#   6 Y_WORLD                Barycenter position along world y axis                     [deg]
#   7 A_WORLD                Profile RMS along major axis (world units)                 [deg]
#   8 B_WORLD                Profile RMS along minor axis (world units)                 [deg]
#   9 THETA_WORLD            Position angle (CCW/world-x)                               [deg]
#  10 FWHM_WORLD             FWHM assuming a gaussian core                              [deg]
#  11 ELONGATION             A_IMAGE/B_IMAGE                                           
#  12 ELLIPTICITY            1 - B_IMAGE/A_IMAGE                                       
         1 -13.9935    211.3486      3.5985   4.7443320852e+01   3.1011739279e+01       1.6002     1.295363  56.34  0.007390228    1.275    0.216
         2 -15.2253    188.8537     31.3806   5.8753933349e+01   3.3900864317e+01     3.252357     1.886652  11.47   0.01236025    2.607    0.616
         3 -10.7070    216.2660     23.4413   5.2781592932e+01   2.7685450499e+01    0.1963095    0.1368722 -88.34 0.0009423363    1.604    0.377
         4 -18.0768     30.2899    242.8212   1.3072835093e+02   2.3914134696e+01     7.183261     5.745568  49.21   0.06579668    1.510    0.338
         5 -10.2433     71.4010    229.2328   1.2356709711e+02   2.1309235876e+01    0.1672677    0.1041214  52.58  0.000497631    1.213    0.176
         6 -12.5473     57.5339    213.1088   1.2474323783e+02   2.5614240950e+01    0.2528699    0.1860996  54.55 0.0008832522    1.197    0.165
         7 -13.0082     62.5607    205.3323   1.2329424397e+02   2.6334928384e+01    0.6126302    0.4031149 -89.01  0.001797073    1.409    0.290
         8 -10.0884     61.0673    228.1523   1.2517415755e+02   2.2740795946e+01     0.151391    0.1004683  59.09  0.001155319    1.093    0.085
         9  -9.7814    161.9891    209.5508   1.0597571027e+02   1.1012334102e+01    0.1842972    0.0953228  44.67 3.472682e-05    1.565    0.361
        10 -10.7183    158.9005    205.1165   1.0591600053e+02   1.2148223597e+01    0.3553743      0.20014  67.31  0.001662827    2.997    0.666
        11  -9.8872    163.6827    204.4272   1.0497064723e+02   1.1453028691e+01    0.1742386    0.1429454 -64.59 0.0005505515    1.562    0.360
        12 -12.7960     55.0361    222.0400   1.2576292836e+02   2.4432691190e+01    0.2833436    0.1306428  61.48  0.001785107    1.776    0.437
        13 -11.0482     36.4582    223.2591   1.2884995684e+02   2.6317610489e+01    0.1649393    0.1016594  60.50 5.438317e-05    1.156    0.135
        14 -10.7017     86.0549    201.5927   1.1874069718e+02   2.3926874087e+01    0.4657743    0.1642519  59.29  0.001920457    3.585    0.721
        15 -12.2896    193.7659    193.2096   9.7956936092e+01   7.8708671937e+00    0.7290445    0.4432994 -50.86  0.003494032    2.288    0.563
        16 -11.9183    140.5607    200.0244   1.0853914381e+02   1.5930342263e+01    0.2520683    0.1992089  11.06  0.001587997    1.777    0.437
        17 -10.1618    210.0089    200.0028   9.6282416050e+01   4.2454310121e+00    0.1598544    0.1407549  66.35 0.0003635551    1.572    0.364
        18  -9.4006    175.2571    235.3568   1.0705117271e+02   5.6141467652e+00    0.1026193   0.07402404  17.35 0.0003824535    1.615    0.381
        19 -11.0711    153.6821    195.5052   1.0550897068e+02   1.4446394456e+01    0.2914694    0.1789355  60.31  0.001595727    1.805    0.446
        20 -10.4828     82.2596    195.1006   1.1880960259e+02   2.5585161012e+01    0.2653729    0.1981981  37.92  0.001450567    1.504    0.335
        21 -13.1050     71.3176    191.0897   1.2047955599e+02   2.7765728756e+01     0.574571    0.5010443  65.32  0.003492661    1.211    0.174
        22 -12.3138     69.1532    218.1839   1.2313489532e+02   2.3351685553e+01    0.2187385    0.1546238  70.70  0.000490858    1.130    0.115
        23 -11.5448     48.2682    217.3622   1.2658600288e+02   2.5982172502e+01     0.259598      0.14781  44.73   0.00113317    1.540    0.351
        24  -9.6483     59.1360    187.8638   1.2249084481e+02   2.9894799709e+01     0.201478    0.1621506 -29.07  0.001336014    2.291    0.563
        25 -10.2987    166.9430    187.6510   1.0188474086e+02   1.3354054846e+01    0.2121282     0.185138 -59.35 0.0006717953    1.381    0.276
        26 -11.9639     74.0662    213.4794   1.2192612841e+02   2.3504424082e+01    0.2207679    0.1485106  70.94 0.0003292888    1.246    0.198
        27 -10.3046     29.6379    193.0650   1.2829546730e+02   3.2237861407e+01    0.1737832   0.09677316  50.29 0.0008383218    1.492    0.330
        28 -11.6852    110.6703    182.8904   1.1196664607e+02   2.3617264808e+01     0.211341    0.1562753  40.92  0.001066132    1.342    0.255
        29 -11.1774    205.7722    180.5916   9.3708857806e+01   7.4369873375e+00    0.3658873    0.2256825  46.25  0.001502329    1.503    0.335
        30 -10.8985    209.0015    178.7428   9.2816079375e+01   7.1046324900e+00    0.2999233    0.2217313  30.54  0.001826203    1.177    0.150
        31 -11.3813     99.5678    180.7037   1.1388289485e+02   2.5721337402e+01    0.2248288    0.1958918  57.22 0.0005755837    1.137    0.120
        32 -11.6798    143.7975    178.8888   1.0490528358e+02   1.8818707439e+01    0.3058349    0.1624109  48.91  0.001545294    1.678    0.404
        33 -11.6108    195.7394    169.3895   9.3451361893e+01   1.0831904339e+01    0.4102847    0.3359296 -41.87  0.001619971    1.414    0.293
        34 -10.1472    192.7991    163.7455   9.2922778086e+01   1.2220768870e+01    0.2626221    0.2307189 -52.05  0.001092008    1.379    0.275
        35  -9.5319     38.8530    171.1331   1.2502408220e+02   3.5433120460e+01     0.131454    0.1179254  71.52 0.0003088542    1.300    0.231
        36 -11.0894    146.1598    167.9762   1.0268426104e+02   2.0276297594e+01    0.2298969    0.1896917 -20.66  0.001356583    1.561    0.359
        37 -10.9380     74.3403    181.7878   1.1898814526e+02   2.9097390176e+01    0.2910108       0.2246  68.56  0.001303972    1.052    0.050
        38 -11.2723     76.9782    208.1409   1.2097082855e+02   2.4022999480e+01    0.2756436    0.2526502  65.31  0.001486639    1.339    0.253
        39 -12.5975     97.7507    155.1328   1.1080162463e+02   3.0955409174e+01    0.5713373     0.405503 -38.69   0.00314836    1.938    0.484
        40  -9.9974    140.2066    156.9061   1.0199307565e+02   2.3351946625e+01    0.1929277    0.1674801  75.48  0.000276847    1.184    0.156
        41 -10.4814    189.6944    155.2155   9.1832508861e+01   1.4128510265e+01    0.2908725    0.2322547  89.29  0.001553862    1.867    0.464
        42 -10.7471    164.5453    152.4827   9.6181868372e+01   1.9519516999e+01    0.3049068     0.210942  85.49  0.001386611    2.435    0.589
        43 -11.8627    133.8195    144.1707   1.0101939258e+02   2.6950902621e+01    0.8379707    0.2652293 -55.76  0.002662513    4.238    0.764
        44 -10.6519    174.5979    149.0477   9.3497551841e+01   1.8121716714e+01    0.2576379    0.2268874  55.46 0.0008465656    1.157    0.136
        45 -11.9651    145.3073    146.5845   9.9009605859e+01   2.4315566380e+01    0.4214403    0.2854835  67.10  0.002065623    1.789    0.441
        46 -12.5759     97.1533    140.5230   1.0863377731e+02   3.4067563161e+01    0.3243408    0.2611224  83.43 0.0004802035    1.212    0.175
        47 -11.9989    108.6435    140.2332   1.0593407929e+02   3.2238463144e+01    0.4810266    0.3271901 -36.42  0.002436101    1.949    0.487
        48 -11.0446    141.9127    138.6649   9.8174179215e+01   2.6476662864e+01    0.2366161    0.1951721 -35.96  0.000659328    1.346    0.257
        49 -11.1897    106.0891    130.8915   1.0482039661e+02   3.4630630931e+01    0.3339232    0.2734749 -76.55   0.00126475    1.202    0.168
        50 -11.4588    103.3142    126.7452   1.0469423880e+02   3.5985541443e+01    0.2832975    0.2357479 -48.19 0.0006234606    1.282    0.220
        51 -12.2839    116.7002    129.9129   1.0212164132e+02   3.2974506225e+01    0.5352547    0.3747208  28.36  0.001905567    1.800    0.444
        52 -11.9430    136.1933    122.6458   9.6050723889e+01   3.0760608702e+01    0.5193534    0.2779417 -50.94  0.001739727    1.923    0.480
        53 -11.8944    120.2675    124.5410   1.0018040612e+02   3.3440818537e+01    0.6487181    0.3109295 -31.82  0.002057241    4.441    0.775
        54 -10.6286    110.8876    119.3248   1.0134198073e+02   3.6254116672e+01    0.2423501    0.1954578 -50.61 0.0004654386    1.242    0.195
        55 -10.4443    168.2159    112.9491   8.6690576103e+01   2.5859048655e+01    0.3140379      0.24898 -68.02  0.001133411    1.550    0.355
        56 -10.6392    160.5318    127.6277   9.1795330082e+01   2.4805588989e+01    0.3465042    0.2339261 -60.61  0.001609041    1.836    0.455
        57 -11.8207    119.8278    110.2995   9.7122312014e+01   3.6511534175e+01    0.5163292    0.2509721  57.42  0.001967618    2.629    0.620
        58 -10.2923    205.6491    110.1186   7.8693932149e+01   1.7954352280e+01    0.2745515    0.2058859  40.26 0.0006481751    1.327    0.246
        59  -9.7779    128.9918     95.4826   9.1130411908e+01   3.7762839294e+01    0.2245336    0.1461637  52.30  0.001019718    1.608    0.378
        60  -9.9112     41.8464     91.8663   1.1465769975e+02   5.2303967004e+01     0.179873    0.1481586 -59.03 0.0004451716    1.149    0.129
        61  -9.9113     52.0448     90.5288   1.1134791783e+02   5.1494947637e+01    0.1752651    0.1282576  37.43  0.001029611    1.587    0.370
        62  -9.4108    152.7018     79.7036   8.1010315901e+01   3.5571608754e+01    0.1531389    0.1204111  11.42 0.0003288365    1.571    0.363
        63  -9.5774     54.6667     77.7021   1.0773546693e+02   5.4091852489e+01    0.1306408   0.09215332 -33.84 0.0007030697    1.647    0.393
        64 -12.0175    168.1377     68.0066   7.4135551582e+01   3.3889401205e+01    0.6680607    0.4049593 -73.80   0.00167733    3.148    0.682
        65  -9.2979     95.6539     63.3052   9.0713301494e+01   5.0951996074e+01    0.1432429    0.1129982 -83.58 0.0007041803    1.694    0.410
        66  -8.9641    168.2843    248.2804   1.0965994170e+02   5.1786062227e+00   0.09894478   0.06752294  26.47 0.0001724169    1.516    0.340
        67 -13.8176    174.2218     46.1973   6.5977041524e+01   3.5754467857e+01    0.8295628    0.7170545  18.06  0.001192402    1.239    0.193
        68 -19.1681     18.0900    104.6165   1.2334204589e+02   5.1545624779e+01     15.71559     0.771444 -71.67   0.02931265   14.434    0.931
