#   1 NUMBER                 Running object number                                     
#   2 MAG_AUTO               Kron-like elliptical aperture magnitude                    [mag]
#   3 X_IMAGE                Object position along x                                    [pixel]
#   4 Y_IMAGE                Object position along y                                    [pixel]
#   5 X_WORLD                Barycenter position along world x axis                     [deg]
#   6 Y_WORLD                Barycenter position along world y axis                     [deg]
#   7 A_WORLD                Profile RMS along major axis (world units)                 [deg]
#   8 B_WORLD                Profile RMS along minor axis (world units)                 [deg]
#   9 THETA_WORLD            Position angle (CCW/world-x)                               [deg]
#  10 FWHM_WORLD             FWHM assuming a gaussian core                              [deg]
#  11 ELONGATION             A_IMAGE/B_IMAGE                                           
#  12 ELLIPTICITY            1 - B_IMAGE/A_IMAGE                                       
         1  99.0000     28.5115     29.0969   6.7323342065e+01   6.6918494905e+01     2.040025    0.3873278 -44.27  0.007513713    4.030    0.752
         2 -12.7966     58.6673     61.8965   6.6006131964e+01   5.7441407756e+01     1.463945    0.8748287 -69.12  0.006882828    2.397    0.583
         3 -14.7102     27.6279     64.6351   7.7988510601e+01   6.0181045508e+01     1.748801     1.191733  71.03   0.01005428    2.171    0.539
         4 -14.3866     12.5320     35.8412   7.6512082926e+01   6.6961221568e+01     2.284327     1.217434 -13.73  0.004935315    2.326    0.570
         5 -13.8779     58.0142     36.8686   5.8001440242e+01   6.2175614275e+01     1.585322     1.307014  47.51   0.01012765    1.502    0.334
         6 -12.8400     80.9581     22.9745   4.4329512275e+01   6.0626693643e+01     0.983344    0.3591343  39.55  0.003984806    2.802    0.643
         7 -12.9385     72.3122     23.0522   4.7318929747e+01   6.2130267861e+01     1.185474     0.554909  38.74  0.004840275    2.110    0.526
         8 -13.1432    207.7260     44.2573   2.3591568741e+01   2.7330030518e+01     2.173936    0.8723329 -54.72  0.007396818    3.146    0.682
         9 -12.0492    148.8327     24.5673   2.7537114561e+01   4.5299487065e+01    0.9284684    0.4736879  30.20  0.002502407    3.143    0.682
        10 -12.3302    161.7123     22.1091   2.4416947932e+01   4.2298319593e+01    0.9261147     0.483046  57.71  0.003096118    1.695    0.410
        11 -11.3256    160.3035     14.3229   2.2227541558e+01   4.3564415924e+01    0.3174165    0.2095343 -51.77            0    1.666    0.400
        12 -13.8674    193.3858     54.4732   2.8529507583e+01   2.9491645492e+01     2.657694     1.404043 -21.61   0.01003088    2.701    0.630
        13 -13.0959    197.5180     37.5964   2.3277117441e+01   3.0916385407e+01     1.468556    0.7498004 -28.97  0.006147689    2.210    0.548
        14 -12.9669    187.1951     35.8522   2.4342022141e+01   3.3853990990e+01     1.204451    0.8465568 -73.58  0.005827685    1.543    0.352
        15 -13.6907    231.1480     47.5589   2.1328135118e+01   2.0995904157e+01     2.159131     1.377053 -69.73  0.008021004    1.669    0.401
        16 -12.2480    130.1627     45.9987   3.8756082694e+01   4.6885615001e+01     1.216853      1.07643  70.00  0.006706706    1.162    0.140
        17 -13.2066    142.5338     60.4244   4.0408731263e+01   4.1528970244e+01      1.65039     1.054258 -84.30  0.005721719    2.668    0.625
        18 -13.1133    160.4917     39.3050   2.9973965217e+01   4.0342457917e+01     1.524244     1.023256  36.63  0.006050138    1.739    0.425
        19 -11.6566     76.6669     15.1907   4.2534446895e+01   6.2422468686e+01    0.4193546    0.2729149 -54.21 0.0008871013    2.409    0.585
        20 -13.7288     37.9115     56.1591   7.1987051943e+01   6.0973161947e+01     1.380841    0.8639791 -42.25  0.008138914    1.389    0.280
        21 -13.3533      3.7154     53.4734   8.4467962461e+01   6.4049238779e+01     1.086508    0.4841315 -67.99  0.006009717    1.941    0.485
        22 -12.9806    173.8708     41.6668   2.8223011341e+01   3.6522681141e+01    0.9588256    0.6382564 -10.07  0.001539581    2.169    0.539
        23 -13.3807     67.1654      8.8317   4.3058118693e+01   6.4849984534e+01     2.177988     1.225613  26.18   0.01162517    1.884    0.469
        24 -12.2410    218.8681     30.0577   1.8504061608e+01   2.6475221170e+01    0.4969017    0.4552945  79.07  0.001633301    1.147    0.128
        25 -11.4946    209.6757     21.4898   1.7418190809e+01   2.9905914614e+01    0.3654921    0.2787592 -17.82  0.001264413    1.678    0.404
        26 -10.9658    139.2313     17.3689   2.7015325775e+01   4.8563455503e+01    0.2734877    0.2303588 -35.50 0.0009490074    1.301    0.232
        27  99.0000    153.6401     14.0937   2.3268659023e+01   4.5300310786e+01    0.5502345    0.2690592  52.27  0.001645337    1.844    0.458
        28 -10.8971    221.6517     11.7349   1.3686209382e+01   2.8069269771e+01    0.2730795    0.2328008 -59.55 0.0006502824    1.142    0.124
        29 -10.8467    179.8999     12.3565   1.8715907757e+01   3.8692323140e+01    0.2603208    0.1944605 -79.31    0.0013856    1.331    0.249
        30 -10.0148    134.6855     12.8211   2.6356048103e+01   5.0186506833e+01    0.2715849    0.1786869  40.09  0.001376963    1.523    0.344
        31 -11.3542    115.5601     10.0825   2.9487592967e+01   5.5010012514e+01    0.4553961    0.3062077 -20.64  0.001636801    1.634    0.388
        32 -10.3191     88.4877     11.4713   3.7208513285e+01   6.0643299110e+01    0.2147885    0.2052844 -47.86 0.0007782037    1.295    0.228
        33 -11.2190     84.8227      7.6248   3.6689245686e+01   6.1788321111e+01    0.3180353    0.2013567 -26.00  0.001088208    1.625    0.385
        34 -11.8517    245.9251     10.1186   1.1113983767e+01   2.2424339123e+01    0.2490589    0.1689071 -79.98 0.0004001354    1.296    0.229
        35 -11.9748    241.8540      8.1008   1.1004573048e+01   2.3612749783e+01    0.3802148    0.2171134 -76.25  0.001749851    1.672    0.402
        36  -9.7110    129.6729     10.8720   2.6687670547e+01   5.1610547943e+01    0.1831413    0.1179188 -37.71 0.0007108846    1.714    0.416
        37 -10.5036    227.5784      9.4509   1.2570962337e+01   2.6876695388e+01    0.2295525    0.2122236  23.37 0.0008453884    1.487    0.327
        38 -11.2286     26.0843      9.8202   6.0825327418e+01   7.0249142498e+01    0.2045719    0.1479476   2.33 0.0003604767    1.299    0.230
        39  -9.6625    233.9845      9.5746   1.2016304237e+01   2.5310001863e+01    0.1836125    0.1144337  81.37 4.695543e-05    1.450    0.310
        40  -9.4919    168.5157      9.5692   1.9505183350e+01   4.1954549223e+01    0.1409147    0.1219306  74.85 0.0002069511    1.012    0.012
        41 -11.0224     48.0306      8.2192   5.0202617818e+01   6.7859970717e+01    0.2442638    0.2043225 -14.19  0.001102258    1.124    0.110
        42 -10.4960    193.7778      7.6694   1.5654974478e+01   3.5603629425e+01    0.2956127    0.1796139  49.28 0.0009644714    1.787    0.441
        43 -10.2950    147.3090      9.8347   2.2981219037e+01   4.7362285774e+01    0.4255694    0.2818958 -63.43  0.001888044    1.838    0.456
        44  -9.4860    132.7018      7.9950   2.5061574613e+01   5.1172313504e+01    0.1404262    0.1243763 -16.28 0.0003265353    1.264    0.209
        45 -11.1323    108.5493      4.4097   2.8955515836e+01   5.7163451330e+01    0.3789315    0.2679054  70.82 0.0007599919    1.552    0.356
        46 -11.0583    100.8789      5.9288   3.1468087005e+01   5.8688114061e+01    0.3398623    0.3022259   3.44  0.002198178    1.140    0.123
        47 -10.2925      3.0871      6.6960   7.1193223669e+01   7.2581637087e+01     0.224068      0.14188   2.85  0.001371019    1.625    0.385
        48  -9.5653    233.3468      5.8439   1.1215507673e+01   2.5894331192e+01    0.1623622    0.1242797 -21.74 0.0008233084    1.680    0.405
        49  -8.9882    173.3033      6.6358   1.7957854659e+01   4.1019521387e+01    0.1478222   0.09426316 -65.77 0.0007036412    1.734    0.423
        50 -10.3177    211.9307      5.0262   1.3006461947e+01   3.1259303940e+01    0.2750109    0.1581571 -74.19  0.001323757    1.760    0.432
        51  -9.4006    208.6116      2.4433   1.2691500474e+01   3.2374448372e+01    0.1807784    0.1508249 -74.84 0.0001185029    1.071    0.066
        52  -9.3805    188.7542      4.0077   1.5251998680e+01   3.7288228678e+01    0.1385311    0.1157793 -40.63 0.0007995227    1.314    0.239
        53 -11.2559    183.3011      3.8918   1.5875614156e+01   3.8709829343e+01    0.2318145     0.186833  85.82 0.0003877369    1.083    0.077
        54 -11.2324     88.3026      2.8471   3.3614375774e+01   6.1600339938e+01    0.2899417    0.1912519  14.79 0.0009392811    1.636    0.389
        55 -10.9135     85.2842      1.3462   3.3840849622e+01   6.2346899356e+01    0.2291398    0.1437028  35.86 0.0006673034    1.439    0.305
        56  -9.4968    217.7995      2.9168   1.1922071425e+01   3.0022014287e+01    0.1450033    0.1039402 -33.48 0.0003036014    1.542    0.351
        57 -11.2605     46.2152      2.1762   4.8113922915e+01   6.8869673584e+01    0.2223895    0.1751936  12.84  0.001089813    1.106    0.096
        58 -10.2958    154.6270      2.1708   1.9300330514e+01   4.6264774323e+01     0.260453    0.1681619  63.67 0.0006273126    1.326    0.246
        59  -9.3790    126.5545      1.5483   2.3971215307e+01   5.3270838749e+01    0.1333751    0.1157134  52.25 0.0001012511    1.012    0.012
        60  -9.6805     27.4901     95.5294   8.4179833491e+01   5.3503121381e+01    0.1223323    0.1006931 -66.98 0.0001160802    1.012    0.011
        61 -10.9461    248.5838    249.8703   6.0237168410e+01  -1.2388129958e+01    0.1924444    0.1064048  38.23  0.001218078    1.521    0.343
        62 -11.0385    228.9778    249.3968   6.3425465714e+01  -9.4829818436e+00    0.1893526     0.156712  -4.29 0.0003526678    1.285    0.222
        63 -12.7413     37.4298    249.1151   9.6809626268e+01   2.0041926612e+01    0.6222233    0.2227971  41.11  0.003399255    2.464    0.594
        64 -12.4479    188.9026     93.5260   3.9832407754e+01   2.3885794986e+01    0.4477691    0.3272596  65.71  0.001222761    1.404    0.288
        65 -11.8236    183.4733     91.7222   4.0436986881e+01   2.5576949769e+01    0.5136377    0.3378424  24.76  0.001837172    2.368    0.578
        66 -10.1049     68.3240     94.5664   7.1302712327e+01   4.9155203032e+01    0.2238442    0.1284988  41.37 0.0004843631    1.874    0.466
        67 -11.7120     95.9322     89.5795   6.1676028921e+01   4.5820402373e+01    0.5489482    0.3811938  75.39 0.0006985491    2.045    0.511
        68 -11.4795     48.5288     85.4610   7.5530530096e+01   5.3683768184e+01    0.2573829    0.2231843  71.37 0.0006782967    1.302    0.232
        69 -12.7561     52.6138     89.7899   7.5165768268e+01   5.2253839894e+01    0.3875584    0.3579791 -81.09 0.0009866906    1.102    0.093
        70 -12.2787     53.0295     86.3135   7.4257458079e+01   5.2976312457e+01    0.4654743    0.2629983   8.61  0.001736762    3.083    0.676
        71 -10.9902     10.6765     92.5842   8.8862378318e+01   5.5407607145e+01    0.1807681     0.116793   7.10  0.001123718    2.124    0.529
        72 -11.6275    174.0465     89.7081   4.1837552697e+01   2.8314441411e+01    0.4612998    0.4013038 -55.97  0.001245514    1.157    0.136
        73 -12.0848    176.1362     85.6172   4.0298267232e+01   2.8562583928e+01    0.8523597    0.4820899  33.17  0.001989519    2.617    0.618
        74 -11.3163     61.8465     90.5041   7.2391822318e+01   5.0944571092e+01    0.2551048     0.175019 -57.00  0.000770381    1.306    0.234
        75 -10.0280      1.9754     91.3213   9.1316591391e+01   5.6202256112e+01    0.1541232    0.1277272 -74.97 0.0008985429    1.075    0.070
        76 -10.1649    166.3129     89.5808   4.3462070193e+01   3.0264689224e+01    0.3185536    0.2365833  89.26 0.0007568363    1.666    0.400
        77 -12.1318    162.7211     83.9906   4.2715079342e+01   3.2231071499e+01    0.6008178    0.4500267  60.25  0.001834239    1.312    0.238
        78 -12.1147    169.3091     79.8402   4.0135030031e+01   3.1359399588e+01    0.5962462    0.5058684 -86.18  0.002395227    1.251    0.200
        79 -13.7267     41.6968     79.0572   7.6366462888e+01   5.5817393558e+01     1.750257    0.4247795 -50.21  0.006432525    3.296    0.697
        80 -10.5969    155.0047    248.9698   7.6373759342e+01   2.5186220427e+00    0.1473962    0.1192294  49.23  0.001012427    1.065    0.061
        81 -12.8852     66.9581     82.9897   6.8943671674e+01   5.1908367769e+01    0.7920942    0.5430106  85.63   0.00246023    2.204    0.546
        82 -11.9495     24.7981     43.5289   7.3562284071e+01   6.4617494478e+01    0.6315075    0.3868138 -26.14  0.003068842    1.683    0.406
        83 -13.4938     55.4669     71.6603   6.9850371637e+01   5.5843998170e+01    0.8317944    0.5841705 -64.96  0.002110105    1.475    0.322
        84 -11.3742     12.9376    248.3399   1.0061523400e+02   2.2974230747e+01     0.186442    0.1209166 -88.56  0.001358517    1.379    0.275
        85 -14.1800      8.8972     68.9558   8.5597920177e+01   6.0591813195e+01     1.065336    0.7957108  89.79  0.007329749    1.459    0.315
        86 -11.0172    214.5683    246.6786   6.5493287028e+01  -6.9536661349e+00     0.183596    0.1112348 -28.73  0.001122542    2.022    0.505
        87 -11.6235    112.7043    247.3322   8.3802987456e+01   9.7042936134e+00    0.3529796    0.1636159 -50.66  0.001822566    3.044    0.671
        88 -13.3082     51.4645     45.0387   6.3383299826e+01   6.1593620325e+01    0.9056928    0.5735126  16.84  0.005028948    1.859    0.462
        89 -10.8971    235.1878    244.3952   6.1632648185e+01  -9.8571596158e+00    0.1577069   0.09006062  44.08 0.0003715664    1.655    0.396
        90 -11.7631    227.5302    242.5088   6.2646822609e+01  -8.4811468546e+00    0.2401951    0.2027569  59.01  0.001687325    1.678    0.404
        91 -12.1540    244.2544    242.7728   5.9869141561e+01  -1.1017373110e+01    0.2711949    0.1503715  29.41  0.001667329    1.480    0.324
        92 -12.9232     75.2729     42.2669   5.3671172296e+01   5.8644432374e+01     0.628575    0.4123752  25.01  0.001325389    1.687    0.407
        93 -13.2601     81.8236     40.2138   5.0689217765e+01   5.7873712299e+01    0.9322151    0.5428336 -42.51  0.004684068    1.730    0.422
        94 -11.5387    148.2535     85.2881   4.6404607320e+01   3.5522772383e+01    0.7332314    0.4896456  88.36  0.002890475    2.282    0.562
        95 -11.0099    148.5198     81.1120   4.5156410509e+01   3.6273358243e+01    0.4700391    0.3241647 -77.39  0.001101461    2.029    0.507
        96 -13.6524    196.1397     84.2905   3.6050693860e+01   2.3764350424e+01    0.9870723    0.7913154 -16.85  0.003551984    1.535    0.349
        97 -13.9717    220.9295     73.8734   2.9226071654e+01   1.9398936042e+01     2.500169     1.915107  38.46   0.01252284    1.576    0.365
        98 -11.2346    180.1436    242.8707   7.1055539659e+01  -8.3834285702e-01    0.1880779    0.1445644  53.53 0.0007698113    1.263    0.208
        99 -12.5216    185.3821     48.1064   2.8094531903e+01   3.2556548681e+01    0.8078052    0.5511342 -80.26  0.001252558    1.718    0.418
       100 -11.2216    148.2722     40.2350   3.2729163038e+01   4.3326564962e+01    0.9623759    0.3770888 -44.29  0.002507071    2.817    0.645
       101 -11.6907    219.4018    240.4136   6.3732033129e+01  -6.9645238974e+00    0.3477811    0.2444736  37.15  0.002299917    1.168    0.144
       102 -11.7685      3.0799    248.3378   1.0210664544e+02   2.4005600771e+01    0.3549564    0.1784647  80.44  0.002556949    1.468    0.319
       103 -10.8461     15.8243    238.4295   9.9723197850e+01   2.4394966907e+01     0.187922    0.1119372  88.74 0.0005868212    1.363    0.266
       104 -11.2786    127.7822     58.8239   4.3549294258e+01   4.5310735991e+01    0.6613487    0.3852763  33.65   0.00247896    2.127    0.530
       105 -13.8388    192.0565     68.6432   3.2622368427e+01   2.7527488439e+01     1.314427    0.6119439 -33.46  0.004493587    2.308    0.567
       106 -10.6134    159.8733    219.7424   7.1627235661e+01   6.2045311504e+00    0.1965417    0.1796914  82.66 0.0003172728    1.230    0.187
       107 -10.7599    152.7922    124.0240   5.5343912512e+01   2.6420417990e+01    0.2627827    0.2143906  62.97            0    1.216    0.177
       108  -9.7753    223.4880    122.4903   4.0498084686e+01   1.0413787581e+01    0.2308966    0.1821886  13.50 0.0008708966    1.582    0.368
       109 -11.9285    162.1430     55.0045   3.4432769182e+01   3.7517604804e+01     1.088021    0.5916919 -39.59  0.004545104    1.884    0.469
       110 -13.0771    173.5473     53.9743   3.1890060452e+01   3.4734997440e+01    0.8686928    0.4746737  57.00  0.003647341    1.716    0.417
       111 -12.1527    137.7627     87.7328   4.9665376062e+01   3.7509522208e+01    0.5517547    0.3346676  55.31  0.002336963    1.672    0.402
       112 -12.3556    139.4513     80.6428   4.7225582423e+01   3.8529133698e+01    0.5878104    0.4057249  52.54  0.000472634    1.419    0.295
       113 -14.1208    203.9863     69.8873   3.0903416629e+01   2.4274203656e+01     1.199081    0.9269452 -52.23  0.004939871    1.267    0.211
       114 -13.1872    209.7184     60.2617   2.7476962254e+01   2.4387879205e+01     1.026691      0.66777 -89.04  0.002608837    1.831    0.454
       115  -9.9115    164.4713    118.8949   5.1428759539e+01   2.4803430249e+01    0.2377349    0.1975978  53.50 0.0002892916    1.165    0.142
       116 -13.5373    140.6792     71.2653   4.4162590330e+01   4.0029507119e+01     1.826665    0.9558243  41.12  0.007114821    2.104    0.525
       117 -10.2823    204.5587    116.5185   4.2544735485e+01   1.5799806459e+01    0.2690186    0.2473788  61.43 0.0007559841    1.085    0.078
       118  -9.9888    156.0832    115.8593   5.2607646511e+01   2.7395387477e+01    0.2443479    0.2092372  86.22 0.0005039179    1.245    0.197
       119 -10.9766     90.8838    115.9154   6.9443923731e+01   4.0770667947e+01    0.2208536    0.2058053 -85.13 0.0002595976    1.017    0.017
       120 -11.7507    237.6940     86.1817   2.9709767866e+01   1.3417102282e+01    0.3463832    0.2440601  73.47 0.0007875392    1.575    0.365
       121  -9.7684    232.7825     86.0069   3.0394360394e+01   1.4573842259e+01    0.2096661    0.1990472  -0.31 0.0005311422    1.218    0.179
       122 -11.9369      5.5674     84.9072   8.9324838164e+01   5.7387272333e+01    0.4628753    0.1140853 -66.50  0.001980971    2.813    0.645
       123 -11.5056    133.3620    111.7049   5.7103930469e+01   3.3428188734e+01     0.330177    0.2922859 -75.43  0.001177643    1.144    0.126
       124 -12.1819    212.9248     83.6474   3.2951405708e+01   1.9709739361e+01    0.4691584     0.265907  45.97  0.001338704    1.945    0.486
       125 -12.1014     90.6841     51.4719   5.1773330473e+01   5.4357407774e+01    0.4526271    0.3148136 -19.10 0.0004456255    1.688    0.407
       126 -11.3194    103.0775     67.0231   5.3030583934e+01   4.9109209216e+01    0.3466827    0.2393136  37.89  0.000429536    1.504    0.335
       127 -10.3410     97.9403     81.0688   5.8743795707e+01   4.7266296428e+01    0.4262177    0.3159328 -18.39  0.001576618    1.761    0.432
       128 -10.9313     95.7071     74.5552   5.7536157660e+01   4.9024791267e+01    0.4273787    0.2817058 -62.97  0.001536508    1.835    0.455
       129 -11.8839    104.3002     74.9804   5.5090454790e+01   4.7299054448e+01    0.4886583    0.3577332  20.58 0.0006279217    1.729    0.422
       130 -11.0301    100.1295     74.4374   5.6166134349e+01   4.8217525222e+01    0.3619729    0.2667366 -31.31 -7.435679e-08    1.467    0.318
       131 -11.1532     96.8941     69.8552   5.5765864990e+01   4.9747318266e+01    0.3149883    0.2458178  28.54 0.0005514697    1.398    0.285
       132 -12.2624     95.0485     65.1705   5.4884865502e+01   5.1009325511e+01    0.6693253    0.4657483  43.77  0.003407417    1.472    0.321
       133 -11.3994     93.6498     59.9463   5.3654976939e+01   5.2263794669e+01    0.3542181    0.2728784 -58.58  0.001043199    1.475    0.322
       134 -10.6189     81.9586     79.3344   6.3174088708e+01   5.0423629601e+01    0.2457937    0.2183062 -26.29 0.0004069123    1.174    0.148
       135 -12.0968     87.7489     73.5657   5.9708226782e+01   5.0651446970e+01    0.6456493    0.3684148 -34.53  0.002248981    1.980    0.495
       136 -10.8537     96.5031    110.9824   6.6784618995e+01   4.0932072356e+01    0.4254677    0.2159962 -42.65  0.001498205    2.215    0.548
       137  -9.4755    201.9312    110.1419   4.1503548947e+01   1.7605530691e+01    0.3478537    0.1935285 -64.29  0.001220093    2.871    0.652
       138 -10.5421     24.1381     86.6178   8.3689527004e+01   5.5753154695e+01    0.2231647    0.1405329 -74.54  0.001310638    1.452    0.311
       139 -10.8287    155.0766     76.8676   4.2413575214e+01   3.5475359964e+01    0.4300615    0.2874039  40.63  0.001880608    1.623    0.384
       140 -10.5737    114.7693     56.1312   4.6162360439e+01   4.8693675947e+01    0.4600688    0.2456344  62.78  0.001798326    2.503    0.601
       141 -12.1475    108.8146     66.7916   5.1276617710e+01   4.7997510335e+01     1.157276    0.6434939 -68.49   0.00376002    4.075    0.755
       142 -12.7471    121.1953     67.8255   4.8131519956e+01   4.5162311922e+01      1.19911    0.7669017  85.32  0.004239216    2.992    0.666
       143 -12.7508    116.3391     63.0664   4.7969698838e+01   4.7108332323e+01     0.707113    0.6411386  27.52  0.002611275    1.136    0.120
       144 -10.9494     71.6406     71.4115   6.4299139854e+01   5.3691102523e+01    0.3293813     0.227234  47.94  0.001451602    1.641    0.391
       145 -10.0464    244.0174     75.2580   2.6261602259e+01   1.3738857591e+01    0.1923401    0.1723688 -88.65            0    1.112    0.101
       146 -11.8833    114.5017     80.5101   5.3786178099e+01   4.4110066363e+01    0.4684935    0.3472032  40.26  0.002056406    1.392    0.281
       147 -10.8483     66.4236     74.6684   6.6941603382e+01   5.3765437242e+01    0.3276457    0.1809949  33.15  0.001585928    2.005    0.501
       148 -10.2121    250.2190     73.3513   2.5009793002e+01   1.2646783089e+01    0.3300987    0.1339458 -41.61   0.00134184    2.165    0.538
       149 -13.3848    177.2416     70.4502   3.5890373129e+01   3.1026968976e+01     1.375371    0.8097828  74.68  0.005417289    2.102    0.524
       150 -12.2035    161.1952     67.0968   3.8220469973e+01   3.5715295939e+01    0.6966797    0.3487387 -44.36 0.0002308107    2.053    0.513
       151 -11.5731    165.5364     64.7568   3.6621559950e+01   3.5016929604e+01    0.4864532    0.3864521 -64.93  0.001126665    1.356    0.263
       152 -11.2993     73.0466     75.5009   6.4981426440e+01   5.2628507014e+01    0.3361672    0.2342567 -53.18  0.001184598    1.351    0.260
       153 -11.0458     80.1450     72.3399   6.1775908820e+01   5.2177450352e+01    0.4006087    0.2668571  45.84  0.001800431    1.626    0.385
       154 -10.2889    216.8939    109.1920   3.8542693123e+01   1.4263440546e+01    0.2532795    0.2037003 -43.48 0.0005419376    1.214    0.176
       155  -9.9569    250.1434     67.7740   2.3740520945e+01   1.3523825026e+01    0.2452528    0.1841809  -0.96  0.001225971    2.022    0.506
       156 -10.0649    181.8666     61.6258   3.2529959070e+01   3.1332592706e+01    0.2386983    0.2178668 -25.75 0.0006296658    1.233    0.189
       157 -10.7746     65.5733    110.2310   7.5471199366e+01   4.5955261464e+01    0.1963938    0.1125941 -51.73 0.0009483023    1.638    0.389
       158 -10.4611    249.3864     56.4370   2.1231648712e+01   1.5402811420e+01    0.3342834    0.2234468  53.84  0.001736885    1.678    0.404
       159 -11.5766    101.5185     53.4556   4.9098303250e+01   5.1923478300e+01    0.5992878    0.2426034  41.75  0.001646119    2.550    0.608
       160  -9.9488    108.7568     56.4633   4.7974003108e+01   4.9913286405e+01    0.2730618    0.1958704 -37.61  0.001372078    1.406    0.289
       161 -11.0020    205.5576     51.7143   2.5869806403e+01   2.6775863276e+01    0.3983271    0.2485336  88.74  0.001731058    1.886    0.470
       162  -9.1636    111.3129     52.3300   4.5867106318e+01   5.0094959793e+01    0.1469147    0.1107215  10.57 0.0007043831    1.674    0.402
       163 -10.4439    250.2683     49.8429   1.9624308740e+01   1.6166940098e+01    0.2418562    0.1594254 -52.84  0.001269897    1.357    0.263
       164  -9.8330     29.4308     50.2817   7.3626087520e+01   6.2924113514e+01    0.1578078    0.1026448 -63.24 0.0009380028    1.557    0.358
       165  -9.6825    143.1575     45.8347   3.5645915273e+01   4.3764409712e+01    0.4725257    0.2492613  31.20  0.001687707    2.967    0.663
       166  -9.7881     97.2034     39.3314   4.5454583385e+01   5.5134942292e+01    0.3587971    0.2522962  -1.62  0.001138794    1.814    0.449
       167  -7.2024    101.3464     40.2974   4.4562652867e+01   5.4149348768e+01    0.2829655     0.195688  -4.35 0.0007733427    1.887    0.470
       168 -10.9789    100.6283     46.6808   4.7041194823e+01   5.3262368068e+01    0.4796497    0.2328941  44.35  0.002069538    2.028    0.507
       169 -10.3881    104.2011     43.4030   4.4832097178e+01   5.3070150686e+01    0.4658591    0.1306928  51.43  0.001480777    3.717    0.731
       170  -9.7299     33.6007     43.7061   7.0019632650e+01   6.3803745712e+01    0.2399248    0.1652376   9.08  0.001501493    1.650    0.394
       171 -10.4450    247.7890     41.9848   1.8102295659e+01   1.7853734979e+01    0.4129885    0.1483054 -48.22  0.001519691    2.545    0.607
       172 -10.4253    112.7022     39.1249   4.0916432222e+01   5.1926323002e+01    0.3177437     0.221042  -1.15  0.001392944    1.915    0.478
       173 -10.3832    112.0229     33.5100   3.9088142015e+01   5.2901829991e+01    0.4008727    0.1984712 -23.92  0.001655679    2.455    0.593
       174  -9.1095    119.2727     39.2596   3.9213651434e+01   5.0441751119e+01    0.1367312    0.1046396  23.40 0.0003370669    1.463    0.316
       175 -11.3064    232.6414     35.6279   1.8277287624e+01   2.2321509146e+01    0.3870144    0.2079102 -61.89 0.0006949693    1.963    0.491
       176 -12.1378     92.6005     32.2638   4.4241058774e+01   5.7115094745e+01    0.5092149    0.3229837 -15.63  0.002511551    1.887    0.470
       177 -12.3603    154.0901     61.8756   3.8213427672e+01   3.8416274673e+01      1.07351    0.5682204 -45.69  0.004335435    1.980    0.495
       178 -10.9087    132.0354     33.6172   3.4124635951e+01   4.8270502762e+01    0.2520778     0.242037  32.25 0.0005759621    1.056    0.053
       179 -10.3568     75.1970     33.3597   5.0388313522e+01   6.0110601998e+01    0.2118772    0.1755777   4.83 0.0005405403    1.177    0.150
       180 -10.0494     26.9575    109.0241   8.6455391859e+01   5.0509506699e+01    0.1476802    0.1186612 -74.45 0.0003272074    1.017    0.017
       181 -10.0716    226.2898     18.3666   1.4818747884e+01   2.6125584445e+01    0.2247163    0.1447906  87.99 0.0005679849    1.454    0.312
       182  -9.8621    152.3365     32.7859   2.9510715771e+01   4.3342917842e+01    0.2401392    0.1860377 -16.86  0.001002707    1.520    0.342
       183  -9.8868    206.3127     31.9022   2.0541732210e+01   2.9421015524e+01    0.1924955    0.1772432 -67.80 0.0004488855    1.101    0.092
       184 -11.0162     86.4692     28.7318   4.4817812933e+01   5.8801063670e+01    0.2890859    0.2187221  28.10  0.001040688    1.289    0.224
       185 -11.4628    147.1841     51.9064   3.6676887221e+01   4.1806640454e+01    0.4540161    0.3339187  40.62  0.001222825    1.421    0.296
       186 -10.1910    140.1651     29.1547   3.0809502074e+01   4.6886933708e+01    0.2487201    0.1824517  72.12 0.0008583901    1.396    0.284
       187 -11.2071    113.7768     28.0897   3.6647749519e+01   5.3263685060e+01    0.3961066    0.2408317  58.23  0.001570854    1.641    0.391
       188 -10.5525    104.4968     27.3958   3.8892776224e+01   5.5378976828e+01    0.4051748     0.265336  79.33  0.001818371    2.526    0.604
       189 -10.4101    102.5274     24.2748   3.8257801201e+01   5.6211199084e+01    0.2422667    0.1769983 -19.33  0.001327767    1.447    0.309
       190 -10.6155    132.9924     25.3157   3.1051340274e+01   4.9139100965e+01    0.4480723     0.321764 -36.41   0.00233623    1.496    0.332
       191 -10.8067    123.3213     27.0763   3.3893853420e+01   5.1216625145e+01    0.3173011    0.2192336 -39.80  0.001448463    1.565    0.361
       192 -11.3336    241.9426     44.6417   1.9358162382e+01   1.8838777160e+01    0.3734318    0.2190851 -26.63 0.0003903432    2.006    0.502
       193 -10.9569    191.8035     24.7369   2.0565093010e+01   3.4116351763e+01    0.3836125    0.2393441 -45.92  0.001853036    1.613    0.380
       194 -11.6531    225.8719     22.7363   1.5915700914e+01   2.5681854821e+01    0.5858826     0.243416  67.42  0.002475639    2.212    0.548
       195 -10.3159    176.0491     23.8356   2.2609508171e+01   3.8351016260e+01    0.2821305    0.2089984 -24.85  0.000814154    1.563    0.360
       196  -9.0069    249.7542     23.5829   1.3760216444e+01   1.9873828356e+01    0.1602924    0.1094885 -83.13 0.0002932853    1.356    0.263
       197 -10.4865    242.5513     22.5584   1.4199616168e+01   2.1680935695e+01    0.4272065     0.204934  64.18  0.001619553    2.024    0.506
       198  -6.1724    234.3266     23.6626   1.5260056380e+01   2.3500379383e+01    0.2222476    0.1202829  81.01 0.0008420082    1.824    0.452
       199  -9.3180    245.5740    108.5396   3.3703469674e+01   7.9989162621e+00     0.139172    0.1273872 -47.20 6.710187e-05    1.032    0.031
       200  -9.2782    212.1342     15.1941   1.5534701363e+01   3.0047090123e+01    0.2208496    0.1948854 -13.73  0.000379173    1.462    0.316
       201 -10.2923    185.9326     23.3451   2.1000543271e+01   3.5824515197e+01    0.3267757    0.1648292  80.05   0.00132051    2.163    0.538
       202 -10.8958     97.6663     21.8995   3.8722133142e+01   5.7531011129e+01     0.268972     0.233724  -4.96 0.0008412007    1.145    0.127
       203 -11.1827    119.0171     22.3300   3.3219506571e+01   5.2817285873e+01    0.3808139    0.1898189  60.78  0.001165652    2.001    0.500
       204 -10.5997    200.9396     20.6856   1.8268098637e+01   3.2248137672e+01    0.3595521    0.2193826  49.80  0.001308993    1.789    0.441
       205  -9.5077    126.5238     20.4846   3.0795107678e+01   5.1285950816e+01    0.1384813     0.126166  48.82 0.0002268941    1.002    0.002
       206  -9.9903    129.9895     19.0870   2.9531710505e+01   5.0622721730e+01    0.2454727    0.1745441  48.22   0.00129101    1.284    0.221
       207  -9.7206    102.5163     19.9182   3.6579843468e+01   5.6768149468e+01    0.1854929    0.1102114   4.84 0.0003723935    2.496    0.599
       208 -13.6957     79.4004     59.7980   5.8207759721e+01   5.4791990545e+01     1.631845    0.8578133 -47.94  0.007578005    1.851    0.460
       209  -9.7009     14.5259     19.2121   7.0185381938e+01   6.9766685967e+01    0.1990554   0.09394784 -54.31  0.001126415    2.024    0.506
       210 -10.6028    195.4528    106.3015   4.1801094224e+01   1.9878849130e+01    0.4116514    0.2247337 -51.48  0.001627663    1.997    0.499
       211 -10.6091     91.9742    107.0352   6.7157940800e+01   4.2625455255e+01    0.2116172    0.1961636 -80.86 -0.003769674    1.024    0.024
       212  -9.1917    102.5835     14.8631   3.4583909266e+01   5.7357973761e+01    0.1550727    0.1230372 -35.84 0.0008989503    1.392    0.282
       213 -10.2919    184.2096    105.9453   4.3956159242e+01   2.2675653235e+01    0.2561884    0.2201731  62.97 0.0004398017    1.145    0.127
       214 -11.4381    158.5265    104.6154   4.9205858275e+01   2.9158828613e+01    0.2942964    0.2466302  50.51 0.0007388063    1.175    0.149
       215 -11.2985    110.0788    103.5215   6.1225833138e+01   4.0080573494e+01    0.2892622    0.2522168 -48.79  0.000575001    1.154    0.133
       216 -10.1552    167.2211     15.9803   2.1635891841e+01   4.1587507443e+01    0.3616726    0.1893294 -75.59  0.001357416    2.919    0.657
       217 -10.8690    165.5117    102.4688   4.7065641548e+01   2.7914787161e+01     0.279521    0.1553207 -30.20  0.001033739    2.325    0.570
       218 -10.3408    144.0992    103.0140   5.2218861635e+01   3.2881912552e+01    0.2937767    0.2373106  34.64  0.001263666    1.373    0.271
       219  -9.4737    240.5108    102.5129   3.3098390089e+01   1.0086290543e+01    0.1407893     0.132124 -47.25 0.0008104314    1.011    0.011
       220 -10.5846    208.3824    101.0202   3.8073282270e+01   1.7739530755e+01     0.363666    0.2487665 -20.73  0.001599617    1.859    0.462
       221 -13.3751    117.9820     95.8346   5.7077194383e+01   4.0166882913e+01     1.027533    0.5355823 -60.86  0.003838512    2.465    0.594
       222 -11.4522    116.0717     88.7785   5.5689276579e+01   4.2068325434e+01    0.3043756    0.2346239 -41.85 0.0003882597    1.318    0.242
       223  -9.4250    125.5511     11.4562   2.7763789899e+01   5.2535318128e+01    0.1350224    0.1215547  52.30 2.643718e-05    1.017    0.016
       224 -11.2325    100.8880    101.7152   6.3348453888e+01   4.2236375986e+01    0.2621183     0.203769 -59.94 0.0002503079    1.261    0.207
       225 -10.8784     75.5114    102.0876   7.0830471848e+01   4.6407964680e+01    0.2161877    0.1269266 -57.12 0.0007284429    1.571    0.363
       226 -11.3297     86.8893     98.4433   6.6604253071e+01   4.5432704374e+01     0.346094    0.3059987  22.06  0.001957662    1.302    0.232
       227 -10.3743    193.6979     98.9953   4.0304758122e+01   2.1678818274e+01    0.3288593    0.2197548  53.62  0.001254499    1.477    0.323
       228 -11.4653    169.6156     97.4875   4.4857491511e+01   2.7905029351e+01     0.445333    0.3466392  75.62  0.001436751    1.407    0.289
       229 -11.5044    151.4813     97.3046   4.8931853915e+01   3.2336652848e+01    0.4558132    0.4045103   5.56  0.002276469    1.379    0.275
       230 -12.5683    127.3216     90.6056   5.3156298484e+01   3.9276129557e+01    0.5448062    0.4650865 -13.59  0.002003043    1.430    0.301
       231 -12.0901    121.8298     86.9503   5.3605776638e+01   4.1232125346e+01    0.4466603    0.3845062 -60.35  0.001711209    1.184    0.156
       232 -12.1143    125.0805     82.3497   5.1424632420e+01   4.1466458411e+01    0.6197163    0.4047772  21.25  0.002170516    2.387    0.581
       233 -11.7379     53.5954     99.7344   7.6944517263e+01   4.9895803484e+01     0.268879    0.2271678  30.06 0.0003984503    1.370    0.270
       234 -11.1787    200.4947     96.6348   3.8419628935e+01   2.0449049542e+01    0.3516889    0.2550792 -49.72 0.0008267032    1.381    0.276
       235 -11.0008     11.8459     97.6220   8.9223724923e+01   5.4222738278e+01     0.237036    0.1553947 -67.39 0.0006841365    1.199    0.166
       236 -13.1500    104.1053     85.3540   5.8129859848e+01   4.5194593155e+01     1.276626    0.7105868 -74.95  0.003917923    4.465    0.776
       237 -11.9188    106.6872     96.2995   6.0332909125e+01   4.2336976451e+01    0.2912537    0.2728534 -77.04 0.0007114906    1.048    0.046
       238 -11.8052    105.7682     93.2108   5.9783339481e+01   4.3188666782e+01    0.3463641    0.2272396  36.01 0.0009399127    1.673    0.402
       239 -11.2891     73.4287     96.4510   7.0172773664e+01   4.7995953186e+01     0.242487     0.224813 -67.95 0.0006254796    1.016    0.016
       240 -11.1869     62.9279     95.3712   7.3152844275e+01   4.9710187763e+01    0.2356794     0.171564 -69.50 0.0004879518    1.340    0.254
       241 -11.6013     50.1740     95.3722   7.7115736625e+01   5.1284812834e+01    0.2356347    0.1980825 -67.24 0.0001682724    1.054    0.051
       242 -11.0616    247.1802     94.8316   3.0347406909e+01   9.8962151030e+00    0.2411218    0.2108653 -47.34 0.0002404587    1.049    0.047
       243 -11.5502    213.5967     94.2247   3.5477642875e+01   1.7701874171e+01    0.3000456    0.2610059  76.27  0.001128606    1.170    0.145
       244 -10.0328    177.8082     94.7691   4.2397367166e+01   2.6409215505e+01    0.2237133    0.2029849  44.55  0.000520492    1.151    0.131
       245 -13.2759    131.5477     96.8340   5.3744751654e+01   3.7032408580e+01    0.9173621    0.5248183  53.81  0.003789098    1.792    0.442
