#   1 NUMBER                 Running object number                                     
#   2 MAG_AUTO               Kron-like elliptical aperture magnitude                    [mag]
#   3 X_IMAGE                Object position along x                                    [pixel]
#   4 Y_IMAGE                Object position along y                                    [pixel]
#   5 X_WORLD                Barycenter position along world x axis                     [deg]
#   6 Y_WORLD                Barycenter position along world y axis                     [deg]
#   7 A_WORLD                Profile RMS along major axis (world units)                 [deg]
#   8 B_WORLD                Profile RMS along minor axis (world units)                 [deg]
#   9 THETA_WORLD            Position angle (CCW/world-x)                               [deg]
#  10 FWHM_WORLD             FWHM assuming a gaussian core                              [deg]
#  11 ELONGATION             A_IMAGE/B_IMAGE                                           
#  12 ELLIPTICITY            1 - B_IMAGE/A_IMAGE                                       
         1 -11.6325     79.7719     23.5075   7.1546022781e+01   6.1042771519e+01    0.8324748    0.2722933  40.26  0.003112085    3.075    0.675
         2  -8.5538    144.5788     23.4189   5.4772154440e+01   4.6341991876e+01    0.2328003    0.2213878  42.13 0.0001831847    1.035    0.034
         3  -9.2071     26.6169     23.1812   9.3479393079e+01   6.8761844432e+01    0.5742098     0.234716 -31.44   0.00269855    2.411    0.585
         4  -8.9907     14.1620     17.6777   9.7401491210e+01   7.0788516450e+01    0.3828324    0.2000567  -5.57  0.001407985    2.310    0.567
         5  -9.2541     45.9064     20.9624   8.3538536581e+01   6.6888484254e+01    0.4472897    0.2134719 -38.72  0.002274158    1.920    0.479
         6  -8.4391     71.7262      8.6112   6.7392138648e+01   6.4356427387e+01    0.3212304    0.1602331 -31.06 0.0009233947    2.018    0.505
         7  -9.4218     76.2661      5.8366   6.4533020490e+01   6.3789396910e+01    0.4227401    0.2565358 -20.42  0.001041681    1.618    0.382
         8  -9.0738     74.0966     13.9240   6.9114218107e+01   6.3312129845e+01    0.4322029    0.2393067  -3.55  0.001521806    2.239    0.553
         9  -9.2784     79.3992     12.8393   6.6829082400e+01   6.2432444601e+01     0.353041    0.2424835  46.24  0.001186847    1.431    0.301
        10  -9.8377     31.5619     10.9850   8.5394582991e+01   7.0161129067e+01    0.6570483    0.3693433 -10.40 0.0003739528    1.961    0.490
        11  -8.8938     32.0403      6.0745   8.2629994260e+01   7.0793554091e+01    0.2671564    0.1633387  19.13 0.0003601628    1.598    0.374
        12  -9.3100     64.1421     14.1173   7.2801421335e+01   6.5058738084e+01    0.3252424    0.1802969  22.80  0.001171965    1.972    0.493
        13  -9.8886    133.6801     13.3655   5.3267287712e+01   5.0166294743e+01     0.414764    0.2598974  56.10  0.002054877    1.417    0.294
        14  -8.2885     87.8002     13.1189   6.4324448226e+01   6.0726552843e+01    0.2417723    0.1637447   6.35 0.0007423724    1.537    0.349
        15  -8.2383     97.1060     12.1572   6.1229445269e+01   5.8866713614e+01    0.2160364    0.1555258  27.62 0.0005849176    1.295    0.228
        16  -9.0939    125.1775     10.4022   5.3851096268e+01   5.2550103918e+01    0.2605721    0.1856594  27.97 0.0003483396    1.434    0.303
        17  -9.5521     20.4186      8.6902   8.9942754466e+01   7.1688092018e+01    0.2878136    0.1846202 -11.47 0.0009494714    1.401    0.286
        18  -8.4282    156.0209      7.6826   4.7464510684e+01   4.5026761039e+01     0.272064    0.1757464 -20.85  0.001077679    1.724    0.420
        19  -8.3717    131.9798      6.1840   5.0939787413e+01   5.1263450038e+01    0.3307506     0.152324 -40.88  0.001394817    2.508    0.601
        20  -9.4970     46.5236      6.2104   7.5970274331e+01   6.8831293909e+01    0.2621449    0.2101463  14.59 0.0004148812    1.147    0.128
        21  -8.5541     41.0752      5.9312   7.8256790757e+01   6.9641781315e+01    0.2702367    0.1591478 -15.72 0.0008313566    1.569    0.363
        22  -7.9017    100.1281      5.9235   5.7729710672e+01   5.8813568729e+01    0.1874933    0.1861518 -81.50    0.0012248    1.239    0.193
        23  -8.8456     92.3036      5.4078   5.9558526127e+01   6.0565472561e+01    0.4289524    0.1381067  48.54  0.001382343    2.540    0.606
        24  -9.6429     84.8161      5.4710   6.1714571119e+01   6.2124893322e+01    0.2523026    0.2089586   0.81  0.001578935    1.139    0.122
        25  -8.8148     11.7126      5.3362   9.3032562416e+01   7.2983035420e+01    0.3331449    0.1610813 -43.20   0.00114258    1.764    0.433
        26  -9.4467      8.4939      5.5281   9.4957060555e+01   7.3211282017e+01    0.3261166    0.1706255   9.02  0.001573395    2.076    0.518
        27  -8.2720    125.5813      3.9040   5.1286950986e+01   5.3035963039e+01    0.2236278    0.1613912  46.53 0.0004149232    1.225    0.184
        28  -8.5905    110.1753      2.4133   5.3868035153e+01   5.6835787073e+01    0.2890656    0.2352413 -43.86  0.001700214    1.474    0.322
        29  -7.9922    105.0163      1.5083   5.4655327560e+01   5.8098162806e+01    0.2898451    0.1665704  51.77   0.00137703    1.492    0.330
        30  -8.4926     57.7791      3.2653   6.9792358331e+01   6.7397576281e+01    0.2176588    0.1639199  19.67 0.0004367552    1.131    0.116
        31  -7.7687    134.3721      3.2154   4.9419354566e+01   5.0923624800e+01    0.1744074    0.1226253 -33.98 0.0002623818    1.571    0.364
        32 -10.2296    119.1599      6.8778   5.3731458769e+01   5.4329525104e+01    0.2553346    0.2160143  39.90 0.0002649522    1.051    0.049
        33  -7.7509    143.1939      2.2116   4.7589885108e+01   4.8788923173e+01    0.1742948    0.1512119 -74.33 0.0003070166    1.262    0.207
        34  -7.6520      2.8242      1.3609   9.6217567084e+01   7.4274303673e+01    0.1421655   0.08290355  -2.99 0.0004428051    1.693    0.409
        35  -7.4349    124.5288    106.9792   8.6710672420e+01   3.6472338086e+01    0.2115732    0.1349257 -22.31 0.0003780815    2.289    0.563
        36  -7.9570    109.5558    106.3030   9.0662537188e+01   3.9659145306e+01    0.2568415    0.1903189  15.96   0.00110964    1.780    0.438
        37  -9.3561     14.0448    105.5990   1.1924954890e+02   5.2249952187e+01      0.29167    0.1628702 -34.68  0.001448622    2.242    0.554
        38  -8.2881    249.4892    103.4879   6.0173046780e+01   8.5480507119e+00    0.1413909    0.1242549 -37.84  1.95368e-05    1.054    0.051
        39  -8.0126     93.5642    103.4691   9.4562347786e+01   4.3260064502e+01    0.2545533    0.1465442  25.49 0.0009953328    2.336    0.572
        40  -7.1118    140.3611     99.3050   8.0446066268e+01   3.4648183942e+01    0.1643853    0.1260103   8.81 0.0006483144    1.731    0.422
        41  -7.6966    130.2871     96.9968   8.2405999241e+01   3.7400114082e+01    0.3223582    0.1921616  23.36  0.001111957    2.644    0.622
        42  -9.4907     12.7201     93.7003   1.1791979930e+02   5.5089859604e+01    0.3291654    0.2242493 -30.82   0.00125223    1.718    0.418
        43  -8.5118     44.2886     91.8722   1.0733030701e+02   5.2869596309e+01    0.3977683    0.2440994 -13.71  0.001884664    2.514    0.602
        44  -8.2931     96.2567     90.6626   9.0296490542e+01   4.5681885574e+01    0.3797385    0.2547128 -14.08  0.001587412    2.259    0.557
        45  -8.1642    109.6486     91.0274   8.6417102768e+01   4.3039280468e+01    0.3101075    0.1939607  15.25  0.001154845    2.712    0.631
        46 -10.4685     37.3815     81.1159   1.0727265275e+02   5.6034824086e+01    0.6626689    0.3399072 -23.14  0.002807054    3.129    0.680
        47  -8.1349    126.3784     84.1453   7.9655411494e+01   4.0946670935e+01    0.3112064    0.2094744  22.28  0.001285119    1.983    0.496
        48  -8.9261     20.1026     84.2222   1.1388605778e+02   5.6763816752e+01    0.1915972    0.1268444  60.31  0.001090594    1.958    0.489
        49  -9.9554      8.1851     77.3417   1.1672217095e+02   5.9076831796e+01    0.6364225    0.2192481 -37.65  0.002700452    3.377    0.704
        50  -8.5912     88.3511     78.8246   8.9282036926e+01   4.9671843876e+01     0.476901    0.2752861  14.34  0.001751916    3.153    0.683
        51  -7.6280    184.3876     78.2060   6.4463493112e+01   2.7960508225e+01    0.2127124    0.1412286 -44.51 0.0004128535    1.500    0.333
        52  -9.0692     49.5287     76.6647   1.0188119567e+02   5.5765142007e+01    0.3697137    0.1999534  19.20   0.00174202    2.390    0.582
        53  -7.5394    120.0251     76.2308   7.8928982159e+01   4.3938827715e+01    0.1948531    0.1275225  45.71 0.0004631912    1.555    0.357
        54  -7.9305    105.8332     76.3792   8.3084982076e+01   4.6892525789e+01     0.217041    0.1388577  31.29 0.0009451028    1.772    0.436
        55 -10.0952     23.8578     73.8849   1.1046072244e+02   5.8822076460e+01    0.9021695    0.2990617 -35.98  0.003163651    4.404    0.773
        56  -8.2693     23.4500     69.4962   1.0961802796e+02   5.9826701420e+01    0.2181032    0.1924523  46.99   0.00100963    1.423    0.297
        57  -8.4407     74.9609     74.1668   9.2282604454e+01   5.2880666558e+01    0.2417672     0.189329 -30.76 0.0003424627    1.234    0.189
        58  -9.4643    113.3683     71.8061   7.9388053722e+01   4.6246104204e+01    0.2673343    0.2422318  18.73 0.0002115695    1.125    0.111
        59  -9.0424     82.3241     66.3454   8.7291115538e+01   5.3305195331e+01    0.7943124    0.3652358 -24.60  0.002285782    4.916    0.797
        60  -8.2959     66.1937     84.2217   9.8141726084e+01   5.1962372271e+01    0.2484874    0.1904891 -24.31 0.0007392743    1.435    0.303
        61  -7.1541     76.2990     69.2899   9.0300249792e+01   5.3696746444e+01    0.1409533    0.1038706 -15.26 0.0002089398    1.560    0.359
        62  -8.4167    106.2414     67.5722   8.0080386240e+01   4.8558585944e+01    0.3715348    0.2222091  17.86  0.001396264    2.717    0.632
        63  -8.1953    209.1466     65.3327   5.6568737644e+01   2.3862100892e+01    0.2412137    0.2030682 -21.36 0.0005641609    1.271    0.213
        64  -9.1925     19.0768     61.3023   1.0933625917e+02   6.1929659818e+01    0.3151331    0.1593271 -31.13  0.001041612    2.139    0.532
        65  -6.9141    148.3319     63.3379   6.7516356673e+01   3.9653328131e+01    0.1641732    0.1197079  18.28 0.0007051963    1.740    0.425
        66  -9.7403     62.2460     61.4767   9.2759969312e+01   5.7406333564e+01    0.7325729    0.2572832  28.55  0.002353099    3.833    0.739
        67  -8.5825     11.3142     61.0098   1.1230386481e+02   6.2491731487e+01    0.1750292    0.1248805 -55.75   0.00053488    1.077    0.072
        68  -8.8138     97.8288     57.9328   7.9325057884e+01   5.2068871464e+01    0.5281187    0.2874728  -6.97  0.001462521    5.448    0.816
        69  -9.2540     27.4828     59.9974   1.0568783814e+02   6.1567734016e+01    0.2029222    0.1702379  45.54  0.000692496    1.538    0.350
        70  -7.9780    111.2549     58.6272   7.5520880319e+01   4.9165005989e+01    0.2985102    0.1639915  28.93  0.001145947    2.406    0.584
        71  -8.0800     48.9769     58.4987   9.6804839686e+01   5.9725893508e+01    0.1832325    0.1285699  27.09  0.001034961    1.600    0.375
        72  -7.4186     64.6499     56.7135   9.0267897242e+01   5.8018227697e+01    0.1396582   0.09752271 -12.04 0.0007022037    1.660    0.398
        73  -9.9298     75.0513     50.3724   8.4198853965e+01   5.7602734314e+01    0.4069276    0.2770122 -16.61 0.0003232045    1.621    0.383
        74  -8.2251    118.4039     50.9932   7.0789214360e+01   4.8888052841e+01    0.2428295    0.1977488  58.37 0.0005689279    1.324    0.244
        75  -9.0583     45.1651     49.0219   9.5167192834e+01   6.2071834521e+01    0.3567368     0.204841 -20.33 0.0009965936    2.127    0.530
        76  -9.6723     37.4598     58.7599   1.0139040764e+02   6.0922610245e+01    0.3477067    0.2083247 -19.95 0.0009798792    2.019    0.505
        77  -9.2516     56.2531     43.6346   8.8740467372e+01   6.1688396607e+01    0.8306583    0.3600148 -22.45  0.002403528    5.807    0.828
        78  -8.6644     10.5161     47.4720   1.0929524280e+02   6.5389366739e+01    0.2611278    0.1508382 -54.34 0.0008183807    1.317    0.241
        79  -9.2391     13.5192     45.5539   1.0746783715e+02   6.5596126444e+01    0.2446214    0.2082351  73.23  0.001105441    1.663    0.399
        80  -8.2525      2.8563     44.8592   1.1191642687e+02   6.6335262179e+01    0.2790734    0.1016969 -47.56  0.001444531    1.933    0.483
        81  -8.6367      3.8340     39.8169   1.1014694107e+02   6.7307464184e+01    0.3444184   0.05510321 -59.25  0.001267547    3.791    0.736
        82  -9.0258      5.9349     34.1132   1.0750891294e+02   6.8321734239e+01    0.3097256    0.1775921 -10.79  0.001571297    1.956    0.489
        83  -8.4857      2.8524     31.6438   1.0821323406e+02   6.8964054445e+01    0.1699591    0.1611211  81.25 0.0009409382    1.487    0.328
        84  -8.2766      1.4521     28.5117   1.0791040506e+02   6.9635000780e+01    0.1815743   0.07033422 -49.81 0.0006743891    1.772    0.436
        85  -7.5962    157.5838     44.0258   5.9219604104e+01   4.0338528021e+01    0.2105386    0.1485818 -25.97 0.0003652054    1.501    0.334
        86  -7.3722    142.5197     44.4164   6.2508931176e+01   4.4119356797e+01    0.1516203    0.1384449  33.98 0.0001251623    1.074    0.069
        87 -11.0151     83.1521     40.0637   7.7374266275e+01   5.7961833118e+01    0.3676619    0.2601301 -15.04  0.001921032    1.452    0.311
        88  -9.1353     87.5538     38.2048   7.5151746083e+01   5.7428939547e+01    0.2809159    0.2460888 -15.59 0.0005407932    1.075    0.070
        89  -7.8678    113.2459     42.1418   6.8939705264e+01   5.1451918784e+01    0.2592573     0.147687  17.00 0.0009531541    2.868    0.651
        90  -8.6120     16.6773     40.8581   1.0466800457e+02   6.6324428156e+01     0.263218   0.06571741 -50.87  0.001103711    2.674    0.626
        91  -6.7166    124.3119     39.3653   6.4999211917e+01   4.9302508774e+01    0.1577241    0.1078879  19.09 0.0007039011    1.760    0.432
        92  -8.3917     92.2695     37.6900   7.3417377192e+01   5.6585767735e+01    0.3661174    0.1748594 -39.49 0.0008460687    2.136    0.532
        93  -9.5433     70.6695     35.6925   8.0022261459e+01   6.0860760993e+01    0.6011506    0.2689095  23.76  0.002115353    3.845    0.740
        94  -8.5837     35.5069     37.5692   9.5125539020e+01   6.5313405574e+01    0.2395265    0.1471515 -42.40 0.0007755992    1.353    0.261
        95  -8.4087     38.7551     35.4213   9.2875018937e+01   6.5355748825e+01    0.2479575    0.1195635  24.51 0.0009061491    2.348    0.574
        96  -9.3590     19.6176     35.6911   1.0162722668e+02   6.7110193414e+01    0.2527353    0.1924125 -46.17 0.0008455655    1.154    0.134
        97  -9.4349     21.8842     31.9610   9.9237067539e+01   6.7628773242e+01    0.3781404    0.3113096 -19.00  0.001095691    1.132    0.117
        98  -7.8974    106.4401     36.4833   6.8670509420e+01   5.3800042452e+01    0.2622268    0.1150453  40.93  0.001019476    2.310    0.567
        99  -8.3386     55.9255     35.6859   8.5728736790e+01   6.3137057567e+01    0.1745655    0.1503189  -0.77 0.0001705938    1.098    0.090
       100  -7.4725     46.4732     35.4769   8.9563172352e+01   6.4433715546e+01    0.1290986    0.1042358 -20.72 6.634431e-05    1.025    0.024
       101  -7.0096    133.6799     31.6280   5.9953269878e+01   4.8082967423e+01    0.1589902    0.1043237  24.88 0.0006999471    1.802    0.445
       102  -8.6293     42.2760     28.0278   8.8292668129e+01   6.6228038182e+01    0.2201677    0.1466612  -5.55 0.0006850461    1.568    0.362
       103  -8.8317     61.8186     27.0631   7.9695552640e+01   6.3645057788e+01    0.2237936    0.1662744   9.42 0.0006307178    1.303    0.233
       104  -7.8484    109.6440     26.1816   6.3706037506e+01   5.4478811106e+01    0.1882935    0.1801229  55.31  0.001121418    1.169    0.144
       105  -9.8167    193.6433    248.1487   9.8892369444e+01  -3.1481503182e+00    0.3208726     0.198762  13.58  0.001835353    1.947    0.486
       106  -9.4265    166.2475    248.8192   1.0391903394e+02   1.1035933837e+00    0.1807902    0.1570857 -52.35  0.001301787    1.508    0.337
       107  -7.6800     83.4106    249.2097   1.1885138711e+02   1.3695948488e+01    0.1429153   0.09349459  86.05 0.0004203941    1.581    0.367
       108  -7.6523    129.0426     22.4809   5.7604772421e+01   5.0337839870e+01    0.2160865    0.1288228  55.43 0.0008007648    1.532    0.347
       109  -9.0775     92.3717     20.6040   6.6251350242e+01   5.8917288553e+01    0.2980597    0.2020332  29.40 0.0007440952    1.419    0.295
       110  -9.0884      7.7620     19.8216   1.0162401841e+02   7.0873398448e+01     0.324586    0.2069705  16.07  0.001909988    1.771    0.435
       111  -9.8356    150.8008    245.9653   1.0637662322e+02   3.9811600309e+00    0.2598916    0.1717623  30.76    0.0015822    1.459    0.315
       112  -8.5194    140.4490     20.0102   5.4362214249e+01   4.7772276348e+01    0.2678792    0.1680911  47.44 0.0003316241    1.478    0.323
       113 -10.1912    119.6618    244.2621   1.1189377997e+02   9.1652519802e+00    0.2087645    0.1766908  54.69 0.0002518352    1.097    0.088
       114  -8.6891    127.6404     16.9368   5.5822827250e+01   5.1292152770e+01    0.2490556    0.1919083  65.99 0.0003918056    1.297    0.229
       115 -10.6228    159.5328    244.5013   1.0458853578e+02   2.7878839840e+00     0.458884     0.177365  33.99  0.002006543    2.606    0.616
       116  -7.3452    236.3043    235.7010   8.9488454412e+01  -8.1768575184e+00   0.09991662    0.0885329  41.82 0.0002676987    1.588    0.370
       117  -9.1058    188.3280    234.1641   9.7826281658e+01  -4.6152654372e-01    0.2258703    0.1914715 -59.53  0.001164024    1.674    0.403
       118  -7.8560    121.9112    229.8777   1.0985026205e+02   1.1189178152e+01    0.1679918    0.1222995  61.75 0.0003945967    1.275    0.216
       119  -8.3196     11.2524    208.1418   1.2877472319e+02   2.9897799601e+01    0.1623028    0.0984403 -46.72 0.0009603582    2.894    0.655
       120  -8.5259    124.0030    206.0319   1.0636490319e+02   1.5139967627e+01    0.1857313    0.1609568  54.74   0.00115378    1.019    0.018
       121  -7.4902    220.0329    197.0000   8.5623928926e+01  -5.5710328129e-01    0.2064762    0.0675568  42.12 0.0004199369    2.819    0.645
       122  -7.7628    249.1885    195.1440   8.0085302302e+01  -5.1586285324e+00    0.1543889    0.1394571  -5.83 0.0004060601    1.269    0.212
       123  -7.3408    105.2999     14.3873   6.0012153443e+01   5.6822493959e+01    0.1495472    0.0915701  23.40 0.0007015902    1.787    0.440
       124  -7.2832    228.6744    187.2801   8.2172717204e+01  -6.4042385047e-01    0.1160679    0.1075975  75.13 0.0002741153    1.594    0.373
       125  -8.1472    168.9678     13.5066   4.7445377533e+01   4.1101518138e+01    0.2230586    0.1264496  65.80 0.0008412595    1.587    0.370
       126  -7.7006    139.3566    184.1278   9.9689879881e+01   1.6672494891e+01    0.1821129    0.1311496 -68.29 0.0003719613    1.648    0.393
       127  -7.4592    242.8029    176.5554   7.7518136852e+01  -1.5285596078e+00     0.163353    0.1240865  48.21 0.0006097699    1.586    0.369
       128  -7.3639    207.3323    166.7135   8.2002843008e+01   6.5894572528e+00    0.1330757     0.115638  85.08 0.0004919493    1.621    0.383
       129  -6.9896     72.6635    164.7251   1.1199565549e+02   3.2068202565e+01    0.1222992    0.1047737 -29.37 0.0003972815    1.606    0.378
       130  -7.5353    140.3644    156.7965   9.4360911910e+01   2.2150930166e+01    0.2005281    0.1389483 -39.80  0.000435092    1.585    0.369
       131  -8.9852     67.1364    144.6021   1.1039088345e+02   3.7539210540e+01    0.4161633    0.2656884  72.76  0.002047113    1.807    0.447
       132  -7.5801    140.2247    138.7599   9.0520712033e+01   2.6101924638e+01    0.2393336    0.1188814 -37.09 0.0006415909    2.416    0.586
       133  -7.5508    125.3697    136.2855   9.3662351988e+01   2.9687560882e+01     0.152814    0.1223865   0.71 0.0007019123    1.704    0.413
       134  -7.5159    165.6389    139.7255   8.4763461368e+01   2.0438273974e+01    0.1577251    0.1204866  12.57 0.0007004878    1.659    0.397
       135  -8.0168    132.3910    124.8452   8.9209534924e+01   3.0831339486e+01    0.2234702    0.1438847 -36.81 0.0007744036    1.700    0.412
       136  -7.7589    153.3412    124.3017   8.3895983020e+01   2.6395843487e+01    0.1606401    0.1255607   6.87 0.0003905544    1.674    0.403
       137  -8.6899     11.1921    120.8074   1.2195154720e+02   4.8915289687e+01    0.2349226    0.1420192  34.22  0.001181678    1.946    0.486
       138  -7.9462    100.2583    118.8454   9.6382977727e+01   3.8491856352e+01    0.3119854    0.1855577  13.53  0.001079495    3.451    0.710
       139  -7.5111    119.6511    118.7057   9.1037021803e+01   3.4837382440e+01    0.1547044    0.1235565  -3.22 0.0004089561    1.675    0.403
       140  -7.6851    208.8779    112.1519   6.8984232520e+01   1.5961780256e+01    0.2177723    0.1979182 -63.91 0.0003214071    1.207    0.171
       141  -8.3638     28.7596    112.5960   1.1595112209e+02   4.9468121805e+01    0.1621693    0.1122736  45.61 0.0009544194    1.641    0.391
       142  -8.4678    133.8915    107.1506   8.4280592574e+01   3.4420275287e+01    0.5368428    0.1935916 -42.42  0.001717565    2.781    0.640
       143  -7.2510     38.7182    110.3226   1.1264700800e+02   4.9084933584e+01    0.1293065   0.09088123  80.69 0.0006996627    1.591    0.371
       144  -7.9475      1.5501    110.2882   1.2340624603e+02   5.1950081281e+01    0.1694067   0.08109582 -64.62 0.0009374226    1.572    0.364
