#   1 NUMBER                 Running object number                                     
#   2 MAG_AUTO               Kron-like elliptical aperture magnitude                    [mag]
#   3 X_IMAGE                Object position along x                                    [pixel]
#   4 Y_IMAGE                Object position along y                                    [pixel]
#   5 X_WORLD                Barycenter position along world x axis                     [deg]
#   6 Y_WORLD                Barycenter position along world y axis                     [deg]
#   7 A_WORLD                Profile RMS along major axis (world units)                 [deg]
#   8 B_WORLD                Profile RMS along minor axis (world units)                 [deg]
#   9 THETA_WORLD            Position angle (CCW/world-x)                               [deg]
#  10 FWHM_WORLD             FWHM assuming a gaussian core                              [deg]
#  11 ELONGATION             A_IMAGE/B_IMAGE                                           
#  12 ELLIPTICITY            1 - B_IMAGE/A_IMAGE                                       
         1 -12.3503    195.4144     39.1084   4.8483190837e+01   3.1519824176e+01     1.109344     1.011727 -71.46  0.004324217    1.032    0.031
         2 -12.4441    204.6563     29.1852   4.4625948692e+01   3.0514703349e+01    0.8392622    0.7627694 -11.27  0.001446368    1.333    0.250
         3 -10.7146     40.1187      8.8807   7.7369437644e+01   6.9327763996e+01    0.2595456    0.2228727 -47.03  0.001756943    1.785    0.440
         4 -10.8469    225.1426      3.5741   3.6292705700e+01   2.8548229581e+01    0.5960957    0.3619046 -62.50  0.003314359    1.499    0.333
         5 -10.6202    232.4103      2.7707   3.5548145343e+01   2.6975549511e+01    0.4789486    0.4379164  63.00  0.003299843    1.338    0.252
         6  -9.0511    161.4561    220.4863   9.7567508731e+01   5.5355725828e+00    0.1314564    0.1129659  34.77 0.0008088706    1.008    0.008
         7 -17.3626     16.2075    182.9073   1.2409371631e+02   3.4160245734e+01     16.63202     4.651525 -79.46   0.06725715    3.282    0.695
         8  -8.2568    141.1934    173.7868   9.4079973620e+01   1.8148624194e+01    0.3448125    0.1005705  46.57  0.001044285    3.498    0.714
         9 -10.3803    103.8535    171.9639   1.0263091134e+02   2.5297325280e+01    0.5614467     0.335469  54.05  0.002595802    1.707    0.414
        10  -9.6813    194.2481    196.9066   8.6944841976e+01   3.7872207460e+00    0.4868137    0.2293838 -56.71  0.001690124    4.285    0.767
        11 -10.4670     91.5823    154.0243   1.0266736385e+02   3.1521524708e+01    0.6502008    0.4591524 -19.09  0.002347475    2.313    0.568
        12  -8.2781    159.1389    162.6205   8.7744155054e+01   1.6982401925e+01    0.2412049     0.205148 -62.61 0.0006575811    1.304    0.233
        13  -9.4125    134.0051    145.0604   9.0014466028e+01   2.5894299087e+01      0.89953    0.2308976 -54.12  0.002222037    5.171    0.807
        14  -9.1189     85.3813    144.6202   1.0262636496e+02   3.4771109144e+01    0.3167776    0.2296933  65.70  0.001117723    1.512    0.339
        15  -9.1638    104.1230    139.5963   9.6609167968e+01   3.2852298308e+01    0.4915836    0.3310791 -25.50  0.002090456    2.191    0.544
        16 -10.4785     92.0365    139.4216   9.9844453319e+01   3.4963068750e+01    0.2662429    0.2525938 -29.12 0.0003955691    1.191    0.161
        17  -9.8236    113.4389    129.9465   9.2002378897e+01   3.3432873292e+01    0.4512137    0.3752213 -41.36  0.002015637    1.237    0.192
        18  -8.9608    106.0102    130.6647   9.4190069752e+01   3.4646041276e+01    0.3234339    0.3053272 -79.44  0.001545007    1.032    0.031
        19  -8.1255     61.1743    220.3642   1.1796802697e+02   2.1178165330e+01     0.161694    0.1415829  43.01  0.000656341    1.357    0.263
        20  -8.4904    136.0000    127.9694   8.5588293832e+01   2.9361672723e+01    0.2598695   0.08838574 -47.21 0.0006718603    2.920    0.658
        21  -9.4623    100.3520    126.0887   9.4744298446e+01   3.6756960887e+01    0.3301105    0.2472465 -31.66 0.0008830593    1.565    0.361
        22  -9.8039    119.4312    123.2833   8.8817693747e+01   3.3828284526e+01     0.435113     0.283138  -4.52  0.001515923    3.204    0.688
        23  -8.2908    114.7543    118.7037   8.8983373314e+01   3.5815245208e+01    0.2463245    0.1264272 -60.41 0.0008892901    2.345    0.574
        24  -8.5019    108.8214    119.1133   9.0738053338e+01   3.6861168915e+01    0.2215193    0.2008111 -88.47 0.0003444065    1.169    0.144
        25  -8.1207    167.9375    112.6994   7.3997557746e+01   2.5562870782e+01     0.288243    0.1727676 -73.69 0.0008990962    3.583    0.721
        26 -10.4146    117.1234    109.8636   8.6084425532e+01   3.7381317857e+01    0.5667697    0.3965753  48.89  0.002586308    1.492    0.330
        27  -8.7161     69.3321    199.4083   1.1425815335e+02   2.4434462928e+01    0.3250716    0.2788304 -74.89   0.00189789    1.230    0.187
        28  -9.2834    238.3879    108.1702   5.9607833424e+01   1.0659025223e+01    0.2142678    0.1155866 -44.67 0.0009507738    1.735    0.424
        29  -8.3579    205.9551    110.0310   6.5530550878e+01   1.7330227189e+01    0.2287436    0.2204364 -38.26 0.0005039634    1.020    0.019
        30  -7.8258    134.6470    101.6817   7.9123779620e+01   3.5481340527e+01    0.1637297    0.1260603   3.78 0.0001528491    1.744    0.427
        31  -8.4112    178.6656    219.6816   9.3989882050e+01   2.7436110650e+00     0.133744    0.0940303   8.99 0.0003157451    1.697    0.411
        32  -8.9897     92.8428    217.8149   1.1133806960e+02   1.7243720071e+01    0.2357063    0.1692769 -70.63  0.000816615    1.479    0.324
        33  -8.8105    156.8818    217.8929   9.8102914830e+01   6.7605068430e+00    0.1955299    0.1656245  21.61 0.0004529592    1.186    0.157
        34  -8.5265    208.1944    198.4155   8.4481996318e+01   1.0921146761e+00    0.1852692    0.1192026  46.16 0.0009509639    1.654    0.396
        35  -8.8666    114.6071    208.7637   1.0565038804e+02   1.5619988377e+01    0.1757085    0.1238566 -77.84 0.0004148459    1.645    0.392
        36 -13.5655     71.3006    150.1530   1.0731680313e+02   3.5515346849e+01     2.943608     1.523996  81.54   0.01039984    3.522    0.716
        37 -10.2259     74.0667    188.8363   1.1200959713e+02   2.6089295291e+01    0.4234037    0.2301928  66.84  0.001434123    2.093    0.522
        38  -7.5523     94.3532    187.2698   1.0718721382e+02   2.3405795395e+01    0.1262731    0.1090386  -6.38 0.0004075932    1.632    0.387
        39 -12.0782    184.6640     47.5556   5.2461976070e+01   3.3047162122e+01    0.9999358    0.7925569  11.06  0.002875792    1.655    0.396
        40  -8.6769     99.6665    180.8783   1.0502771253e+02   2.3975739197e+01    0.1914075    0.1688827  89.89 0.0005412098    1.087    0.080
        41  -8.7215    134.7913    246.5999   1.0635310396e+02   5.5887744048e+00    0.1790518   0.09124828  47.23 0.0004801132    1.635    0.389
        42 -10.5176     72.8957    174.7613   1.1049934227e+02   2.9449286678e+01    0.4183145     0.277961 -38.96  0.001803665    2.094    0.522
        43  -9.1191    152.5682     47.8380   5.8403828595e+01   4.1138103344e+01    0.2787376    0.2245691  82.94 0.0006639161    1.374    0.272
        44 -10.3967     76.8652    169.9016   1.0887668801e+02   3.0012416027e+01    0.3552574    0.2969858 -22.75 0.0009030756    1.673    0.402
        45  -9.2447    151.0175     54.3435   6.0808945599e+01   4.0530291757e+01    0.2668405    0.2137128 -49.67  0.000543883    1.316    0.240
        46 -10.0833    160.8293    227.1994   9.8696226765e+01   4.5238021223e+00    0.3615429    0.1658795  45.05  0.001686466    1.931    0.482
        47 -10.3865     47.8072    173.0706   1.1621211830e+02   3.3083212734e+01    0.4100604    0.2366643 -51.29  0.001487194    1.980    0.495
