#   1 NUMBER                 Running object number                                     
#   2 MAG_AUTO               Kron-like elliptical aperture magnitude                    [mag]
#   3 X_IMAGE                Object position along x                                    [pixel]
#   4 Y_IMAGE                Object position along y                                    [pixel]
#   5 X_WORLD                Barycenter position along world x axis                     [deg]
#   6 Y_WORLD                Barycenter position along world y axis                     [deg]
#   7 A_WORLD                Profile RMS along major axis (world units)                 [deg]
#   8 B_WORLD                Profile RMS along minor axis (world units)                 [deg]
#   9 THETA_WORLD            Position angle (CCW/world-x)                               [deg]
#  10 FWHM_WORLD             FWHM assuming a gaussian core                              [deg]
#  11 ELONGATION             A_IMAGE/B_IMAGE                                           
#  12 ELLIPTICITY            1 - B_IMAGE/A_IMAGE                                       
         1 -14.4662     68.6777    144.1152   9.9904949365e+01   3.7595631902e+01     4.806828     2.106516  60.89  0.003032858    5.501    0.818
         2 -13.1522    198.1952     42.3016   4.2096290097e+01   3.0509696834e+01     1.051095    0.9258428 -67.49  0.003256223    1.044    0.042
         3 -13.7397    207.4973     33.1707   3.8773383493e+01   2.9534461965e+01     1.347969    0.9200857 -15.79  0.001386362    2.016    0.504
         4 -13.0251    232.4189      6.7544   3.0729198420e+01   2.7102664110e+01     0.820236    0.6441834 -80.34    0.0043766    1.068    0.064
         5 -10.5955     61.1257      7.8307   5.9229841489e+01   6.5634456303e+01    0.2216098    0.1598381   9.93 0.0006338664    1.280    0.219
         6 -11.4328     31.8925      6.7927   7.0937793602e+01   7.0471253020e+01    0.2653716    0.1794598  25.61  0.001737729    1.302    0.232
         7 -11.8429     54.1029      3.9073   5.9897919526e+01   6.7268074752e+01    0.6013731    0.1769959  38.19  0.002423895    3.120    0.679
         8 -10.0562     40.3754      2.9716   6.5003206576e+01   6.9639618318e+01    0.2154188    0.1677823 -87.90  0.001085393    3.909    0.744
         9 -10.6001    103.9708    209.8179   1.0122981819e+02   1.6629562512e+01    0.2782198    0.2450288  85.98  0.001656114    1.178    0.151
        10 -11.5980    140.1304    248.9679   9.8697092881e+01   3.5211836713e+00      0.48342    0.3622723 -47.28  0.003010925    1.585    0.369
        11 -17.5880     11.5391    243.4767   1.2352196051e+02   2.1458814127e+01     10.89524     5.640552 -81.65   0.02353961    1.754    0.430
        12 -10.4724    118.0531    191.0239   9.5028661191e+01   1.8425936808e+01    0.2756474    0.2353156  -7.29  0.001192219    1.404    0.288
        13 -10.7883    110.9430    197.7489   9.7818949471e+01   1.8129024630e+01    0.3931268    0.2557091   9.14   0.00168736    2.434    0.589
        14 -10.5172     60.6452    198.1045   1.0982560299e+02   2.5516580282e+01    0.2564737    0.2168251  34.73 0.0004701734    1.291    0.225
        15 -11.2670    121.6268    197.7657   9.5288488375e+01   1.6339741980e+01    0.4828455    0.3075936 -71.08  0.002208299    2.024    0.506
        16 -15.9413      6.0051    208.5184   1.2267244444e+02   2.9129990581e+01     4.104545    0.8898925 -67.40   0.01663916    3.613    0.723
        17 -10.1380    142.3157    208.8067   9.2331877245e+01   1.0526708920e+01    0.2073619    0.1811072 -85.26 0.0007338703    1.404    0.288
        18  -9.2897    105.3198    194.3241   9.8634086116e+01   1.9811866309e+01     0.140647    0.1116739 -15.85 0.0004162685    1.676    0.403
        19  -9.0413     65.6655    192.7230   1.0799840835e+02   2.6100056873e+01    0.3726567    0.1821778  80.39  0.001335219    3.536    0.717
        20 -12.3491     55.2248    147.3445   1.0434953834e+02   3.8556908774e+01     4.023163    0.7112101 -55.54   0.01174969    4.120    0.757
        21 -12.3146     82.7449    158.8459   9.8571792921e+01   3.1844888622e+01     1.211884    0.7957523  73.76 0.0006413696    2.016    0.504
        22 -13.0394     71.5153    153.6371   1.0077721076e+02   3.4805279042e+01    0.7054964    0.5398009 -59.66  0.001051573    1.230    0.187
        23 -11.3014     74.9307    167.0253   1.0205275893e+02   3.0988833843e+01    0.3372571    0.2953855 -55.21  0.001458572    1.161    0.139
        24 -10.5349    147.7801    187.8370   8.7406777159e+01   1.3859531665e+01    0.4456019    0.3176398 -77.62  0.001611131    2.111    0.526
        25  -8.6396     72.2634    188.4588   1.0585017983e+02   2.6195597935e+01     0.181822    0.1174507  50.29 0.0004325034    1.495    0.331
        26 -10.2316    120.0144    186.2601   9.3741179949e+01   1.9152299335e+01    0.2043547    0.1850246  42.62 0.0003130004    1.059    0.056
        27  -8.8021     77.2823    185.6676   1.0422851566e+02   2.6140965867e+01    0.2302616    0.1528593  85.73 0.0006088748    1.767    0.434
        28  -8.9247     79.9286    183.6517   1.0328024728e+02   2.6233330286e+01    0.2559191    0.2304394 -66.37  0.001155943    1.126    0.112
        29  -8.0045    224.2511    206.6609   7.4985308101e+01  -2.5510777155e+00    0.1123072    0.1009414 -50.13 0.0003228639    1.569    0.363
        30 -10.8300    111.1179    203.2189   9.8615051025e+01   1.6905816485e+01    0.3217517    0.2263351  67.53 0.0006778822    1.685    0.407
        31 -10.5070     99.3430    180.8695   9.7959850818e+01   2.3879595487e+01    0.2792511    0.2663825  36.11 0.0006194148    1.094    0.086
        32  -9.1280     38.3445    181.7899   1.1334863976e+02   3.2023010320e+01    0.2085925    0.1585511  57.63 0.0007021984    1.252    0.201
        33  -8.7229     89.8547    180.8529   1.0035607622e+02   2.5395703106e+01    0.2006212    0.1812085  59.06 0.0004176512    1.062    0.059
        34  -8.7016     92.4174    178.2247   9.9286039262e+01   2.5618072327e+01     0.206771    0.1365336 -75.47 0.0009533654    1.712    0.416
        35  -9.4786     42.8497    179.8981   1.1204311779e+02   3.1973503969e+01    0.2003033    0.1804476  53.54 0.0003539821    1.172    0.146
        36  -9.9579     45.7306    176.5578   1.1094438728e+02   3.2448550388e+01    0.2812252     0.241855 -86.57  0.001122168    1.030    0.029
        37  -9.0924    147.9665    174.3304   8.4752107628e+01   1.6708827021e+01    0.2086326    0.1849707  34.55 0.0003164747    1.100    0.091
        38 -10.3381    186.9872    175.4766   7.6235366971e+01   9.1316074058e+00    0.3642948     0.310156 -44.01  0.001231532    1.241    0.194
        39  -8.2433    193.4831    170.4682   7.3840580749e+01   8.8942417964e+00    0.1440465    0.1332271  -9.74 8.753905e-05    1.028    0.027
        40 -10.4411    240.1598    169.1709   6.4835104945e+01   1.0460655352e+00    0.2083277    0.1605367 -10.03 0.0004799574    1.233    0.189
        41  -8.7990    184.5366    167.5422   7.5091486842e+01   1.1140099572e+01    0.2544228     0.136814 -52.17  0.001025457    2.193    0.544
        42  -9.6277    110.7963    167.9089   9.2743189957e+01   2.5003369262e+01    0.2702287    0.2088779 -82.64 0.0007598003    1.532    0.347
        43 -10.4587     33.7154    165.8387   1.1275434607e+02   3.6371167259e+01    0.4515445    0.2184173  50.20  0.001820406    2.155    0.536
        44 -11.7362    196.0895    204.2231   7.9984337132e+01   2.2742564074e+00    0.6047866    0.3065491  27.23  0.002689264    2.100    0.524
        45 -11.5131    106.9108    203.3059   9.9613636362e+01   1.7567259588e+01    0.5764558    0.2584706  44.96  0.002398347    2.103    0.525
        46 -13.3683     48.1452    108.2740   9.9269777914e+01   4.9152596881e+01      1.41057     1.320088 -76.77  0.007511511    1.131    0.116
        47 -11.6695     90.0749    151.8850   9.5262247692e+01   3.2409415458e+01    0.7323574     0.515909 -24.19  0.003294323    1.918    0.479
        48 -10.8785    133.8283    145.1961   8.2025497517e+01   2.6006708517e+01     1.282913    0.3371022 -54.16  0.002972531    5.667    0.824
        49  -8.9203    174.7425    148.6321   7.3044320877e+01   1.6901114971e+01    0.2644241    0.1858164 -61.20 0.0009978879    1.777    0.437
        50  -8.8935    111.0457    149.1247   8.8923355306e+01   2.9453958613e+01    0.3221301    0.1973857  64.79  0.001230329    2.410    0.585
        51 -10.1456     39.0068    146.5644   1.0886397765e+02   4.0606145449e+01    0.3232401    0.2474875  55.23 0.0009425335    1.381    0.276
        52  -9.3970    143.5930    145.4043   7.9604263301e+01   2.3987908313e+01    0.3186287    0.1423072 -59.37 0.0009618929    3.460    0.711
        53 -10.3943    103.4036    138.0682   8.8641024766e+01   3.3517744463e+01    0.5692595    0.3568604 -21.67  0.002162062    2.538    0.606
        54 -10.2347    105.9048    130.8605   8.6281738971e+01   3.4801278098e+01     0.388676    0.3356156 -61.71   0.00124049    1.176    0.149
        55 -11.6416     90.8249    137.6709   9.2166657669e+01   3.5801594092e+01    0.2977418    0.2614705 -41.34 0.0004233393    1.143    0.125
        56 -11.4155     44.1988    130.6997   1.0485866444e+02   4.4035051419e+01    0.5709555    0.3099861 -82.84  0.002185551    2.291    0.564
        57 -10.3918    135.7435    129.7602   7.7870808470e+01   2.9142714457e+01    0.6923263    0.1356808 -49.11  0.001536976    5.763    0.826
        58 -10.1544    112.2080    129.1655   8.4089891567e+01   3.4015528947e+01    0.3622034    0.2939558  -1.16 0.0008851753    1.510    0.338
        59  -9.0139    160.7555    128.3721   7.1389700481e+01   2.4105670614e+01    0.3068293    0.1932296 -53.75  0.001280491    1.736    0.424
        60 -11.0569    118.7026    123.1717   8.0798077539e+01   3.4144897008e+01    0.7335932    0.4441121 -16.31  0.002472686    3.164    0.684
        61 -10.3022     99.3944    125.0246   8.6788125513e+01   3.7395506959e+01    0.3125791    0.2552674 -22.22 0.0006528423    1.381    0.276
        62  -8.9902     92.1877    124.9190   8.8907608180e+01   3.8694271227e+01    0.2271164    0.2013121  86.86 0.0005676867    1.268    0.212
        63 -10.7262     39.5975    123.9312   1.0512421401e+02   4.6218095580e+01    0.2836089    0.2066261  16.42  0.001242868    1.632    0.387
        64 -10.6004     32.4010    130.5481   1.0844115004e+02   4.5276079972e+01    0.3221081    0.2046557 -60.15 0.0009664529    1.342    0.255
        65  -9.3734    108.1691    118.2024   8.2530956630e+01   3.7372407506e+01    0.2225637    0.2045058 -13.68 0.0003652131    1.138    0.121
        66 -11.5817     70.6043    171.3739   1.0386427488e+02   3.0536251246e+01    0.5484069    0.3401698 -38.76  0.002509847    2.041    0.510
        67  -9.9127    231.3974    113.7817   5.4390940845e+01   1.2061057592e+01    0.2491757    0.2324313 -40.25 0.0007419842    1.064    0.060
        68 -11.8345     19.6556    109.9657   1.0922162822e+02   5.1442109207e+01    0.4840808    0.4663013 -55.06  0.002903115    1.151    0.131
        69  -9.2702    205.2135    110.2001   5.7846133248e+01   1.8025842655e+01    0.2755986    0.1984987  37.90  0.001044455    1.588    0.370
        70  -8.8841    134.4943    105.9671   7.1995056696e+01   3.4651140625e+01    0.2461018    0.1531054 -43.35  0.001032067    1.588    0.370
        71 -10.2892    119.2617    103.8723   7.5529263118e+01   3.8376447172e+01    0.3095005     0.194322 -39.49  0.001316967    1.596    0.373
        72 -12.9451     56.2226    185.4062   1.0939866926e+02   2.9054272975e+01     2.358512     0.968983  24.41  0.008555389    3.267    0.694
        73  -9.8949    134.8756    112.6129   7.3694592000e+01   3.3138455864e+01    0.4832836    0.1013403 -43.71  0.001174017    4.722    0.788
        74 -10.9692     33.2034     99.6618   1.0263886860e+02   5.2792714913e+01    0.3533943    0.2793259 -51.81  0.001408086    1.078    0.072
        75  -9.1229    128.1738     95.3905   7.0684387680e+01   3.8255677972e+01    0.2675402    0.1906157  54.51  0.001207902    1.500    0.334
        76 -10.6115     65.6877    179.2505   1.0625207847e+02   2.9295956863e+01    0.4069529    0.3080786 -76.61 0.0006292475    1.262    0.208
        77  -9.4825    155.9400     87.8799   6.1753990164e+01   3.3368178451e+01      0.41455    0.2616987 -70.80  0.001194818    2.556    0.609
        78 -10.8256    115.9490    109.4380   7.7991224609e+01   3.7832663089e+01    0.5410491    0.4218687  50.88  0.001957086    1.361    0.265
        79  -8.5347    116.7554     85.7696   7.0971058500e+01   4.2694570568e+01    0.2404279    0.1230407  56.21 0.0008769074    2.424    0.587
        80  -9.2492     74.9513     84.9064   8.3905622345e+01   5.0858137214e+01     0.213889    0.1983692 -22.13 0.0003257723    1.016    0.016
        81  -8.8594    158.1669     82.8100   5.9836323382e+01   3.3773675182e+01    0.2080444    0.1809579  15.23 0.0005115135    1.323    0.244
        82  -8.9247     58.7757     67.4362   8.4371090146e+01   5.6983927890e+01    0.1813461    0.1268768  13.76 0.0004976609    1.547    0.354
        83 -12.8324    187.0445     50.8693   4.5816972784e+01   3.1969511539e+01    0.8772963     0.761497  36.00  0.000840682    1.362    0.266
        84  -9.9271     31.6672    203.2927   1.1690855956e+02   2.7766528211e+01    0.3142971    0.2068485  78.86  0.001850673    1.372    0.271
        85 -15.1326     43.6761    196.0889   1.1355353002e+02   2.8066979075e+01     8.088374     2.699591  62.24   0.02206674    6.557    0.847
        86  -9.8536     31.8586     36.3089   8.4596345843e+01   6.6216038759e+01    0.1775401    0.1508848  32.39  0.001167376    1.494    0.331
        87 -11.5105     23.9771     34.5154   8.7696559810e+01   6.7364539583e+01    0.4560585    0.2450871  34.27  0.002342687    2.165    0.538
        88  -8.7561     96.4551    201.9914   1.0188270408e+02   1.9508133281e+01    0.2026005     0.134398 -62.30 0.0008408668    1.574    0.365
        89  -8.1784     36.3152     38.2819   8.3304645650e+01   6.5358941314e+01      0.12879   0.08302714 -10.98  0.000228033    1.576    0.366
        90  -9.3398     32.6747     31.6795   8.2308164236e+01   6.6889073636e+01    0.1308638   0.08036033 -11.24 0.0005429977    1.680    0.405
        91 -11.3075     22.5886     28.6122   8.5989351792e+01   6.8499212818e+01    0.2890026    0.1760143 -43.25  0.001717095    1.577    0.366
        92  -9.2811    198.0384     23.5190   3.7481533281e+01   3.2857093885e+01    0.2131009     0.184135  -5.74  0.000595395    1.534    0.348
        93 -10.8220    192.9163    194.8704   7.8865100403e+01   4.4556959044e+00    0.7949434     0.428497 -62.59  0.002589711    4.886    0.795
        94  -9.2062    189.8123     14.8779   3.6234384705e+01   3.5717871968e+01    0.1849298    0.1643692  61.93  0.000675877    1.227    0.185
        95  -9.2630    161.6648    226.6731   9.1005636593e+01   3.9783207997e+00    0.1373978   0.09699105   1.34 0.0007051673    1.720    0.419
        96 -11.1653    184.1181    211.5849   8.3769948871e+01   2.9628845654e+00     0.325782    0.2243192  -6.12  0.001669967    1.703    0.413
        97  -9.9642    164.4381    211.7372   8.7954793589e+01   6.2142726470e+00    0.2477125     0.136425 -50.97  0.001137634    2.103    0.525
        98  -9.5079     89.2684    211.2046   1.0478349312e+02   1.8579763171e+01    0.2237579    0.1942411  84.74 0.0004458529    1.140    0.123
