#   1 NUMBER                 Running object number                                     
#   2 MAG_AUTO               Kron-like elliptical aperture magnitude                    [mag]
#   3 X_IMAGE                Object position along x                                    [pixel]
#   4 Y_IMAGE                Object position along y                                    [pixel]
#   5 X_WORLD                Barycenter position along world x axis                     [deg]
#   6 Y_WORLD                Barycenter position along world y axis                     [deg]
#   7 A_WORLD                Profile RMS along major axis (world units)                 [deg]
#   8 B_WORLD                Profile RMS along minor axis (world units)                 [deg]
#   9 THETA_WORLD            Position angle (CCW/world-x)                               [deg]
#  10 FWHM_WORLD             FWHM assuming a gaussian core                              [deg]
#  11 ELONGATION             A_IMAGE/B_IMAGE                                           
#  12 ELLIPTICITY            1 - B_IMAGE/A_IMAGE                                       
         1 -13.9300     65.3418     51.4706   9.4365048901e+01   5.7663759183e+01     1.289848     0.642641 -38.40  0.005878678    1.834    0.455
         2 -14.4698    101.3987     49.9842   8.2549205382e+01   5.2162735992e+01    0.9631599    0.7889246  69.29  0.002907695    1.618    0.382
         3 -14.9890    119.8351     54.7033   7.9037358335e+01   4.7668629303e+01     1.437082    0.9295061  19.66  0.001853708    2.132    0.531
         4 -14.8956     83.9825     66.9964   9.3279333709e+01   5.1901624569e+01     3.538486     1.932635 -18.34    0.0121438    4.236    0.764
         5 -14.4129    111.8116     40.1827   7.6063126681e+01   5.1776250443e+01     2.264939     1.147294  -9.49  0.006845773    4.682    0.786
         6 -15.1030    122.1769     36.9601   7.2116657962e+01   5.0076119508e+01     1.641436    0.7235356  37.94  0.005504086    2.639    0.621
         7 -16.2038      6.6983     68.2040   1.1784169504e+02   5.9599950592e+01     4.124656    0.6897939 -68.09   0.01408927    4.693    0.787
         8 -14.2027      8.6713     42.8773   1.1200558491e+02   6.4652976293e+01     1.302162    0.9052712 -11.76  0.009302671    1.759    0.432
         9 -15.3404     42.0867      6.5261   8.5466899219e+01   6.8207967248e+01     2.186026      1.25959 -21.51   0.01295331    1.566    0.361
        10 -13.7267      8.6911      3.1348   9.9051234206e+01   7.1868511898e+01    0.7178125    0.5174589  32.88  0.004731356    1.965    0.491
        11 -15.9788     13.5099     19.3714   1.0316270450e+02   6.8788398170e+01      1.26466     0.954219 -38.31  0.005994142    1.043    0.041
        12 -14.7436     22.3688     13.7778   9.7167409811e+01   6.9081627214e+01    0.7577939    0.4381146  33.31  0.003898086    2.226    0.551
        13 -14.8650    166.5910     30.2951   6.0000667715e+01   4.0266967558e+01     1.154479    0.9901257  59.30  0.003459925    1.142    0.125
        14 -14.9720    146.9272     30.4599   6.3952120022e+01   4.5218396811e+01     1.490662    0.8922784  59.73  0.004703486    1.691    0.409
        15 -12.8746    139.3772     21.7596   6.2398128368e+01   4.8176164767e+01    0.5538726    0.3372233  58.90 0.0006701867    1.635    0.388
        16 -13.9156    187.7172     12.4270   5.0767365908e+01   3.6817692010e+01     1.378471    0.9366174  16.65    0.0064714    1.844    0.458
        17 -13.0421    223.3992     21.3200   4.8829119307e+01   2.6459112707e+01     1.233283    0.4556038  48.75  0.004266018    2.992    0.666
        18 -13.6450    190.3087     27.3204   5.5038892855e+01   3.4416925552e+01     1.204761    0.4703565 -42.83  0.003680175    2.695    0.629
        19 -12.9297    195.0090     23.5511   5.3175225259e+01   3.3630225503e+01    0.8797977    0.3689624 -30.88  0.002899618    2.305    0.566
        20 -14.2135    218.9038     15.2484   4.7662451748e+01   2.8313475663e+01      1.24108    0.7212676  29.04  0.005228046    2.448    0.591
        21 -13.4533    215.0099      9.8792   4.6597907904e+01   2.9907754908e+01    0.5425165     0.432432  84.63 0.0004757516    1.217    0.178
        22 -15.7866     98.6695     12.7944   6.8795068550e+01   5.8294936951e+01      1.68128    0.8132058  46.20  0.004478302    1.992    0.498
        23 -12.9613    231.1698      2.4756   4.2934493268e+01   2.6542976110e+01     1.585466    0.3859427  62.78  0.005436259    3.373    0.704
        24 -10.9442    202.1844     11.1264   4.8469222318e+01   3.3132560525e+01    0.2204374    0.1931029  35.69 0.0008615574    1.228    0.186
        25 -12.2384     61.1375     17.7998   8.3152394481e+01   6.4064650172e+01    0.3057822    0.2141106 -45.71            0    1.636    0.389
        26 -11.5801    153.1637      8.2933   5.4789723674e+01   4.6249563869e+01    0.2780874    0.2376076  78.26 0.0007397321    1.243    0.195
        27 -12.1458    119.8212      3.4450   5.9534835904e+01   5.4779850090e+01    0.4273725    0.2920137 -88.31  0.001972461    2.283    0.562
        28 -11.5719     67.6259      3.6186   7.4305238473e+01   6.5001580156e+01     0.271877    0.1965652   2.51  0.001687538    1.252    0.201
        29 -15.2579    211.7458     40.9801   5.5929797126e+01   2.6999349820e+01     2.291298      1.55026  66.49   0.01078751    1.492    0.330
        30 -12.1928     80.8652      1.8111   6.9095536941e+01   6.2943429020e+01    0.5271777    0.1415511  46.31  0.002024469    3.381    0.704
        31 -11.1632     62.4774      1.4961   7.5092046310e+01   6.6069426314e+01     0.221775    0.1524068  15.02 0.0006776721    1.388    0.279
        32 -11.4701     59.4843      1.4955   7.6181929896e+01   6.6525976221e+01    0.2301715    0.1561634  16.85 0.0008581073    1.423    0.297
        33 -12.2351     84.9922    180.4304   1.1480938123e+02   2.7602739674e+01    0.2925054    0.1889874  89.32  0.001727922    1.536    0.349
        34 -12.5916     57.3205    246.8377   1.2518675568e+02   1.9702746762e+01    0.4204979     0.370115  34.67  0.003576447    1.978    0.494
        35 -12.5890     51.8204    246.9934   1.2599110611e+02   2.0338481643e+01     0.359974    0.3321741 -44.62  0.003121313    2.200    0.545
        36 -13.5195     28.2676    246.3861   1.2928068055e+02   2.3084718436e+01    0.4293406    0.2803821  71.71  0.002788196    1.027    0.026
        37 -12.9287     25.8646    238.6180   1.2924621353e+02   2.4550931351e+01    0.4263911    0.1818797 -67.47  0.002887196    2.505    0.601
        38 -12.0896     24.4805    217.1385   1.2834565342e+02   2.8229417246e+01    0.5304856    0.2858456  69.50  0.003885712    1.372    0.271
        39 -13.4177     25.7172    227.4589   1.2870997176e+02   2.6368707943e+01     0.512826    0.2683459 -65.28  0.003657329    2.212    0.548
        40 -13.2127     20.7522    225.1157   1.2931988217e+02   2.7268345646e+01    0.3509492    0.2851807  56.76  0.002021791    1.519    0.341
        41 -11.7592      2.7021    249.8353   1.3284237961e+02   2.5131933226e+01    0.2327422    0.1232589  55.08  0.001709942    1.408    0.290
        42 -14.0567      8.8466    245.5421   1.3187914122e+02   2.5194523712e+01    0.6490934     0.294224  62.19  0.003193592    1.477    0.323
        43 -13.0599     73.9635    153.4874   1.1365284098e+02   3.4625342567e+01    0.5928966    0.4248367  42.07  0.002873983    1.537    0.349
        44 -12.2740     77.3638    157.1320   1.1342057485e+02   3.3394260675e+01    0.3642249    0.2612331  38.74  0.001447433    1.607    0.378
        45 -11.6818    109.4898    153.4966   1.0599226697e+02   2.9224363514e+01    0.2990711    0.2025054 -86.73  0.001544292    1.706    0.414
        46 -11.1750     56.4991    154.9677   1.1752943883e+02   3.6542367430e+01    0.3118452    0.1432776 -51.25  0.001527376    2.595    0.615
        47 -11.9168     85.4774    153.1918   1.1113805854e+02   3.3065002483e+01    0.3848489     0.259023 -53.22  0.001950236    1.590    0.371
        48 -11.8870    103.4808    150.1584   1.0674982242e+02   3.0915206288e+01    0.3608758    0.2713589 -40.57  0.002007181    1.679    0.404
        49 -11.1912      7.2451    148.1481   1.2687539586e+02   4.2795282223e+01    0.2783149    0.1271924 -79.67  0.001696611    1.652    0.395
        50 -11.5684     63.0028    147.3587   1.1520017397e+02   3.7354038841e+01     0.168772    0.1426076  78.78  0.000416987    1.095    0.086
        51 -11.5170    148.7959    140.7137   9.5031687694e+01   2.4515115939e+01    0.2947476    0.2009321 -59.72  0.001421158    1.614    0.381
        52 -11.5442     88.8576    140.6639   1.0845296372e+02   3.5232742174e+01    0.2726983    0.1989855 -39.09  0.001497898    1.789    0.441
        53 -12.5421     41.8560    137.0237   1.1854350467e+02   4.1990042587e+01    0.5564792    0.3185789 -55.77  0.003271547    1.732    0.423
        54 -11.6645     46.7234    134.7548   1.1717052191e+02   4.1961976955e+01    0.4471793    0.1434266 -58.79  0.001995251    2.598    0.615
        55 -11.9990    245.7627    134.8813   7.4946287455e+01   4.7438825091e+00    0.2544319    0.1957081  87.43  0.001255309    2.141    0.533
        56 -11.1120     63.1175    134.5648   1.1340123524e+02   4.0097784446e+01    0.2825916     0.180817  60.07  0.001616606    1.620    0.383
        57 -11.2830     11.0642    134.0369   1.2492420217e+02   4.5395780173e+01    0.1643619    0.1211189 -83.57 0.0005068057    1.039    0.038
        58 -10.4735    138.4793    132.5534   9.5593868196e+01   2.8239083161e+01    0.1419084    0.1365075  76.14 7.885393e-05    1.029    0.028
        59 -11.9918    132.8759    128.4943   9.5996822626e+01   3.0186207812e+01    0.7568759    0.2722978 -43.93  0.002642973    2.974    0.664
        60 -13.9444    106.8178    123.9094   1.0116337246e+02   3.5971022791e+01     1.516346    0.9669188  42.45  0.007582079    1.656    0.396
        61 -14.7671    106.8212    107.4803   9.7589112479e+01   3.9537561688e+01     1.664088     1.045107 -52.03  0.007971141    1.492    0.330
        62 -13.1014     85.4475    115.4643   1.0472663905e+02   4.1257929183e+01    0.8861472    0.5779724  20.27  0.004226524    2.380    0.580
        63 -13.7326     91.8815    109.2342   1.0180203216e+02   4.1644832393e+01     1.366449    0.8505454  38.01  0.006871675    1.808    0.447
        64 -14.4516      2.4606     97.3851   1.2316083126e+02   5.3693490446e+01     1.151929    0.5319037 -80.53  0.004069583    1.767    0.434
        65 -14.8277     20.6157     96.7698   1.1836843129e+02   5.2611866642e+01     1.176137    0.6838958 -86.42   0.00587894    1.665    0.399
        66 -14.5260     28.7650     92.6924   1.1553995858e+02   5.2851276069e+01     1.039996    0.6686991 -81.35  0.005809182    1.446    0.309
        67 -11.4337     59.5806    125.5294   1.1287391449e+02   4.2507594335e+01    0.3002514    0.2184222 -24.53  0.001356837    2.229    0.551
        68 -15.0391     18.0011    110.6987   1.2088758892e+02   4.9808207439e+01      1.25141    0.9246968 -89.00  0.006355446    1.156    0.135
        69 -11.1418    184.9842    124.0431   8.3611358807e+01   1.9885806880e+01    0.2848653    0.2026979  80.59 0.0008532093    2.051    0.513
        70 -11.5806    180.9946    121.2987   8.3767902760e+01   2.1298777759e+01    0.3576404    0.2441994  52.65  0.001146317    1.463    0.316
        71 -13.9258     30.1693    118.5165   1.1893059052e+02   4.7114874966e+01      3.19935    0.3410009 -59.95   0.01084599    4.584    0.782
        72 -12.2672      4.1963    119.9150   1.2511547807e+02   4.8839556878e+01    0.3874952    0.1697448  26.59  0.002274127    3.011    0.668
        73 -12.0677     44.9654    110.4726   1.1412627097e+02   4.7454020661e+01    0.4449565    0.3352071 -68.96  0.002907315    1.079    0.074
        74 -11.7039    176.3712    110.7723   8.2115093487e+01   2.4331684858e+01    0.3666067    0.3199361  19.79   0.00187915    1.248    0.198
        75 -11.7508    121.0113    111.6961   9.5031644006e+01   3.6030125853e+01    0.3433923    0.2327123  72.09  0.001556513    1.958    0.489
        76 -12.0789     61.6570    108.4807   1.0948838137e+02   4.6024704518e+01    0.5859815    0.2910213 -61.68  0.002918818    1.711    0.416
        77 -12.5676     62.5041     99.5888   1.0756278502e+02   4.7889508636e+01     0.648156    0.3861431  78.95  0.002992233    2.629    0.620
        78 -12.5385     43.4083     91.2045   1.1120436693e+02   5.1846095173e+01    0.8664669    0.2309798 -64.27  0.003180373    3.394    0.705
        79 -13.0034     50.6138     98.9309   1.1066230351e+02   4.9403356144e+01    0.6519889    0.4600372  -6.75  0.002663526    2.307    0.567
        80 -12.0382     48.9274     94.0525   1.1020515792e+02   5.0656870677e+01    0.3896112    0.2516457  83.14  0.001358787    1.984    0.496
        81 -13.0170    120.9640    102.5258   9.2821449798e+01   3.7987704803e+01    0.6958916    0.3047462  39.57  0.002637686    2.579    0.612
        82 -12.5451    135.9439    103.3040   8.9334002343e+01   3.4809571243e+01    0.6060671    0.3408029  48.32  0.001632144    1.821    0.451
        83 -11.8435    249.6084    100.8134   6.6241335639e+01   8.9678496117e+00    0.2162005     0.120559 -39.79 0.0009552877    1.739    0.425
        84 -12.6013    137.7066     95.8360   8.6944890184e+01   3.5965907358e+01    0.4292341    0.3703945 -82.67  0.001110415    1.314    0.239
        85 -10.5714    161.8473     96.6927   8.1556410706e+01   3.0396096349e+01    0.3146861    0.1303427  44.26  0.001084734    2.516    0.603
        86 -11.9243    128.0051     95.8672   8.9341155043e+01   3.7983482217e+01    0.4024452    0.2173851  59.98  0.001567532    2.430    0.589
        87 -13.3385    112.0355    101.0080   9.4708455238e+01   3.9994654405e+01     0.495085     0.428283  89.61  0.002092641    1.259    0.206
        88 -11.6478     89.3822     87.2401   9.7306977282e+01   4.6828564790e+01     0.371568    0.2409923  48.66  0.001756259    1.740    0.425
        89 -13.5148    188.4328     84.4651   7.2558160642e+01   2.6218182069e+01    0.9974552     0.791651  83.56  0.004698178    1.541    0.351
        90 -13.4198    164.2399     71.5811   7.3789110785e+01   3.4476870468e+01     1.367046    0.5417524  45.70  0.004656326    2.608    0.617
        91 -14.1835    160.9614     80.6564   7.7219738610e+01   3.3633548228e+01     1.255946    0.7402714  31.46  0.004887127    2.217    0.549
        92 -14.0402    169.4521     76.9995   7.4291622646e+01   3.2236563218e+01    0.7329724    0.6320375  78.31  0.002403521    1.302    0.232
        93 -13.7337    176.9978     75.9631   7.2408396289e+01   3.0550332972e+01    0.6504064    0.5007843  74.45  0.001614903    1.519    0.342
        94 -12.5463    131.6553     85.8327   8.5668581260e+01   3.9270443385e+01    0.5877786    0.3624012  63.11   0.00240811    2.088    0.521
        95 -11.7883    241.7948     84.0034   6.3201363444e+01   1.3258214859e+01    0.3601232    0.2073878  58.30  0.001594649    1.860    0.462
        96 -13.0036    237.5488     80.2884   6.2882569082e+01   1.4816073552e+01    0.5607194    0.4263918  88.88  0.002453981    1.685    0.406
        97 -10.3837     98.4207     84.1498   9.3979316626e+01   4.5996386707e+01    0.1930932    0.1256115 -60.04 0.0004255238    1.619    0.383
        98 -13.0569    135.0804     79.6538   8.3021892742e+01   3.9756813260e+01    0.8699396    0.4329091  53.64  0.002886111    2.209    0.547
        99 -13.7014    131.8154     66.6348   7.9849622156e+01   4.2943262148e+01     1.253006    0.9379942  45.56  0.006196491    1.375    0.272
       100 -11.9873     40.4392    243.6676   1.2743500317e+02   2.2168451851e+01     0.305234    0.1553983  89.45  0.002211664    1.722    0.419
       101 -14.0432     95.3545    237.8625   1.1875959877e+02   1.6088713499e+01    0.5835679    0.3400257  55.29  0.001866139    1.290    0.225
       102 -13.1333     39.0467     67.9321   1.0760368856e+02   5.7271682693e+01    0.7567796     0.374599  26.98  0.004030398    2.548    0.608
       103 -11.3886    147.1934    239.1741   1.1053611800e+02   8.0327832654e+00     0.156921     0.110002  63.69  0.000883833    1.334    0.250
       104 -14.8477     57.1191     73.8539   1.0337875542e+02   5.4126032644e+01     1.405285    0.9273052 -59.15  0.005136835    1.322    0.244
       105 -11.5857    247.0098    234.7546   9.3745327959e+01  -7.6716984151e+00    0.1539149   0.07461162  40.78 0.0008930786    1.623    0.384
       106 -13.3877    123.9890    166.3452   1.0502701493e+02   2.4136164299e+01    0.6110761    0.3891085 -67.09  0.003183498    1.711    0.416
       107 -13.5334     67.4665    222.8958   1.2198620950e+02   2.2271094472e+01    0.6690267    0.4565351  42.53  0.004797976    1.639    0.390
       108 -12.2017    219.0282     74.9962   6.4394796246e+01   2.0134684060e+01    0.4628853    0.3435489 -39.40  0.001659719    1.311    0.237
       109 -12.5246    216.9204     81.4415   6.6503180701e+01   1.9636522390e+01    0.5403519    0.3994817 -43.83  0.000638394    1.358    0.263
       110 -12.7576    210.1725     77.6073   6.6609842783e+01   2.1929999548e+01    0.6548647    0.4386114 -69.64  0.002716096    2.121    0.529
       111 -13.9464     62.9983    214.8554   1.2208476141e+02   2.4212457051e+01    0.6903254    0.3819692  62.81  0.004330899    1.450    0.311
       112 -12.7421     94.5225    218.7507   1.1716548938e+02   1.9272494846e+01    0.2917657    0.1940435  60.34  0.001400966    1.180    0.153
       113 -11.1565     85.4663    215.9645   1.1843223619e+02   2.1031176205e+01    0.2285874    0.1204763  58.85  0.001381236    1.572    0.364
       114 -11.7559    238.3880    215.2074   9.2006959873e+01  -4.2858011847e+00    0.1471916    0.1089222 -36.38  0.000957931    1.722    0.419
       115 -13.1440      9.4628    210.8376   1.3029869567e+02   3.0790047312e+01    0.5951954    0.2358055  47.33  0.003980197    2.081    0.519
       116 -11.8042     72.5174    207.4084   1.1985965646e+02   2.4289213296e+01    0.3549719      0.23369  87.05  0.002421853    1.348    0.258
       117 -11.7726    113.9038     80.1925   8.8650508524e+01   4.3998904463e+01    0.4140939    0.3351249 -47.29  0.001687166    1.170    0.145
       118 -12.0230     41.9770     77.2971   1.0880460810e+02   5.5002257918e+01    0.3436725    0.2191172 -59.84  0.001236656    1.262    0.207
       119 -14.1222    197.9682     70.6555   6.6810036851e+01   2.6140352043e+01     1.217275    0.6826208  35.46  0.004182759    2.217    0.549
       120 -11.1925     23.0983     75.1910   1.1409613670e+02   5.7062781284e+01    0.1775165    0.1243994 -50.76 0.0005366587    1.239    0.193
       121 -11.7394    240.7480     71.0613   5.9999829062e+01   1.5430059772e+01    0.3691325    0.2317775 -80.55  0.001497671    2.528    0.604
       122 -11.5330    158.2679     63.9369   7.2732998301e+01   3.7269689250e+01    0.3772426    0.2343804 -46.34  0.001551628    1.695    0.410
       123 -13.4291     79.4029     60.3193   9.2646441631e+01   5.3938113925e+01    0.8169922     0.478513 -33.83  0.003999494    1.721    0.419
       124 -11.3686     85.7941     50.1925   8.7331666717e+01   5.4865391938e+01    0.3961837    0.2285435 -35.80  0.001812619    1.595    0.373
       125 -13.9728    178.0041     57.4831   6.6618757920e+01   3.3377161322e+01    0.9739311     0.679427 -46.58  0.002484627    1.501    0.334
       126 -12.0293     39.2885     60.6276   1.0573804811e+02   5.8771783292e+01    0.3096987    0.2063632  58.44  0.001783578    2.192    0.544
       127 -12.7747     24.4645     59.9348   1.1049920266e+02   6.0165802328e+01     0.303155     0.176182 -54.42 0.0008566694    1.296    0.228
       128 -12.6309    248.0967     51.7666   5.3985916026e+01   1.6407276859e+01    0.6728085    0.4306833 -24.11  0.003222517    1.568    0.362
       129 -11.3800    231.7009     55.5763   5.7162770846e+01   1.9877641893e+01    0.2783987    0.1353688  57.00 0.0008405218    2.060    0.515
       130 -10.4172     36.6397     54.2248   1.0495560075e+02   6.0325320409e+01    0.1772587    0.0855468 -49.47 0.0009403377    1.602    0.376
       131 -11.6428    136.0950     49.7755   7.3209363013e+01   4.4925668622e+01    0.3325188    0.2419644  34.51  0.001180452    1.445    0.308
       132 -10.7424     23.3323     50.0299   1.0849977211e+02   6.2270741624e+01    0.1668082    0.1161663 -53.68 0.0004996319    1.092    0.084
       133 -13.8349    157.3250     44.3719   6.6567174408e+01   4.0658745135e+01     1.366491      0.60347  43.77   0.00499808    2.384    0.581
       134 -11.7475     45.5495    208.9280   1.2450375926e+02   2.7361531472e+01    0.2697094      0.12027 -87.71  0.001554636    2.193    0.544
       135 -10.7037    136.5413    211.0730   1.0900730982e+02   1.3965967867e+01    0.1591181    0.1178227 -62.02  0.000994073    1.565    0.361
       136 -11.0236     80.4495    208.3208   1.1857781176e+02   2.3055035351e+01    0.2043592    0.1024062  60.48  0.001009814    1.750    0.429
       137 -10.7096    149.4313    206.8652   1.0614383907e+02   1.2439495945e+01    0.2156299    0.1245258  43.87 0.0006768344    1.489    0.328
       138 -12.7038     57.2764    203.5068   1.2213266122e+02   2.6937695443e+01    0.4514175    0.2231572 -85.65  0.002662022    1.975    0.494
       139 -12.6383     16.7148    195.8137   1.2836190917e+02   3.2767780334e+01    0.7973668    0.1973898 -72.19  0.003986264    3.190    0.687
       140 -13.7307     30.0545    169.3766   1.2419123803e+02   3.6496157108e+01    0.4800935    0.3228073 -54.09   0.00132145    1.908    0.476
       141 -13.8194     20.5486    160.4031   1.2525897997e+02   3.9197404540e+01     2.263818     1.554758 -25.95   0.01373248    3.217    0.689
       142 -13.2726     22.3844    181.2084   1.2647435042e+02   3.4946586228e+01    0.4750228    0.3816218 -79.54  0.002674037    1.343    0.255
       143 -11.3734     25.6354     43.3131   1.0586541604e+02   6.3429382401e+01    0.2294323    0.1111287 -53.71 0.0005789354    1.564    0.361
       144 -13.2347     76.1915     37.5039   8.5862607254e+01   5.8657408240e+01    0.3454312    0.2869447  36.48  0.001051888    1.364    0.267
       145 -12.5139     70.5713     36.3966   8.7336038004e+01   5.9697057265e+01    0.3936142    0.2767926 -25.28  0.001468854    1.310    0.237
       146 -12.7489     35.9784     35.6473   9.9622554528e+01   6.4005253004e+01    0.4918442    0.2795559 -30.22  0.002549504    1.727    0.421
       147 -12.7651    242.4143     35.9277   5.0544432207e+01   1.9877871215e+01    0.7504781    0.3548506  69.43  0.002991101    2.248    0.555
       148 -11.1908    245.8941     30.6447   4.8778811030e+01   1.9692479645e+01    0.2581479     0.191684 -28.96 0.0007071443    1.320    0.242
       149 -12.7347     45.9938     33.7969   9.5191999658e+01   6.3318395599e+01    0.5575331    0.2970839 -31.53  0.002975308    1.799    0.444
       150 -13.1957     55.8199     27.4595   8.9130753066e+01   6.3249458521e+01     0.467435    0.3156547  35.83  0.001612233    1.724    0.420
       151 -11.4220     89.3031     30.0531   7.8752427706e+01   5.7687473317e+01    0.2299763    0.1887942  29.24            0    1.247    0.198
       152 -11.5147     97.5495     26.6190   7.4881208668e+01   5.6675693974e+01    0.2987979    0.2731975 -53.04  0.001767324    1.360    0.264
       153 -11.6144     90.6607     80.3227   9.5119912567e+01   4.8092376859e+01    0.3935541    0.3149864  -5.18   0.00213908    1.598    0.374
       154 -11.1927     65.2085     24.5348   8.4534931939e+01   6.2443561433e+01    0.2829249    0.1804643 -18.15  0.001557858    1.579    0.367
       155 -11.1744     75.2415     23.4207   8.0593885264e+01   6.1083526289e+01    0.2229389    0.1193289  37.27 0.0007395188    1.988    0.497
       156 -14.5403      8.3194    183.4792   1.2903107356e+02   3.5815639308e+01    0.7507903    0.7000137  78.09  0.006803671    1.562    0.360
       157 -13.3999     15.6980    175.5850   1.2726581820e+02   3.6653014528e+01     0.594623    0.2839751  66.65  0.002940388    1.815    0.449
       158 -10.3939    247.8122     17.6144   4.5251208698e+01   2.0783973058e+01    0.1922218    0.1232904 -89.76 0.0009465834    1.674    0.403
       159 -11.6585     70.7956     16.6953   7.9227809162e+01   6.2777104692e+01    0.2326168    0.1926642 -15.89  0.000504071    1.052    0.050
       160 -11.9922    248.5862    196.6625   8.7116656544e+01  -3.9169740431e+00    0.4059595    0.2349667 -38.25   0.00225085    2.102    0.524
       161 -11.4962     45.9087    198.3263   1.2366089415e+02   2.9235668358e+01     0.285789     0.131171 -80.75  0.001678497    1.986    0.497
       162 -11.5596    163.6730    194.9052   1.0178790263e+02   1.1809423177e+01    0.3010946    0.1939802 -85.25  0.001404711    2.793    0.642
       163 -12.7827     40.3773    195.2118   1.2437013235e+02   3.0436247245e+01    0.4374903    0.1565866 -84.88  0.002068948    3.135    0.681
       164 -11.9633    201.2417    191.6655   9.4372401338e+01   5.2872485815e+00    0.3143249    0.2597216  35.13  0.001967501    1.038    0.037
       165 -11.5889     98.8400    186.9898   1.1294178742e+02   2.4287232694e+01    0.1810203    0.1399167 -36.67  0.001074779    2.034    0.508
       166 -11.7134     49.0409    181.4966   1.2171123020e+02   3.2059061402e+01    0.3330559    0.2114837 -57.13  0.002151253    1.878    0.468
       167 -10.2159    107.7009    192.6616   1.1196627080e+02   2.1854383671e+01    0.1065766    0.0986793 -10.88 0.0007034405    1.661    0.398
