#   1 NUMBER                 Running object number                                     
#   2 MAG_AUTO               Kron-like elliptical aperture magnitude                    [mag]
#   3 X_IMAGE                Object position along x                                    [pixel]
#   4 Y_IMAGE                Object position along y                                    [pixel]
#   5 X_WORLD                Barycenter position along world x axis                     [deg]
#   6 Y_WORLD                Barycenter position along world y axis                     [deg]
#   7 A_WORLD                Profile RMS along major axis (world units)                 [deg]
#   8 B_WORLD                Profile RMS along minor axis (world units)                 [deg]
#   9 THETA_WORLD            Position angle (CCW/world-x)                               [deg]
#  10 FWHM_WORLD             FWHM assuming a gaussian core                              [deg]
#  11 ELONGATION             A_IMAGE/B_IMAGE                                           
#  12 ELLIPTICITY            1 - B_IMAGE/A_IMAGE                                       
         1 -14.2823    203.7619     18.8005   6.1883469780e+01   3.2459549079e+01     2.336686     1.569271  26.19   0.01106149    2.570    0.611
         2 -13.5443    209.4212     12.6746   5.9891342979e+01   3.1839293176e+01     1.163835    0.6231035  50.94  0.001366422    2.156    0.536
         3 -12.6614      4.0938      6.4298   1.0988893911e+02   7.1518062899e+01    0.6742843    0.4011672 -29.19  0.004920362    1.309    0.236
         4 -11.5997    190.5166     15.8552   6.2724506909e+01   3.5896804499e+01    0.3228836    0.2450934 -81.92  0.001214172    1.221    0.181
         5 -11.3035     16.7454      3.3555   1.0244421926e+02   7.0769116568e+01    0.2130378    0.1577876  -1.27  0.001259195    1.080    0.074
         6 -11.1977     69.0382    227.9026   1.3635014587e+02   1.8217648833e+01    0.2689415     0.167177  69.33  0.001493448    1.507    0.336
         7 -10.2183    185.2398    250.2274   1.1618350247e+02  -4.9229982294e+00    0.2075572   0.08556666  47.07 0.0008881406    2.447    0.591
         8 -12.6915    138.8111    248.3555   1.2499328850e+02   3.1444239119e+00    0.6499563    0.5280507  57.79  0.004085549    1.137    0.120
         9 -12.1214    126.5389    248.2321   1.2738426321e+02   5.2109961426e+00    0.4681775    0.3125452 -62.57  0.002679456    1.724    0.420
        10 -12.4681    107.9993    246.3408   1.3076887189e+02   8.5837657634e+00     0.484166    0.3507546  73.38  0.002009814    1.374    0.272
        11 -13.0115    100.8091    248.8062   1.3243557221e+02   9.2586538593e+00    0.7922663    0.5506002  70.95  0.004730447    1.389    0.280
        12 -12.7480     92.6838    249.4251   1.3404734461e+02   1.0400404555e+01    0.9984958    0.3013889  42.35  0.000383778    2.758    0.637
        13 -13.2538     88.9258    244.4428   1.3423335444e+02   1.1930874976e+01    0.9270956    0.3982946  55.20  0.001387266    2.201    0.546
        14 -15.1196     26.3536    243.8197   1.4552541575e+02   2.0456954415e+01      10.1636     2.964041  30.31   0.03095598    8.700    0.885
        15 -15.0355     46.9880    215.6302   1.3947212331e+02   2.3811745212e+01     2.294316     1.772589  66.79   0.01066254    1.123    0.110
        16 -11.6154     99.0920    236.6942   1.3138311250e+02   1.1875327265e+01    0.3094939    0.2186554  77.57 0.0006616463    1.431    0.301
        17 -10.7591    227.3898    203.3308   9.9832704851e+01  -4.3375849685e+00    0.2678201    0.2221442 -55.09 0.0005065083    1.531    0.347
        18  -9.8845    191.8874    193.0020   1.0483307329e+02   3.9258493714e+00    0.3415962    0.1928006 -65.12  0.001233598    3.343    0.701
        19 -11.6418     65.3395    192.5943   1.3306469223e+02   2.6581968535e+01    0.4064674    0.2576361 -45.92  0.002051101    1.980    0.495
        20 -11.6890     70.5279    185.5988   1.3096238372e+02   2.7492043275e+01    0.3091639    0.2509923 -47.94 0.0008802327    1.446    0.308
        21  -8.6398    181.4792    192.4928   1.0691530090e+02   6.0249108047e+00    0.1436923    0.1380506  20.61 0.0001723461    1.002    0.002
        22 -11.1080     79.8644    173.8566   1.2702139563e+02   2.8921469195e+01     0.260059    0.2313603 -72.62 0.0003693787    1.085    0.078
        23 -13.2893     67.1755    171.2334   1.2968998810e+02   3.1404723278e+01     0.533081     0.286179 -44.82  0.001647728    2.250    0.556
        24 -12.2294     87.0144    165.5967   1.2389559056e+02   2.9810039565e+01    0.9676017     0.578823  58.34  0.003265665    1.888    0.470
        25 -13.0933     67.7978    144.5700   1.2513850039e+02   3.7816957356e+01     1.217434    0.7073354 -89.66  0.002620966    2.555    0.609
        26 -12.1811     58.2104    132.4703   1.2552835907e+02   4.2020483777e+01     3.073718    0.9377545 -70.24  0.005592831   11.933    0.916
        27  -9.9490     99.5276    149.5023   1.1766990254e+02   3.1646150979e+01    0.2927556    0.2623145 -62.51 0.0007797946    1.057    0.054
        28  -9.3827    102.3773    145.7896   1.1615784127e+02   3.2046095391e+01    0.3270096    0.2082841 -28.11  0.001276776    2.326    0.570
        29 -12.1505     88.2604    148.6122   1.2045363562e+02   3.3754817142e+01    0.3028382    0.2551488 -41.90 0.0005086057    1.269    0.212
        30 -11.0283     39.0924    146.9352   1.3309402295e+02   4.0743645404e+01    0.3160436     0.161308  45.00  0.001539519    2.167    0.539
        31 -12.9329     62.5601    217.5242   1.3655260524e+02   2.1343894829e+01     1.160329    0.3192383  44.58  0.002907479    3.093    0.677
        32  -9.6321    110.4581    135.5573   1.1178044485e+02   3.3029072044e+01    0.3259571    0.2267144 -15.46   0.00119255    2.282    0.562
        33 -10.6788     68.9214    134.9357   1.2301715459e+02   4.0003220662e+01    0.2530596      0.20459  36.36  0.000537283    1.381    0.276
        34 -10.5789     97.9676    132.4467   1.1445414822e+02   3.6036298950e+01    0.2860739    0.2449638 -23.85  0.000897326    1.343    0.255
        35 -13.1604      5.6754    246.0739   1.4906776685e+02   2.2273451248e+01     1.657095    0.7177612 -89.65  0.009682577    1.947    0.486
        36  -9.3710    107.3529    122.8390   1.0963361112e+02   3.6606220829e+01    0.2066343    0.1764982 -46.26  0.000356633    1.128    0.114
        37 -11.2405    168.0126    113.0295   9.1931468087e+01   2.5780776578e+01    0.3809517    0.3133178 -80.80 0.0009311039    1.397    0.284
        38  -9.6254    204.9210    110.9132   8.3942544303e+01   1.7679251147e+01    0.4136451    0.1815176  41.51  0.001446702    2.888    0.654
        39 -10.9929      2.1160    102.6428   1.3659695894e+02   5.4001007808e+01    0.2306274    0.2111945  52.16  0.001579803    1.380    0.275
        40 -12.8144     39.4298    225.1955   1.4178656652e+02   2.2699252864e+01    0.3721707    0.2864762 -71.05 0.0007673642    1.369    0.269
        41 -10.5918      1.7807     90.0979   1.3462843591e+02   5.6743823402e+01    0.2712128    0.1153789 -68.21  0.001377514    1.987    0.497
        42 -11.1202      2.0609     78.9948   1.3247644153e+02   5.9066950075e+01    0.4922843    0.1123271 -63.33   0.00193336    3.346    0.701
        43  -9.4633    157.4771     77.4996   8.4719220751e+01   3.5161464963e+01     0.148517    0.1441568  74.13 5.333492e-05    1.008    0.008
        44  -9.5376    109.6150     43.0247   8.5557842301e+01   5.1403686570e+01    0.2072715    0.1755363  56.91 0.0004692955    1.252    0.201
        45 -10.7523    245.2429    249.1237   1.0482811217e+02  -1.3875820081e+01    0.2053497    0.1530605  53.01  0.001255638    2.148    0.534
        46 -10.2826    161.8062    249.3719   1.2061825798e+02  -8.9559425741e-01    0.1916856    0.1061067  32.99 0.0007792932    1.725    0.420
        47 -15.9373      7.6022    198.2808   1.4567235440e+02   3.1926607642e+01     8.355001     1.522795 -71.52   0.01867711    3.913    0.744
        48 -10.3354    198.4879    246.5078   1.1304873455e+02  -6.5033711130e+00    0.1267428    0.1071715  22.98 2.064372e-05    1.003    0.003
