#   1 NUMBER                 Running object number                                     
#   2 MAG_AUTO               Kron-like elliptical aperture magnitude                    [mag]
#   3 X_IMAGE                Object position along x                                    [pixel]
#   4 Y_IMAGE                Object position along y                                    [pixel]
#   5 X_WORLD                Barycenter position along world x axis                     [deg]
#   6 Y_WORLD                Barycenter position along world y axis                     [deg]
#   7 A_WORLD                Profile RMS along major axis (world units)                 [deg]
#   8 B_WORLD                Profile RMS along minor axis (world units)                 [deg]
#   9 THETA_WORLD            Position angle (CCW/world-x)                               [deg]
#  10 FWHM_WORLD             FWHM assuming a gaussian core                              [deg]
#  11 ELONGATION             A_IMAGE/B_IMAGE                                           
#  12 ELLIPTICITY            1 - B_IMAGE/A_IMAGE                                       
         1 -11.3728    215.7745     24.3355   4.4317690206e+01   2.8125785057e+01      1.12415    0.7164707  35.41  0.003965907    2.200    0.545
         2 -10.3694    230.0375     12.4700   3.9983827716e+01   2.6078355029e+01    0.4811011    0.3712235  -1.48  0.002229959    1.820    0.451
         3 -10.6160    226.5904      9.5333   3.9577845808e+01   2.7213757963e+01    0.5860772    0.4725645 -12.29  0.002650405    1.580    0.367
         4  -7.9684    134.6088     13.5479   5.2699796220e+01   4.9926941776e+01    0.2225153    0.1848537  66.76  0.000668782    1.164    0.141
         5 -10.1219      3.6324    241.5302   1.3109623606e+02   2.4207066445e+01     0.340966    0.2178579 -59.73   0.00248791    2.267    0.559
         6  -7.5343     80.3151    250.3686   1.1893366100e+02   1.3666191948e+01    0.1405661    0.1306943  17.49 0.0008331653    1.658    0.397
         7  -8.0722     17.6369    249.3311   1.2924664606e+02   2.1443878899e+01    0.1855017   0.07675669 -87.20  0.001128064    2.190    0.543
         8 -10.0614      4.4140    248.9325   1.3126237594e+02   2.2851124840e+01    0.3738272    0.2399513  51.08  0.002074237    1.368    0.269
         9  -7.3831    194.5469    240.4904   9.6975148686e+01  -2.4460997104e+00    0.1214838   0.09656178  28.23 7.930894e-05    1.006    0.006
        10  -8.6088    240.9885    234.2716   8.7793559354e+01  -8.7363048108e+00    0.1632133    0.1219153  18.00 0.0004071201    1.046    0.044
        11  -7.2650    233.6469    238.3010   8.9705615236e+01  -8.1389182424e+00    0.1032528   0.08814045  48.58 6.016149e-05    1.701    0.412
        12  -9.0703    118.6735    231.5645   1.1006036421e+02   1.1210099223e+01    0.2706109    0.1820182  49.70 0.0005924046    1.216    0.178
        13  -9.8231      5.1527    227.8501   1.3028506777e+02   2.6519630925e+01    0.2804059    0.1394665 -72.80  0.001861031    1.914    0.478
        14  -9.2013     23.9933    226.0310   1.2703079540e+02   2.4958286151e+01    0.2825567    0.1961983 -76.23  0.001404018    1.468    0.319
        15  -8.1198     97.0565    227.0023   1.1370345511e+02   1.5356353226e+01    0.1466326    0.1207669  66.19  0.000604078    1.051    0.048
        16  -7.5295    110.2169    223.7946   1.1079391914e+02   1.3919483098e+01    0.1752847   0.09065724 -48.37 0.0008691264    2.486    0.598
        17  -8.4480    228.4966    222.2514   8.7948914756e+01  -5.4123570653e+00    0.2019923    0.1757762  36.89 0.0003035696    1.386    0.278
        18  -7.9341      1.7593    223.0250   1.3063219030e+02   2.7733236421e+01    0.1324269   0.06720883 -87.27 0.0004207418    1.580    0.367
        19 -10.4406     54.7560    209.7754   1.2023917211e+02   2.4563906456e+01    0.9294416    0.3117303  62.36  0.003396032    4.197    0.762
        20  -9.0557     27.4825    215.5642   1.2579060253e+02   2.6591815078e+01    0.3713012    0.1484683  72.44  0.001834807    2.573    0.611
        21 -10.2543     33.0042    213.1615   1.2462509096e+02   2.6461340380e+01    0.3260683    0.2683097 -45.23 0.0009104213    1.920    0.479
        22 -11.8260     42.8370    201.8926   1.2190819507e+02   2.7620770988e+01     1.124426    0.7298109  78.46  0.007124443    1.304    0.233
        23 -10.6221     11.1439    206.8465   1.2822107147e+02   2.9968220792e+01    0.5090564    0.2517285  39.66   0.00219916    1.982    0.496
        24  -9.2073    226.7561    204.4559   8.5115071934e+01  -2.7510041150e+00    0.2811159    0.2607416 -85.14 0.0009828934    1.720    0.419
        25  -8.8496    123.9804    205.9990   1.0573058809e+02   1.4997665698e+01    0.1872112    0.1617853  54.32  0.001155442    1.013    0.013
        26  -9.0244    215.1980    199.2108   8.6270558254e+01  -4.2718759856e-02     0.273699    0.1889032  41.69 0.0004178324    1.420    0.296
        27  -7.5660    139.1755    198.8617   1.0148211779e+02   1.3721899773e+01    0.1713536    0.1569997   2.03  0.000396213    1.297    0.229
        28 -10.5077    246.3108    197.1304   8.0302695203e+01  -4.9010794634e+00    0.2266324    0.1939296  11.59 0.0001734025    1.133    0.118
        29  -9.0945    216.0618    194.4298   8.5214066319e+01   5.2731487325e-01    0.2233986    0.1947811 -19.48 0.0001772594    1.184    0.156
        30  -8.8544    216.6618    189.6792   8.4194078468e+01   1.1492494765e+00    0.2779148    0.2116718   4.63 0.0005169281    1.313    0.238
        31  -6.8169     97.0008    190.0000   1.0928405828e+02   2.2679388627e+01    0.2049586   0.07021497  39.18 0.0003219942    2.757    0.637
        32 -10.2373    184.1919    185.6095   8.9764620866e+01   7.8068890743e+00    0.2415576     0.232872 -14.49 0.0004347101    1.119    0.106
        33  -8.4020    136.6957    185.9629   9.9923995390e+01   1.6699589607e+01    0.2224823    0.1832464  42.78 0.0005150551    1.134    0.118
        34  -8.5058    243.0506    185.0625   7.8531500889e+01  -2.7009518304e+00    0.1885999    0.1674262   0.47 0.0004487947    1.132    0.117
        35  -8.9160     60.6779    184.3357   1.1654087923e+02   2.9166105705e+01    0.2929309    0.2233997 -47.46  0.001756577    1.698    0.411
        36  -8.2776      2.1367    213.1584   1.3012516464e+02   2.9570568891e+01     0.151437      0.11964  88.30 0.0008947387    1.259    0.206
        37  -7.8482      1.6841    183.1460   1.2864777222e+02   3.5657002183e+01    0.1835588    0.1016755  78.24 0.0006923203    1.431    0.301
        38  -9.2517     69.4332    181.8371   1.1432927361e+02   2.8545480653e+01    0.2166737    0.1915579  78.24 0.0003244425    1.089    0.082
        39  -9.1437     66.1542    178.1358   1.1461770074e+02   2.9814918008e+01    0.2438189    0.2058011 -67.16 0.0004721065    1.254    0.203
        40  -8.7635    205.0047    169.6425   8.2409915558e+01   6.5901136269e+00    0.2228804    0.1924691 -33.49 0.0007176869    1.199    0.166
        41  -7.1124    190.8042    167.7059   8.4847780698e+01   9.7289731625e+00    0.1932779    0.1744257  89.88  0.001058926    1.409    0.290
        42  -8.5881     76.1937    167.6320   1.1093506427e+02   3.0795224316e+01    0.2428914    0.2069091 -76.95 0.0002603185    1.109    0.099
        43  -8.9518     69.9324    166.2113   1.1222183536e+02   3.2006576789e+01    0.2179822    0.1718596 -69.17 0.0002376236    1.203    0.169
        44 -10.7059     63.2262    164.1201   1.1353455705e+02   3.3395112203e+01    0.4715254     0.255935 -47.93  0.002012472    2.207    0.547
        45  -7.0170    114.4927    165.5992   1.0149026925e+02   2.5059599832e+01    0.1412879    0.1322593  65.19 0.0001582436    1.042    0.040
        46  -9.3062     82.6654    161.2074   1.0843651450e+02   3.1322608169e+01    0.4687844    0.3115945 -43.29  0.001540369    1.835    0.455
        47  -9.8069     12.4717    161.3556   1.2492739738e+02   3.9478673670e+01    0.4166465    0.1486018  71.17  0.001619716    3.831    0.739
        48  -9.3633      9.9579    155.7276   1.2503112578e+02   4.0946356345e+01     0.223125    0.1307842 -60.39  0.001347353    1.649    0.393
        49  -7.9192    232.5150    158.4971   7.4899637133e+01   3.1954765757e+00    0.1406171    0.1216056  -3.23 0.0008100684    1.046    0.044
        50  -9.8090     67.5503    144.9843   1.0969677472e+02   3.7323455806e+01    0.5387929    0.3762647  60.02  0.001758933    1.485    0.326
        51  -7.1425    223.7472    145.3294   7.3568466214e+01   7.0727099529e+00    0.1358028    0.1099344 -58.82 0.0001969045    1.553    0.356
        52  -6.9031    132.7166    162.3992   9.6589856950e+01   2.2388228698e+01    0.1534737    0.1127113  86.23 0.0006993838    1.773    0.436
        53  -7.4661     85.2653    143.9871   1.0492133461e+02   3.4977863193e+01    0.1840558      0.11623 -62.00  0.000877214    1.490    0.329
        54  -9.2478      4.0012    140.4972   1.2513379193e+02   4.4839600463e+01    0.2213918    0.1283483 -69.90   0.00135253    1.377    0.274
        55  -7.4670    108.9719    133.5244   9.6615556114e+01   3.3431832839e+01     0.195334    0.1362122   9.28 0.0006137672    2.335    0.572
        56  -8.1602      6.5021    118.5075   1.2235356013e+02   4.9724509049e+01    0.1215033   0.09288773 -83.38 -0.0001228089    1.065    0.061
        57  -9.6919    207.0864    115.3056   6.9501056071e+01   1.5947607166e+01    0.2627225    0.2532767   3.28 0.0002634604    1.048    0.046
        58  -7.5317    113.4637    113.9545   9.0840641241e+01   3.7132698309e+01    0.2270615    0.1461205 -48.83 0.0003271833    1.498    0.332
        59  -7.9151    211.6994    112.0284   6.7832819443e+01   1.5499415948e+01    0.2148906    0.1869136 -30.91 0.0004480181    1.092    0.084
        60  -7.4175    134.5220    104.9619   8.2842938884e+01   3.4764014993e+01    0.2344173    0.1372947 -22.48   0.00024569    2.721    0.632
        61  -7.3738    234.8253     99.8733   6.0950387669e+01   1.2472736588e+01     0.193777    0.1622191 -64.36 0.0004647295    1.321    0.243
        62  -7.0040     95.9290     94.2291   9.0692733367e+01   4.4924111942e+01    0.1747577    0.1246187  42.27 0.0002829334    1.492    0.330
        63  -9.3410    111.2252     73.6986   7.9951971504e+01   4.6310120615e+01    0.2600598    0.2380304 -19.15 0.0002735322    1.071    0.066
        64  -8.9602    207.5903     67.3821   5.6854403284e+01   2.4120634060e+01     0.400116    0.2607408 -28.76  0.001835371    1.579    0.367
        65  -9.7629    200.9733     36.1367   4.9257489173e+01   3.0330833206e+01    0.3410563    0.3002766   2.68  0.001902409    1.376    0.273
        66 -10.2555    208.0242     31.8750   4.7194184100e+01   2.9109822324e+01    0.5136623    0.3644283  73.42  0.002680123    1.370    0.270
        67 -10.2165    116.4013    246.3474   1.1211720142e+02   9.0959791350e+00    0.2255024    0.1962611 -89.88 0.0002180002    1.288    0.223
        68  -7.2803    175.2356     16.7666   4.7161860664e+01   3.9249840666e+01    0.1854217    0.1516132  42.31 0.0003914288    1.303    0.232
        69  -8.0295    167.1070     15.9778   4.8075750665e+01   4.1428972480e+01    0.2056268    0.1874716  77.38 0.0003956856    1.017    0.017
        70  -7.4042    148.5405    247.5692   1.0636763605e+02   3.8981028685e+00    0.1209338   0.09414687  45.37 7.969662e-05    1.039    0.037
        71  -8.2649     65.1063    243.9756   1.2108243973e+02   1.6795140888e+01    0.1740845    0.1307105  65.08 0.0008020392    1.023    0.022
