#   1 NUMBER                 Running object number                                     
#   2 MAG_AUTO               Kron-like elliptical aperture magnitude                    [mag]
#   3 X_IMAGE                Object position along x                                    [pixel]
#   4 Y_IMAGE                Object position along y                                    [pixel]
#   5 X_WORLD                Barycenter position along world x axis                     [deg]
#   6 Y_WORLD                Barycenter position along world y axis                     [deg]
#   7 A_WORLD                Profile RMS along major axis (world units)                 [deg]
#   8 B_WORLD                Profile RMS along minor axis (world units)                 [deg]
#   9 THETA_WORLD            Position angle (CCW/world-x)                               [deg]
#  10 FWHM_WORLD             FWHM assuming a gaussian core                              [deg]
#  11 ELONGATION             A_IMAGE/B_IMAGE                                           
#  12 ELLIPTICITY            1 - B_IMAGE/A_IMAGE                                       
         1 -14.0445    169.3471     52.5596   6.7334342377e+01   3.6171899972e+01     2.165321       1.3801  18.51  0.006578486    2.300    0.565
         2 -14.1515    183.7201     36.6559   6.0028746906e+01   3.4711903448e+01     1.062891    0.8459677 -34.45  0.003390311    1.263    0.208
         3 -13.6106    188.2338     30.8821   5.7654055757e+01   3.4282818077e+01     0.604788     0.541089 -44.02  0.001460239    1.119    0.106
         4 -13.3854    190.2301     13.4598   5.2319571916e+01   3.5722097878e+01     0.799252     0.634506  22.01  0.003583647    1.520    0.342
         5 -14.5908    205.8202      5.6172   4.8491715017e+01   3.2617905004e+01      1.40373     1.159696  27.91  0.004462312    1.477    0.323
         6 -10.6387     92.7449     14.3508   7.0848464258e+01   5.9387922234e+01    0.2074955    0.2046495  63.10 0.0007660429    1.263    0.208
         7  -9.3911     72.0207      8.7810   7.4735991673e+01   6.4121954536e+01    0.1585866   0.09719411  45.75 0.0003673387    1.597    0.374
         8 -10.1242     98.1038    213.8509   1.1938249480e+02   1.8609784346e+01    0.1952582    0.1638763 -89.57  0.001320944    1.213    0.176
         9 -13.0249    247.3449    246.3995   9.6566305501e+01  -8.8621728138e+00    0.5992043    0.4033153  -6.96  0.004301348    1.378    0.274
        10 -12.1688     66.7305    195.5386   1.2375114633e+02   2.6515572710e+01    0.3328164    0.1742609  52.55  0.001155527    1.714    0.416
        11 -10.9905     14.8863    201.2865   1.3437259056e+02   3.1117941795e+01    0.1333141   0.09060434  35.35 0.0009352033    1.693    0.409
        12 -11.5587    204.1105    199.8885   9.6394682991e+01   3.3673718820e+00    0.3141033    0.1634852  29.18  0.001505742    1.918    0.479
        13 -11.4596    159.2194    198.0144   1.0483285185e+02   1.1501236385e+01    0.3827881     0.241751  10.20  0.001390142    2.606    0.616
        14 -10.9187     81.9206    194.9147   1.2052383940e+02   2.4590397073e+01    0.2963342    0.2661101  73.98  0.001309325    1.092    0.084
        15 -10.5733    207.5998    193.7772   9.4640062737e+01   3.6663643253e+00    0.1671709    0.1219215 -43.00 0.0006341879    1.633    0.387
        16 -13.1170    150.4915    190.1679   1.0533422124e+02   1.4427770339e+01    0.5350744    0.4134155  89.83  0.002120237    1.786    0.440
        17 -11.3646    155.0253    187.7358   1.0397673636e+02   1.4057432673e+01    0.2877946    0.2284359  51.96  0.001095441    1.242    0.195
        18 -10.3146     84.4680    200.4657   1.2062647920e+02   2.3126270704e+01    0.2561484    0.1379116  63.93 0.0006631999    2.036    0.509
        19 -11.9600    193.8878    196.0196   9.7639521390e+01   5.7166731631e+00     1.087043    0.6220589 -65.37  0.003605084    5.854    0.829
        20 -10.9201     60.8386    189.7424   1.2438535500e+02   2.8452256335e+01    0.2899226    0.1536731 -69.08  0.001429285    1.809    0.447
        21 -12.5914     73.1964    212.4918   1.2412804288e+02   2.2345628028e+01    0.2537317    0.2278333  84.06 0.0005280794    1.191    0.161
        22 -11.2201     19.5721    185.4957   1.3248112596e+02   3.3842945501e+01    0.1295367    0.1175402  77.46  0.001007835    1.281    0.219
        23 -11.8137    149.5370    180.7333   1.0392203240e+02   1.6342778050e+01    0.3966124    0.2495452 -68.44  0.001691027    2.350    0.574
        24  -9.8059    169.1540    177.9177   9.9267976641e+01   1.3228912148e+01    0.2019138    0.1848882  72.83 0.0004347944    1.281    0.220
        25 -10.6327    204.0485    175.1935   9.1760846389e+01   7.1640487782e+00    0.4137914    0.1902531 -51.11  0.001555886    3.427    0.708
        26 -10.5800     67.8225    172.2387   1.2089920715e+02   3.1273073810e+01    0.6482828    0.1529878  48.89  0.002055276    4.737    0.789
        27 -10.6050    164.9257    171.4078   9.8919659034e+01   1.5213244532e+01     0.234908    0.2026329 -44.03 0.0003228285    1.248    0.199
        28 -10.0432    200.8067    168.5852   9.1054242156e+01   8.8451055109e+00     0.254305    0.2150455 -32.40 0.0007375207    1.234    0.190
        29 -10.3701    205.0383    166.9583   8.9904787395e+01   8.3110515426e+00    0.3322873    0.2552669  13.74  0.000903245    1.320    0.243
        30 -11.6723    192.9397    164.9770   9.1859341421e+01   1.0959607005e+01    0.4553606    0.3181026 -54.26  0.001597384    1.830    0.454
        31 -11.1025    229.9843    165.9779   8.5112792929e+01   3.8603729049e+00    0.1924841    0.1713638 -70.27  0.000675392    1.684    0.406
        32 -10.1077      1.2753    163.2666   1.3474397369e+02   4.0036842620e+01    0.1417585   0.07687968 -84.66 0.0008706811    1.446    0.309
        33 -10.3468    162.2521    201.9408   1.0485913118e+02   1.0306569387e+01    0.1752474    0.1608362  31.19 0.0003783173    1.054    0.052
        34 -10.7182     76.7392    207.6512   1.2295633939e+02   2.2795869479e+01    0.3375412    0.1973329 -68.69  0.001660974    1.762    0.433
        35 -11.3921    189.2676    154.8815   9.0466858073e+01   1.3447394337e+01    0.4458176     0.404449  55.54  0.002526316    1.240    0.194
        36 -12.9662    100.4114    152.5192   1.1021543442e+02   3.0839356377e+01    0.7128341    0.5603844  -6.89  0.003668163    1.866    0.464
        37  -9.0585      1.2856    154.3594   1.3414778780e+02   4.1945008217e+01    0.1110541   0.06919295 -57.88 0.0007021468    1.680    0.405
        38 -11.7819    133.9580    145.7810   1.0074666828e+02   2.6307503996e+01     1.230041    0.3173259 -54.59  0.002999573    6.016    0.834
        39  -9.7864    124.0251    151.7522   1.0433198872e+02   2.6898933054e+01    0.1989164    0.1802345  51.13 0.0003961704    1.074    0.069
        40 -10.9363    113.0072    150.5662   1.0677072568e+02   2.9134439350e+01    0.2731052    0.1960039 -75.36 0.0008084321    1.619    0.382
        41 -10.4033    161.6688    149.4900   9.5154202734e+01   2.0043330463e+01    0.3146433    0.2180315 -81.53  0.001092263    2.528    0.604
        42 -10.9101    174.4438    148.6929   9.2201949920e+01   1.7590684890e+01    0.3208363    0.2841758 -82.07 0.0009842415    1.405    0.288
        43 -19.0617     27.1805    101.7126   1.2162762606e+02   5.1943150439e+01     15.69596    0.9808146 -66.77   0.02831936   13.344    0.925
        44 -10.6399     88.0387    202.4318   1.2011654094e+02   2.2233014221e+01    0.2764508     0.257733  89.99  0.001179587    1.188    0.159
        45 -12.4531    109.7639    139.1244   1.0533995852e+02   3.2246865154e+01    0.6919535     0.444216 -26.44  0.002939778    2.371    0.578
        46 -12.5975     98.8829    138.5634   1.0801718719e+02   3.4239259328e+01    0.3651224    0.3003034 -84.58 0.0004637801    1.284    0.221
        47 -10.3426    141.5138    138.0743   9.7277394582e+01   2.6449452768e+01    0.2298191     0.146367 -45.49  0.001031413    1.589    0.371
        48 -11.6629    106.0007    130.7928   1.0458292197e+02   3.4788734849e+01    0.4103601    0.3202433 -69.41   0.00126821    1.345    0.256
        49 -11.5269    104.4235    125.4606   1.0384833085e+02   3.6276488764e+01     0.289569    0.2489148 -27.25 0.0006944268    1.314    0.239
        50 -10.8117    135.6742    127.6310   9.6300274458e+01   2.9847044829e+01    0.5496866    0.1376413 -49.80  0.001465765    4.459    0.776
        51 -11.1277    116.4265    129.5019   1.0158967927e+02   3.3190455944e+01    0.2957433    0.2502862 -18.93 0.0007071475    1.400    0.286
        52 -10.6665    160.3848    127.4444   9.0395955215e+01   2.4700382409e+01    0.3868211    0.2635315 -72.18  0.001579847    2.300    0.565
        53  -9.8261    135.0000    120.3526   9.4717812373e+01   3.1542462867e+01    0.3291799   0.08553646 -45.68  0.000919903    3.816    0.738
        54 -10.3537    120.6734    123.8545   9.9205401175e+01   3.3639196847e+01      0.23817    0.1832121 -29.73 0.0007766184    1.475    0.322
        55 -10.3179    111.3622    118.6765   1.0044247487e+02   3.6554200556e+01    0.2450584    0.2212468  51.12 0.0003003762    1.140    0.123
        56 -10.6577    168.2093    113.0145   8.5019461609e+01   2.5825567570e+01    0.3389045    0.2765345 -70.62 0.0009431756    1.514    0.340
        57 -10.9702    118.8694    110.2978   9.6371609768e+01   3.6975969865e+01    0.5898241    0.2470474  56.58  0.001752842    4.036    0.752
        58 -10.4976    205.5080    110.1222   7.6745574585e+01   1.7926037692e+01    0.3121099    0.2111248  39.49  0.000907742    1.555    0.357
        59 -10.4598    134.6348    104.9375   9.0844860536e+01   3.4885633347e+01    0.4037384    0.1431459 -44.78  0.001315402    2.781    0.640
        60  -9.2319     75.2988    104.2847   1.0734539035e+02   4.5864591422e+01    0.1374525    0.1044019 -26.79 0.0002213492    1.550    0.355
        61 -12.1711     66.4394    199.7191   1.2423093034e+02   2.5713285360e+01    0.2263254    0.2079048 -56.66 0.0005962581    1.407    0.289
        62  -9.2755    127.9340     94.9494   8.9821319832e+01   3.8394418203e+01    0.1800759    0.1757989  14.94 0.0006243917    1.036    0.035
        63 -11.8779     10.5559    206.5689   1.3544798928e+02   3.0498067993e+01    0.4511262     0.241218  30.78  0.002891586    2.228    0.551
        64 -12.4505    168.9270     68.6044   7.2339171705e+01   3.3756564227e+01    0.7161807    0.4558832 -75.80 0.0008439359    2.666    0.625
        65 -17.9597     50.5825    241.1690   1.3050701609e+02   2.0008575587e+01     7.760428     6.806319  80.88   0.06246175    1.309    0.236
        66 -11.6918    158.1091    235.4652   1.1053939525e+02   5.7485099382e+00    0.4267525    0.2039834  37.49  0.001507035    1.735    0.424
        67 -12.1171     72.2338    230.2355   1.2589268227e+02   1.9231015718e+01    0.2599844    0.1470409  55.35 0.0004160928    1.447    0.309
        68 -10.8067     67.6778    225.6028   1.2633977638e+02   2.0641817066e+01    0.2849962    0.1111968  37.98 0.0009999664    2.328    0.570
        69 -12.9475     55.0667    222.1403   1.2837892135e+02   2.2836764716e+01    0.2739595    0.1666127  57.28   0.00128788    1.327    0.247
        70 -10.0046     97.1644     15.8955   7.0280158848e+01   5.8276033714e+01    0.1850131    0.1834884  46.95 0.0004302503    1.227    0.185
        71 -12.4580     69.4386    218.5531   1.2540582786e+02   2.1702589301e+01    0.3332267    0.1872362  64.22  0.001200424    1.668    0.400
