#   1 NUMBER                 Running object number                                     
#   2 MAG_AUTO               Kron-like elliptical aperture magnitude                    [mag]
#   3 X_IMAGE                Object position along x                                    [pixel]
#   4 Y_IMAGE                Object position along y                                    [pixel]
#   5 X_WORLD                Barycenter position along world x axis                     [deg]
#   6 Y_WORLD                Barycenter position along world y axis                     [deg]
#   7 A_WORLD                Profile RMS along major axis (world units)                 [deg]
#   8 B_WORLD                Profile RMS along minor axis (world units)                 [deg]
#   9 THETA_WORLD            Position angle (CCW/world-x)                               [deg]
#  10 FWHM_WORLD             FWHM assuming a gaussian core                              [deg]
#  11 ELONGATION             A_IMAGE/B_IMAGE                                           
#  12 ELLIPTICITY            1 - B_IMAGE/A_IMAGE                                       
         1 -12.3640      9.8444     48.9228   1.1466203608e+02   6.4040032403e+01    0.8773552    0.3178091 -45.70  0.004484349    2.148    0.534
         2 -11.0298    238.3070     24.3342   4.8470357716e+01   2.2118797193e+01    0.2513891    0.2366213  56.84  0.001530037    1.179    0.152
         3 -10.2044     29.5368     20.1049   9.7160860120e+01   6.8052375446e+01     0.317909    0.2801955 -24.79  0.002330037    1.214    0.177
         4 -10.5946     28.8459     13.6101   9.4679313748e+01   6.9199053029e+01     0.259063    0.2013696 -16.55  0.001000649    1.098    0.089
         5 -11.7969      2.9779      7.3242   1.0464787625e+02   7.2312390649e+01     0.476072    0.1678066 -41.90  0.001268232    1.983    0.496
         6 -10.6565     31.4060      5.4519   8.9635380384e+01   7.0185984764e+01    0.2298199    0.2019605  13.49  0.001723164    1.395    0.283
         7 -11.1198     33.1415     12.5483   9.2235527697e+01   6.8921641095e+01    0.5171238    0.1799441 -35.83  0.002378758    2.461    0.594
         8 -10.7962     10.8466     10.2293   1.0185587572e+02   7.1301060815e+01    0.3224109    0.1787787 -32.83 0.0003793542    1.418    0.295
         9 -11.7720     11.4009     18.1590   1.0474605178e+02   6.9886692752e+01     0.554299    0.3612817  30.84  0.003770874    2.008    0.502
        10 -10.9826     15.6800     14.1202   1.0110966239e+02   7.0280508633e+01    0.2174997    0.1787515 -25.80  0.000331548    1.144    0.126
        11 -12.0860     16.4702      7.8395   9.8002276615e+01   7.1261309594e+01    0.7305682    0.3618824 -44.53  0.004376642    1.624    0.384
        12 -12.4811     37.1841      4.9208   8.6719347292e+01   6.9594086685e+01    0.8532766    0.6279061  40.77  0.004080851    1.839    0.456
        13 -11.8397     19.7315     25.7308   1.0371718329e+02   6.7911698304e+01    0.4749585    0.4145841 -45.10  0.002957219    1.248    0.199
        14 -10.0334     23.9555     11.5065   9.6021412707e+01   7.0010634099e+01    0.2108128    0.1353527 -41.29 0.0005218724    1.320    0.242
        15 -10.1158     11.0168      5.9283   9.9893562296e+01   7.2001070699e+01    0.3045204    0.1394418 -36.39  0.000349753    1.661    0.398
        16  -8.6792    245.8288      9.1908   4.3982007735e+01   2.2039246942e+01    0.1686343    0.1535773  42.00 0.0005479309    1.317    0.241
        17 -10.8461     53.6861      4.9708   7.9747734673e+01   6.7367020732e+01    0.3687005    0.2416667  -7.40  0.001334611    1.424    0.298
        18  -8.7021     49.7006      3.7031   8.0710732552e+01   6.8108196127e+01      0.14735    0.1095313  39.36 0.0002803965    1.597    0.374
        19  -9.5787     50.6068     13.4085   8.5116897627e+01   6.6653351183e+01    0.2228388    0.1239657 -30.52 0.0005342985    1.541    0.351
        20  -9.4630     74.7528      5.2675   7.2225410445e+01   6.3868121776e+01    0.2613736    0.2100087 -55.50  0.001545311    1.893    0.472
        21  -8.6914    232.5033      5.5610   4.4226105009e+01   2.5641974886e+01    0.1334558    0.1201809 -75.70 0.0004344157    1.022    0.022
        22  -9.3005     59.4817      3.0941   7.6550011376e+01   6.6709380555e+01    0.1798894    0.1051641 -23.89 0.0006350871    1.520    0.342
        23  -8.8626     62.7966      1.3455   7.4430192256e+01   6.6376322321e+01    0.1607473   0.09926005  31.85 0.0002556531    1.538    0.350
        24 -10.1771    134.9942    238.8932   1.1361050260e+02   9.2248065839e+00    0.1916785    0.1783455 -78.29 0.0004929643    1.339    0.253
        25 -12.0203    184.0567    236.6658   1.0492219416e+02   1.5652143494e+00     1.081234     0.638955   3.94  0.000443461    3.901    0.744
        26 -13.0771    197.5587    196.4244   9.6317685523e+01   4.6915082641e+00     2.353019     1.264741 -22.87   0.01077588    2.692    0.629
        27 -12.1303    225.2402    243.5077   9.9004661040e+01  -5.7998746049e+00    0.7604561    0.2376063 -30.56  0.003447169    4.230    0.764
        28 -11.5557    233.6686    244.5984   9.7800920843e+01  -7.1914703129e+00    0.4763285    0.2983246 -15.99  0.003078883    1.840    0.457
        29 -11.6444    210.6858    213.8492   9.6892155284e+01  -2.3496123529e-02     0.622523    0.2986104 -40.60  0.002543524    2.535    0.606
        30 -12.7604    208.2793    244.8806   1.0198023938e+02  -3.3061105430e+00     1.059105    0.6227115  54.85  0.003500533    2.055    0.513
        31 -12.0550    204.7057    232.0319   1.0074255221e+02  -1.2626213675e+00    0.3164553     0.288599   5.16 0.0006671462    1.248    0.199
        32 -11.8727    185.5939    220.7349   1.0239598021e+02   3.3930402336e+00     0.855028    0.6226825 -40.17  0.005469621    1.687    0.407
        33 -12.1129    191.8999    214.5003   1.0032310876e+02   3.1500420820e+00    0.7920386     0.607383 -70.98  0.003647024    2.078    0.519
        34 -12.4671    216.3820    230.7253   9.8570545617e+01  -3.0144671129e+00    0.6926221    0.3098273 -26.56  0.003483422    2.999    0.667
        35 -12.1268    202.2424    214.1230   9.8422487604e+01   1.3991035212e+00    0.5843937    0.4143794 -41.32  0.001896717    1.737    0.424
        36 -13.2117    208.3080    200.2130   9.5018868000e+01   2.2010783234e+00     3.658516     1.004432 -30.93    0.0108315    6.554    0.847
        37 -14.9527    248.6516     71.0407   5.9185482861e+01   1.3423174268e+01     9.101711     2.388501 -28.90   0.02739491    3.837    0.739
        38 -11.8812    249.4472    232.1797   9.3360561135e+01  -8.3338283414e+00    0.3736455    0.3266473  24.84   0.00228885    1.359    0.264
        39 -12.0675    248.1198    175.2395   8.3362188708e+01  -1.5928770799e+00    0.9220308    0.4644668  -6.54   0.00245161    3.262    0.693
        40 -11.8779    249.5416    183.3794   8.4727698857e+01  -2.8804926339e+00    0.4925939    0.3435989   1.13  0.002135689    1.398    0.285
        41 -12.6042    248.7379    202.3038   8.8403353850e+01  -5.0243820593e+00    0.9519882    0.4225207 -12.70  0.003835523    3.776    0.735
        42 -12.1597    247.5128    224.4621   9.2422542392e+01  -7.2590173697e+00    0.4595528    0.2907073  10.07 0.0005892823    1.535    0.348
        43 -12.7133    247.9927    214.5880   9.0686362170e+01  -6.2833313031e+00    0.5562556    0.3154436 -17.34  0.001993389    1.898    0.473
        44 -13.7110    240.1004    201.7626   8.9748551641e+01  -3.5331419233e+00     1.452622    0.6428398 -31.28  0.007208686    2.418    0.586
        45 -12.0590    246.3444    191.5210   8.6816735374e+01  -3.3436701747e+00    0.4628696    0.3129326 -33.56  0.002216666    1.649    0.394
        46  -9.0136    184.1492    250.0549   1.0665584943e+02  -7.8578199014e-02    0.1634844     0.124415  29.66 0.0006021899    1.197    0.164
        47 -11.8949    176.8026    243.8884   1.0710117861e+02   1.8411297811e+00    0.3733354    0.2703782  21.90 0.0005191873    1.525    0.344
        48 -11.5601    177.5034    232.5371   1.0549107312e+02   3.1819218307e+00    0.3012136    0.2436144  -9.10 0.0006515745    1.597    0.374
        49 -10.5161    174.4065    227.4246   1.0533234664e+02   4.3881454991e+00    0.2217544    0.1931769  25.21 0.0005072403    1.194    0.162
        50 -11.2191    169.9146    240.6640   1.0785869789e+02   3.3668068318e+00    0.2943321    0.2455025 -30.25   0.00047804    1.575    0.365
        51 -11.5564    166.8153    250.4543   1.0957496694e+02   2.6176331300e+00    0.3123314    0.1253648  40.40 0.0004396013    1.963    0.491
        52 -10.8656    163.5750    245.0183   1.0946824917e+02   3.8248763650e+00    0.2445601    0.2050172 -50.13 0.0005229849    1.570    0.363
        53 -11.6074    159.2515    235.7137   1.0906635366e+02   5.7710246791e+00    0.3120821    0.2453709  27.47  0.002149679    1.371    0.270
        54 -10.0220    158.3663    229.3911   1.0841920547e+02   6.8053849640e+00    0.2162035    0.2080884 -17.82 0.0007689302    1.322    0.244
        55 -10.9562    163.3423    225.3044   1.0700060944e+02   6.5558614150e+00    0.3225875    0.2730742  66.70 0.0007748809    1.278    0.217
        56  -9.7796    165.8519    220.3671   1.0587485321e+02   6.8429666644e+00    0.2146777     0.179644  30.65 0.0003443297    1.193    0.162
        57 -10.6675    152.1675    250.1413   1.1196729912e+02   4.9656690048e+00    0.4116658    0.1467753  51.01 0.0008588261    2.457    0.593
        58 -10.8153    156.9910    245.9557   1.1068587528e+02   4.7538651161e+00    0.2452333    0.2143603  -7.25 0.0004567884    1.576    0.366
        59 -10.5454    151.8737    244.6612   1.1139656604e+02   5.7406761957e+00    0.4036326    0.2037001  44.57  0.001672201    1.508    0.337
        60  -9.6255    154.9732    241.0498   1.1044986943e+02   5.7342805974e+00    0.1979894    0.1666524 -30.98 0.0004042669    1.629    0.386
        61 -12.0927    140.4200    246.6132   1.1353497256e+02   7.2788137019e+00    0.3611933    0.2905721   8.30 0.0005377493    1.917    0.478
        62  -9.0867    101.5416    250.7052   1.2030831366e+02   1.2513629393e+01    0.1763208   0.07417464  45.50 0.0004949482    1.811    0.448
        63  -9.8379     87.4803    249.6814   1.2246860418e+02   1.4629974260e+01    0.1850107    0.1507746  51.33 0.0005982013    1.330    0.248
        64  -9.3665     72.6554    250.6022   1.2486118694e+02   1.6465433168e+01    0.1717138   0.08137406  42.48 0.0006770721    1.865    0.464
        65 -10.1025     61.3702    248.7475   1.2647770286e+02   1.8187550966e+01    0.1838961    0.1621697 -83.66 0.0007740855    1.550    0.355
        66 -10.2372     46.7617    250.3941   1.2878465345e+02   1.9695853408e+01    0.1803031    0.1033044  46.55 0.0008182704    1.533    0.348
        67 -10.0515    117.9120    238.8537   1.1651089401e+02   1.1877155751e+01    0.2049467    0.1630164 -64.01 0.0006330795    1.553    0.356
        68  -8.9783     35.1800    240.0882   1.2995873484e+02   2.2663446592e+01    0.1301045    0.1001911 -61.52 0.0006251111    1.965    0.491
        69  -9.1506     61.8789    238.9523   1.2574820884e+02   1.9684247382e+01    0.1423354    0.1212438  70.91  0.000534282    1.324    0.245
        70  -9.3169    112.2323    237.8331   1.1737043549e+02   1.2891241333e+01    0.1599523    0.1536811 -37.19 0.0006625206    1.560    0.359
        71 -10.3830     90.9049    235.8692   1.2077478246e+02   1.6309699313e+01    0.2185918    0.2079077  77.33 0.0005440618    1.453    0.312
        72 -10.0700     77.7643    235.6477   1.2293457098e+02   1.8156506386e+01    0.1927784    0.1565428  77.61 0.0005631985    1.186    0.157
        73  -9.0780     41.1151    236.9373   1.2887662508e+02   2.2509673238e+01    0.1304424     0.116459 -71.20  0.001112853    1.726    0.421
        74 -10.3704    139.4925    234.8568   1.1238305148e+02   9.1002281850e+00    0.2131124    0.2006192  31.70 0.0005975991    1.320    0.242
        75  -9.8933    129.4781    235.3273   1.1416533597e+02   1.0620734827e+01    0.1972067    0.1777472  23.57 0.0006776465    1.463    0.316
        76  -8.6262      2.9857    236.2649   1.3452721530e+02   2.6595366173e+01    0.1348831   0.07580876 -54.02 0.0008779977    3.427    0.708
        77 -10.4862    170.9598    233.0192   1.0669113121e+02   4.2060078033e+00    0.2023069    0.1772131 -35.27 0.0004422502    1.454    0.312
        78  -9.8939    152.9196    232.9850   1.0982679269e+02   7.1924102645e+00    0.1785203    0.1718386 -36.28 0.0004097321    1.348    0.258
        79  -9.5314    152.6428    227.8214   1.0922836080e+02   7.9850317044e+00    0.2082923    0.1785897  -0.32 0.0008346707    1.590    0.371
        80  -9.7665    155.3670    223.4486   1.0817684890e+02   8.1740893546e+00    0.2091999    0.1988074 -16.36 0.0008331392    1.334    0.251
        81  -9.4578    108.1914    233.2621   1.1760860671e+02   1.4211474294e+01     0.161293    0.1472443 -82.56 0.0005555941    1.353    0.261
        82  -9.8445    165.7919    232.3819   1.0750640150e+02   5.1510653705e+00    0.2009593    0.1651905  34.17  0.000273464    1.163    0.140
        83  -9.8543     35.3496    231.1383   1.2944046911e+02   2.4128470385e+01    0.2613127    0.1665256 -51.84  0.001639114    2.736    0.635
        84 -10.3287    145.4186    231.0464   1.1090095336e+02   8.7016967255e+00    0.2195498    0.1938876  43.47 0.0006010791    1.176    0.150
        85  -9.7044    143.9312    226.0565   1.1055278430e+02   9.6914489805e+00    0.1806694    0.1757528 -66.28 0.0004267072    1.298    0.230
        86 -10.2100    123.3318    230.9485   1.1475238231e+02   1.2255062654e+01    0.2218477    0.1964655  12.13 0.0008149638    1.647    0.393
        87 -10.1416    100.2320    230.6313   1.1871782501e+02   1.5814115159e+01    0.2087562    0.1951877 -74.37 0.0008762968    1.438    0.305
        88  -9.7828     84.8990    231.5101   1.2140530003e+02   1.7860590438e+01    0.1700709    0.1605563  89.45 0.0006180027    1.463    0.317
        89 -10.7870     54.6839    230.9399   1.2635414086e+02   2.1904413213e+01     0.230784    0.1812543  45.64 0.0007270945    1.508    0.337
        90  -9.7660    133.8822    230.3522   1.1284146348e+02   1.0674048381e+01    0.1847279    0.1714931 -53.12 0.0006646774    1.409    0.290
        91 -10.4106    113.2206    228.1417   1.1621748162e+02   1.4267178747e+01    0.2145825    0.1885744 -69.85 0.0004344725    1.393    0.282
        92  -9.1372     44.5076    229.4742   1.2789444221e+02   2.3367492236e+01    0.1550016   0.08027064 -65.05 0.0006015251    2.157    0.536
        93  -8.7311    130.1433    228.8664   1.1332759504e+02   1.1500814565e+01    0.1437682    0.1283388  39.03 0.0005405972    1.291    0.226
        94  -9.6618     92.6304    227.9347   1.1977034523e+02   1.7361163209e+01    0.1772915    0.1715899  75.18 0.0005217707    1.460    0.315
        95  -9.5494     78.8996    228.3561   1.2214996081e+02   1.9211366550e+01    0.1767386    0.1432445 -82.78 0.0003479646    1.334    0.250
        96  -8.4852     29.5166    228.9661   1.3022943063e+02   2.5135499525e+01    0.1203499   0.07083519 -58.30 0.0008086537    2.428    0.588
        97  -9.2305    169.5094    228.0905   1.0628536314e+02   5.1221174772e+00    0.1693429    0.1448925 -28.06 0.0003900896    1.485    0.327
        98  -9.6433    170.7742    223.8422   1.0547834368e+02   5.5022554788e+00    0.1925516     0.157457  27.86 0.0005737788    1.229    0.186
        99 -10.2513    174.9264    221.2055   1.0436536602e+02   5.1633118890e+00    0.2150505    0.1802416  20.47 0.0003875616    1.272    0.214
       100  -9.3060    138.7904    227.2519   1.1161151678e+02   1.0352980827e+01    0.1855365    0.1603322 -39.12 0.0005784154    1.557    0.358
       101  -9.0690    106.8288    228.1820   1.1733680070e+02   1.5231951329e+01    0.1546618    0.1353872  25.31 0.0003668501    1.616    0.381
       102  -9.6151    109.7980    224.2508   1.1641012685e+02   1.5425277583e+01    0.1860897    0.1607784 -81.16 0.0005921838    1.301    0.231
       103 -10.0306     67.8071    226.9571   1.2390356822e+02   2.0925109891e+01    0.1806784    0.1472596  81.44 0.0004244329    1.203    0.169
       104 -11.0719    199.0377    225.0121   1.0067366578e+02   5.4148429071e-01    0.3278536    0.2462294  30.60 0.0008673094    1.114    0.103
       105  -9.2228     19.9467    227.0677   1.3161133274e+02   2.6464577486e+01    0.1283952    0.1095577 -75.31 0.0007728517    1.656    0.396
       106  -9.0198      1.4117    227.0642   1.3440285368e+02   2.8267239612e+01     0.131395   0.06929317 -87.13 0.0004785876    1.510    0.338
       107 -11.0819    206.4363    223.3622   9.9140506135e+01  -4.9708767014e-01    0.2796716    0.2174031  -6.98 0.0006501406    1.455    0.313
       108  -9.8154    129.3862    223.8417   1.1288017885e+02   1.2410364475e+01    0.2093686    0.1900924  44.29 0.0006084527    1.248    0.199
       109  -9.4668    120.6114    224.7249   1.1454499849e+02   1.3668364751e+01    0.1812419    0.1611416  44.40  0.000609096    1.278    0.217
       110  -9.4964    104.1081    224.0704   1.1739565233e+02   1.6317895918e+01    0.1776633    0.1527567 -89.68 0.0007014208    1.244    0.196
       111  -8.7121     89.4048    224.8323   1.2004021153e+02   1.8342782843e+01    0.1343501    0.1004719 -61.15 0.0005989331    1.651    0.394
       112  -9.2149      7.3203    225.0235   1.3343843343e+02   2.8059428276e+01     0.137068   0.09004153  80.66 0.0005644082    1.112    0.100
       113  -9.5027    135.4946    223.3605   1.1172925431e+02   1.1493923134e+01    0.1982195    0.1187327 -53.91 0.0009056835    2.028    0.507
       114 -10.4693     49.4984    222.4465   1.2662131949e+02   2.3989829262e+01    0.2061063    0.1638504 -85.46 0.0004876675    1.327    0.246
       115 -10.5368    180.7570    221.1625   1.0331892111e+02   4.1665938909e+00    0.2380361    0.2024714 -21.93 0.0004069547    1.431    0.301
       116 -10.2604    179.6921    215.4568   1.0266562712e+02   5.1517582616e+00    0.2304419    0.1907311  13.53 0.0002145026    1.338    0.253
       117 -10.4740    148.4203    220.7298   1.0907040601e+02   9.7558870832e+00    0.2701392    0.2129881 -28.15 0.0008716919    1.787    0.440
       118  -9.0990    150.7908    215.6280   1.0795975950e+02   1.0143965332e+01    0.1772323    0.1548832  32.22 0.0005057959    1.226    0.184
       119  -9.9000    154.5659    212.4398   1.0682400397e+02   9.9926495242e+00    0.2407962    0.2146271 -29.40 0.0008207674    1.416    0.294
       120  -9.4460    114.7906    221.8645   1.1526518301e+02   1.5047936465e+01    0.1956914    0.1569306 -50.26 0.0008649797    1.649    0.394
       121  -9.8042     97.7780    222.0246   1.1830578639e+02   1.7604335755e+01    0.1851958    0.1719274 -76.74 0.0005600509    1.395    0.283
       122  -8.9825     82.4904    222.9253   1.2106504290e+02   1.9640924044e+01    0.1475169     0.101251 -73.05 0.0006172191    1.536    0.349
       123  -9.2731     74.1077    222.2829   1.2245559218e+02   2.0896722187e+01    0.1634258    0.1342019 -87.58 0.0003389506    1.272    0.214
       124  -8.8490     92.2253    221.7310   1.1925524514e+02   1.8465379639e+01     0.138221    0.1254321  55.67 0.0007049946    1.343    0.255
       125  -9.8637     39.6379    221.1074   1.2815444283e+02   2.5372734145e+01    0.1943723     0.175898 -43.30 0.0008577278    1.983    0.496
       126  -8.9871     28.5091    221.9468   1.3000106956e+02   2.6451796345e+01    0.1412749   0.08074374 -82.52 0.0006227292    1.527    0.345
       127  -9.0931     15.3746    221.5938   1.3204977224e+02   2.7866268122e+01    0.1646297    0.1212416 -59.00 0.0009132954    2.045    0.511
       128  -9.6166    140.6464    220.3191   1.1042433479e+02   1.1121431849e+01    0.2053871    0.1847801  39.25 0.0005869496    1.218    0.179
       129  -8.6151    124.4888    221.4380   1.1347744977e+02   1.3583986907e+01    0.1198236   0.09612587  54.58 0.0001165711    1.041    0.040
       130  -9.2836     68.0448    221.0166   1.2339074960e+02   2.1920280220e+01    0.1379055    0.1343748 -71.87 0.0005154301    1.613    0.380
       131 -10.3876     58.5778    220.5685   1.2496689489e+02   2.3209335864e+01    0.3466145    0.1492982  48.61  0.002026103    1.849    0.459
       132 -10.2020     56.0415    216.6896   1.2510482002e+02   2.4211846915e+01    0.2035094    0.1283979 -82.66 0.0006395092    1.457    0.314
       133  -9.5912    109.1230    219.2267   1.1599301174e+02   1.6367103301e+01    0.1666719      0.15643 -83.98 0.0004636511    1.320    0.243
       134 -10.0574    158.8963    217.8335   1.0678142042e+02   8.4141559943e+00    0.2169534    0.1935198 -17.66 0.0005329437    1.433    0.302
       135  -8.9125    154.3901    218.7298   1.0772292595e+02   9.0499193662e+00    0.1432207    0.1178036 -33.24 0.0008012068    1.581    0.367
       136  -9.0519    128.6996    219.0383   1.1243243167e+02   1.3293925096e+01    0.1570763    0.1393933  65.74 0.0004369654    1.125    0.111
       137  -9.4126    103.9993    218.7069   1.1685789380e+02   1.7238275399e+01     0.165472     0.129435  57.94 0.0005966141    1.060    0.056
       138  -9.1411    135.9655    218.0494   1.1098883798e+02   1.2259889203e+01    0.1721052    0.1407088  19.58 0.0004415793    1.619    0.382
       139  -9.6765    119.7677    217.0086   1.1381600149e+02   1.5069732870e+01    0.2098042     0.156285 -54.95 0.0007088725    1.634    0.388
       140  -8.7146     95.4101    217.7912   1.1830244385e+02   1.8678858943e+01    0.1387673    0.1049468 -60.61 0.0005697465    1.595    0.373
       141  -9.7689      7.7638    216.4082   1.3298879711e+02   2.9506529537e+01    0.2258039    0.1495545 -52.09  0.001618514    2.596    0.615
       142  -9.9163    165.5788    214.1868   1.0504622504e+02   7.8060679105e+00    0.2297553    0.1883316  11.02 0.0007034549    1.496    0.331
       143 -10.7910    170.9320    213.9942   1.0403933210e+02   6.8982591494e+00    0.3265438    0.2601444 -51.13  0.001171949    1.543    0.352
       144  -9.0988    167.5363    207.9982   1.0377100135e+02   8.4028978207e+00    0.2124676    0.1258829 -51.46 0.0007036253    2.079    0.519
       145  -8.6114     77.2187    217.0482   1.2145979792e+02   2.1391943190e+01    0.1332968   0.08346116 -73.64 0.0004246882    1.623    0.384
       146  -9.4083     47.2761    217.6361   1.2665863408e+02   2.5102019973e+01    0.1150864   0.05961435  71.01 0.0007007566    1.669    0.401
       147  -8.5218     21.3290    217.3380   1.3089443718e+02   2.8011263501e+01   0.08751646   0.07243472 -66.08 0.0007051896    1.733    0.423
       148  -9.0814    124.1989    215.2361   1.1279508394e+02   1.4652725163e+01    0.1793607    0.1628896 -64.17 0.0007308634    1.342    0.255
       149  -9.5766    125.0010    211.0216   1.1212965588e+02   1.5232594144e+01    0.2799104    0.1912255 -34.51   0.00144328    2.332    0.571
       150 -10.6857    124.8228    205.9380   1.1151926283e+02   1.6136626855e+01    0.2992894    0.1877237  46.06 0.0003956168    1.367    0.268
       151 -10.2255    120.1112    206.2142   1.1244563971e+02   1.6863973475e+01    0.2030298    0.1935991  71.41 0.0006238336    1.226    0.184
       152  -9.0997     90.4573    215.7265   1.1898315710e+02   1.9762111712e+01    0.1392288    0.1048136 -61.26 0.0009383581    1.592    0.372
       153  -9.7605     83.0214    215.4440   1.2028514358e+02   2.0872138448e+01    0.1813439    0.1526141 -63.11 0.0006338492    1.519    0.342
       154  -9.8929     30.8595    214.6954   1.2919740396e+02   2.7481150414e+01    0.2390674    0.1286948 -66.91  0.001078169    1.954    0.488
       155 -10.0498    143.3285    214.4050   1.0916809793e+02   1.1609934461e+01      0.23526    0.1997403  36.91 0.0007371082    1.219    0.179
       156  -9.9339    131.8711    213.7019   1.1119210023e+02   1.3648558404e+01    0.2156163    0.2013544 -78.88 0.0006785815    1.252    0.201
       157  -9.5047    101.6890    214.5445   1.1683240750e+02   1.8305966961e+01    0.1991636    0.1765384 -29.43 0.0008651344    1.775    0.437
       158  -8.7781    138.0000    213.9975   1.1009783072e+02   1.2575977587e+01      0.17037   0.07083639 -53.21 0.0006279029    2.863    0.651
       159  -9.9367    111.1134    213.3114   1.1497282683e+02   1.7068223762e+01    0.1800782    0.1584293 -63.31 0.0006080865    1.391    0.281
       160  -9.9039     62.9633    213.1116   1.2362415180e+02   2.3984109839e+01    0.1794707    0.1490899 -81.84 0.0006824067    1.329    0.248
       161  -9.9734     51.1797    213.2200   1.2567749704e+02   2.5429090328e+01    0.1784329    0.1261776 -73.86  0.001129073    1.463    0.317
       162  -9.2238    117.2454    212.7310   1.1377565949e+02   1.6197299013e+01     0.150674     0.134904  36.11  0.000692366    1.355    0.262
       163 -10.0403     96.7635    212.4157   1.1750358436e+02   1.9419810708e+01    0.1948234    0.1769241 -82.64 0.0005532934    1.304    0.233
       164  -9.4223     40.9291    212.8489   1.2739863519e+02   2.6697822492e+01     0.149412    0.1268275  84.87 0.0007775504    1.317    0.240
       165  -8.8848     74.4444    212.4762   1.2153980329e+02   2.2586136601e+01    0.1140573   0.08924531  70.03 0.0001795252    1.037    0.036
       166  -9.4496     17.5296    211.3900   1.3118806170e+02   2.9453847837e+01    0.1861552    0.1366925 -47.94  0.001180386    2.413    0.586
       167 -10.5542    176.8377    208.7237   1.0216085053e+02   6.6360699588e+00    0.2663739    0.2377067 -15.50 0.0005810589    1.320    0.243
       168 -10.4479    161.2772    208.8519   1.0506268610e+02   9.3799113802e+00    0.2550669    0.2133428 -28.82 0.0006180852    1.501    0.334
       169  -9.3018    149.1745    210.3633   1.0753458732e+02   1.1257330244e+01    0.1820932    0.1707852 -24.73 0.0005584893    1.343    0.255
       170 -10.3566    106.7317    210.3146   1.1544008764e+02   1.8274498795e+01    0.1806764     0.157996 -88.05 0.0006189957    1.209    0.173
       171  -9.4961     25.1238    210.4971   1.2989393339e+02   2.8844413368e+01    0.1778058    0.1178026 -70.69 0.0008400608    1.612    0.380
       172  -9.1080    140.0281    209.7080   1.0915319211e+02   1.2936667358e+01    0.1782347    0.1412968  52.21 0.0005845083    1.046    0.044
       173  -9.4928    131.3869    208.3414   1.1059261304e+02   1.4628274837e+01    0.2074817    0.1173833 -50.28  0.001119182    2.109    0.526
       174  -9.1797     93.4859    208.9831   1.1774242490e+02   2.0519524915e+01     0.160949    0.1092903 -68.96 0.0006436165    1.557    0.358
       175  -9.2975     78.3078    208.9122   1.2051341360e+02   2.2704405182e+01    0.1566703    0.1273635  85.90 0.0005936022    1.151    0.131
       176  -9.5610    145.9056    207.8453   1.0779525565e+02   1.2232979670e+01    0.2636979    0.2024126  26.06  0.001197796    1.532    0.347
       177 -10.0972    149.5594    205.2361   1.0673616512e+02   1.2024539213e+01    0.3825219    0.2480968 -51.83  0.002082232    1.815    0.449
       178  -9.3885    134.7127    208.0646   1.0993062736e+02   1.4114536535e+01    0.1639392    0.1508004  77.45  0.000429464    1.151    0.131
       179 -10.4208    114.4738    206.9320   1.1359730287e+02   1.7650118234e+01    0.2312116    0.2073352  14.71 0.0008821951    1.578    0.366
       180  -9.9386     72.8208    207.6655   1.2139183006e+02   2.3682410770e+01    0.1764245    0.1395963 -75.10 0.0005809954    1.350    0.259
       181  -9.5628    173.0354    202.3070   1.0186343993e+02   8.2944797939e+00    0.3015128    0.2197975  17.95  0.001700604    1.666    0.400
       182  -9.4278     65.9928    206.9670   1.2256256375e+02   2.4716813060e+01    0.1391895    0.1063602  76.91 0.0004582305    1.050    0.048
       183 -10.2314     46.5957    206.4022   1.2596359147e+02   2.7224110179e+01    0.1889062    0.1642935  84.17 0.0004281887    1.317    0.241
       184  -8.9580     31.8515    206.8322   1.2853945448e+02   2.8803078514e+01    0.1490937    0.1210621  87.51 0.0006895449    1.262    0.207
       185 -10.4038    186.7920    201.4074   9.9151799442e+01   5.9290005408e+00    0.2541675    0.2284973 -39.20 0.0004894923    1.316    0.240
       186  -9.6985    156.3941    205.2436   1.0544613937e+02   1.0817252961e+01    0.2140012    0.2049377  32.19 0.0006533652    1.172    0.146
       187  -9.5218    103.9294    205.5787   1.1542109581e+02   1.9553622599e+01    0.1829157    0.1594799 -68.12 0.0006567172    1.341    0.254
       188 -10.0400     86.2409    204.9382   1.1866015649e+02   2.2314481179e+01    0.2159979    0.1896617 -71.85 0.0005359197    1.361    0.265
       189 -10.3133    139.7534    203.3488   1.0833163855e+02   1.4050783705e+01    0.2808632    0.2457943 -68.89  0.001124431    1.295    0.228
       190  -9.6282    139.2474    199.0384   1.0781755681e+02   1.4879763661e+01    0.2679689    0.1640279  51.19 0.0008383213    1.424    0.298
       191  -9.9786    140.5099    195.5326   1.0706160808e+02   1.5270097008e+01    0.2226798    0.2000508  15.14 0.0006310428    1.380    0.275
       192 -10.2621    109.8158    203.2055   1.1402682105e+02   1.9059330701e+01    0.2212882    0.2006663 -24.65  0.001242858    1.629    0.386
       193  -9.3274    171.5483    206.2658   1.0276047197e+02   7.9524595868e+00     0.218942    0.2071515  16.35 0.0007399727    1.173    0.147
       194  -9.5953      6.1283    204.0946   1.3266700030e+02   3.1860220088e+01     0.141274    0.1103602 -89.21 0.0004839892    1.304    0.233
       195  -9.8721    179.0155    202.4330   1.0076467273e+02   7.1895791422e+00    0.2138853    0.1928957 -25.44  0.000541585    1.288    0.224
       196 -10.8148    164.3690    199.8352   1.0311200682e+02   1.0258794411e+01    0.4158792    0.3404648  64.87  0.001313896    1.292    0.226
       197  -8.7962    159.6630    201.1441   1.0421043665e+02   1.0897552556e+01    0.1673616    0.1457282  17.12 0.0005449935    1.318    0.241
       198  -8.6611     92.5238    203.4652   1.1732878571e+02   2.1668341497e+01    0.1198442   0.09820421  67.42 0.0001374339    1.041    0.040
       199 -10.0280     55.7773    202.1929   1.2399566791e+02   2.6906151294e+01    0.1914773    0.1638403  89.18 0.0006056947    1.263    0.208
       200 -10.0016     21.0001    202.3843   1.3010573599e+02   3.0753613917e+01    0.1794133    0.1164607 -72.35 0.0006200108    1.544    0.352
       201  -9.6041    144.5004    200.8285   1.0706353817e+02   1.3651066462e+01    0.2119745     0.183445  23.88 0.0005965268    1.351    0.260
       202 -10.4044     98.1409    200.2290   1.1590050848e+02   2.1423091067e+01    0.2580404    0.1890588 -86.19 0.0009156936    1.359    0.264
       203 -10.1493     69.3579    200.2658   1.2133424269e+02   2.5529042004e+01    0.1870515    0.1748576 -60.94 0.0004391039    1.524    0.344
       204  -9.7225    183.3594    205.8311   1.0050487767e+02   5.8961915998e+00    0.2399895    0.1804814  19.34 0.0006762766    1.453    0.312
       205  -9.0705    155.0630    200.2073   1.0494582072e+02   1.1878049586e+01    0.1912354    0.1596166  27.97 0.0004788452    1.288    0.223
       206  -8.9078    156.5849    196.4972   1.0408325700e+02   1.2221483769e+01    0.1912049    0.1662144 -35.84 7.920444e-05    1.377    0.274
       207  -8.7129    157.4868    192.5086   1.0327841905e+02   1.2729811026e+01     0.171411    0.1281386 -33.78 0.0009442103    1.659    0.397
       208  -9.2920     41.1228    199.8697   1.2644150110e+02   2.9080642431e+01    0.1486379    0.1237648 -58.86 0.0009782399    1.681    0.405
       209  -9.3029     80.5404    199.1352   1.1912651020e+02   2.4211789489e+01    0.1658439    0.1509169  68.09 0.0004860246    1.269    0.212
       210  -9.3351     74.8987    198.8785   1.2016376988e+02   2.5044475361e+01    0.1625788    0.1454686  80.59 0.0004907035    1.240    0.193
       211  -9.5772     49.1459    198.6023   1.2490063117e+02   2.8390953395e+01    0.1940734    0.1402403 -77.06  0.000855346    1.334    0.250
       212 -10.0056    176.2691    195.8564   1.0020668644e+02   8.7116083616e+00    0.2833785    0.2138683 -40.85 0.0009022384    1.536    0.349
       213  -9.5171    149.0527    196.9063   1.0560392333e+02   1.3511260744e+01    0.2193861    0.1924174 -38.61 0.0007002112    1.378    0.274
       214  -9.4534    152.1273    192.4191   1.0431241128e+02   1.3726164841e+01    0.2162108    0.1835826 -24.58 0.0005674383    1.494    0.331
       215  -9.4454    103.9557    198.2899   1.1455390767e+02   2.0885019859e+01    0.1711308    0.1372516  56.99 0.0003609606    1.093    0.085
       216 -10.6299    131.9762    199.8782   1.0934162052e+02   1.5991291558e+01    0.3027222    0.2515603  11.99   0.00184383    1.693    0.409
       217  -9.6454    169.7255    196.0395   1.0148391202e+02   9.8910218040e+00    0.2818628    0.2017987  53.39  0.001004888    1.321    0.243
       218  -9.9550    124.6575    196.7930   1.1033846752e+02   1.7787151353e+01    0.2106463    0.1579818  40.57 0.0006129109    1.318    0.241
       219  -9.6579     88.8828    196.0479   1.1720054373e+02   2.3597337226e+01    0.2007006     0.163318 -50.97 0.0008656273    1.615    0.381
       220 -10.4185    184.3561    194.5226   9.8451671007e+01   7.4194449589e+00    0.3352179    0.2611982  36.21  0.001264945    1.123    0.110
       221  -9.9191    185.6700    189.1514   9.7272230764e+01   8.0098156999e+00    0.2592984    0.2282547  25.08  0.000464896    1.087    0.080
       222  -9.6977     60.8394    195.9366   1.2251730839e+02   2.7465306358e+01    0.1615059    0.1402483 -86.83  0.000522319    1.270    0.213
       223 -11.2270    112.2557    193.0581   1.1227186531e+02   2.0535776191e+01    0.3870616    0.2470834 -87.08  0.001314216    1.919    0.479
       224 -10.1838    132.7618    193.3876   1.0826890988e+02   1.7011872059e+01    0.2504477    0.2171797 -83.70 0.0008695071    1.222    0.182
       225  -8.9455     74.3949    193.7993   1.1974348885e+02   2.6088803908e+01    0.1512984    0.1008944 -62.49 0.0005168131    1.610    0.379
       226  -9.2539     54.4736    194.5287   1.2357793233e+02   2.8531802685e+01    0.1146423   0.08935399  77.05  0.000180117    1.034    0.033
       227  -9.5139     35.9763    193.3097   1.2687669687e+02   3.0908449210e+01    0.1967702    0.1322915 -76.25 0.0006364741    1.372    0.271
       228 -10.0703    146.1117    191.4906   1.0535043988e+02   1.4979911818e+01    0.2566382     0.187537 -58.85 0.0009765307    1.562    0.360
       229  -9.9633    161.9917    190.4855   1.0207060522e+02   1.2240176004e+01    0.2462237    0.1942674 -44.08  0.000430251    1.457    0.314
       230  -8.9715    124.7830    192.2250   1.0968012455e+02   1.8599733494e+01    0.1631634    0.1475929  28.55 0.0005222155    1.339    0.253
       231  -8.7598     16.8061    195.1569   1.3039349273e+02   3.2520750857e+01    0.1316905    0.1025099 -82.25 0.0003966156    1.321    0.243
       232  -8.9831     26.4947    192.0048   1.2848977220e+02   3.2161885216e+01    0.1558129   0.08528819 -79.43 0.0005312038    1.532    0.347
       233 -10.6427    199.0881    189.2416   9.4762723065e+01   5.4679946060e+00    0.3674596    0.2397473 -29.29  0.001597036    1.746    0.427
       234  -9.0582    128.4760    191.4586   1.0883834052e+02   1.8106464889e+01    0.1298473     0.111475  59.78 0.0001280039    1.007    0.007
       235  -8.8094     96.4305    190.7912   1.1511071750e+02   2.3472502956e+01    0.1597997    0.1109199 -53.77 0.0009374903    1.689    0.408
       236  -8.8534     49.4789    191.4867   1.2424555359e+02   2.9726114439e+01    0.1140719   0.08883058  78.82 0.0008098161    1.041    0.040
       237  -9.5336     14.0082    191.0177   1.3063329781e+02   3.3573728688e+01    0.1319225   0.09095343  82.60 0.0004509124    1.050    0.047
       238 -10.0266    178.9543    188.0758   9.8369407996e+01   9.4519140465e+00    0.2890753    0.1960548 -37.62 0.0005944666    1.687    0.407
       239  -9.8270    172.6143    189.2399   9.9794845519e+01   1.0459724019e+01    0.2406818    0.2175315 -13.03  0.000612202    1.265    0.210
       240  -9.9567    139.8499    189.8689   1.0634147322e+02   1.6394557435e+01    0.1898998    0.1721426  27.60 0.0005465119    1.263    0.208
       241  -9.7693     64.0042    190.0211   1.2135722848e+02   2.8212051780e+01    0.1765889    0.1449193  80.40 0.0004829005    1.082    0.076
       242 -10.0924    134.3250    187.5029   1.0708555013e+02   1.7809235480e+01    0.3174335       0.2061 -63.83  0.001696092    1.768    0.434
       243  -9.4365    134.4666    183.4599   1.0643568559e+02   1.8533454888e+01    0.1871013    0.1722619 -42.36 0.0001099943    1.299    0.230
       244  -9.0287     89.7966    188.2612   1.1611954906e+02   2.4967115299e+01    0.1468283    0.1421151  85.05  0.000359867    1.326    0.246
       245  -8.4340      1.3216    188.2919   1.3267753538e+02   3.5224631113e+01   0.08947232   0.06847809 -66.90 0.0002971189    1.609    0.379
       246  -9.6006    156.9714    186.6204   1.0242135622e+02   1.3838730645e+01    0.2241881    0.1879286 -14.92 0.0007262827    1.533    0.348
       247  -8.7382     72.7044    187.7006   1.1943105567e+02   2.7514966170e+01    0.1026018   0.09372318 -46.37 0.0002751663    1.571    0.364
       248  -9.3290     20.6980    186.3933   1.2915363929e+02   3.3828382556e+01    0.1654614    0.1054827 -65.40 0.0005954594    1.667    0.400
       249  -9.3482    150.8500    185.6438   1.0347971984e+02   1.5148467366e+01    0.1993523    0.1829892 -30.90  0.000504904    1.291    0.226
       250 -10.2507    128.8445    185.1417   1.0783456250e+02   1.9214768268e+01    0.3637615    0.2398154 -31.88  0.001802538    2.375    0.579
       251  -8.8394    120.5161    186.4588   1.0971395271e+02   2.0405155181e+01    0.1297039    0.1127876  62.71 0.0001501812    1.026    0.025
       252  -9.7931    166.6820    184.2497   1.0009828366e+02   1.2418543771e+01    0.2672047    0.2163743 -15.04 0.0006911352    1.560    0.359
       253  -9.3910     80.4017    184.8309   1.1758924145e+02   2.7014024112e+01     0.159741    0.1051139 -59.30 0.0007433208    1.636    0.389
       254  -9.3618     34.4477    184.7030   1.2650127167e+02   3.2758313514e+01    0.1501841    0.1427013  -4.53 0.0009644996    1.749    0.428
       255  -9.1557    189.8680    183.8651   9.5524134217e+01   8.0442795657e+00    0.2037985    0.1651905  15.05 0.0005948395    1.304    0.233
       256  -9.3702    173.2423    183.8430   9.8737005449e+01   1.1236122567e+01    0.2314823    0.1965669  43.02   0.00057898    1.043    0.041
       257  -9.6388    176.8579    179.3982   9.7230817538e+01   1.1285919640e+01    0.2655977    0.2292639  -7.14 0.0008185305    1.326    0.246
       258  -9.3588    172.1434    180.2019   9.8306153412e+01   1.2062854694e+01    0.4598691    0.1914682  34.17  0.001689939    2.987    0.665
       259 -10.0553    140.0650    183.5143   1.0530765609e+02   1.7513510512e+01    0.2270982    0.1870036 -29.98 0.0005788226    1.567    0.362
       260  -9.2301    109.4778    184.0511   1.1161439612e+02   2.2712221626e+01    0.1800484    0.1222714 -61.72 0.0005206565    1.548    0.354
       261  -8.5498    103.9984    183.9910   1.1272148295e+02   2.3611120311e+01    0.1530153    0.1302469  71.88 0.0003184101    1.010    0.010
       262 -10.0285    183.7030    181.3045   9.6242050953e+01   9.6431000379e+00    0.2921812    0.2213701 -28.26 0.0008925737    1.507    0.337
       263  -8.7167    162.5468    182.9551   1.0069469379e+02   1.3427380349e+01    0.1735712    0.1177837 -15.82 0.0008065972    2.388    0.581
       264  -8.9962     95.3160    182.6042   1.1430679492e+02   2.5248520308e+01    0.2001817    0.1443215 -46.65 0.0009932694    1.784    0.439
       265  -9.5767     67.0331    183.0061   1.2005073496e+02   2.9213303186e+01    0.1630353    0.1454538 -40.93 0.0006413461    1.658    0.397
       266  -9.4319    154.8612    181.9390   1.0205931389e+02   1.5060003355e+01    0.1968261    0.1763892  17.18 0.0004425027    1.270    0.212
       267  -8.8194      8.8184    182.3868   1.3103771807e+02   3.5711446246e+01    0.1151636   0.09885404  37.55 0.0005467774    1.651    0.394
       268  -9.5816    197.5462    180.8743   9.3510883065e+01   7.0372820427e+00    0.2415791    0.1843975  15.35 0.0005278074    1.409    0.290
       269 -10.2221     54.9932    180.5049   1.2217927025e+02   3.1249488999e+01    0.2236559    0.1402209 -59.42  0.001363568    1.733    0.423
       270  -9.7065    160.0824    179.7117   1.0062618691e+02   1.4466240999e+01    0.2017416    0.1741094  21.60 0.0005139149    1.276    0.216
       271  -8.5902     14.3074    180.3326   1.2991740112e+02   3.5620302690e+01   0.09782538   0.07139625 -61.43 0.0004759583    1.667    0.400
       272 -10.2510    190.6730    177.1307   9.4117295697e+01   8.9657671410e+00    0.2939293    0.2751419  32.80 0.0009109013    1.068    0.064
       273  -9.9578    193.0067    171.4290   9.2568550062e+01   9.4337334209e+00    0.2861436    0.2025304 -29.45 0.0005520791    1.560    0.359
       274  -8.5834    165.4281    179.4052   9.9499920475e+01   1.3495372433e+01    0.1355048     0.119979  38.50 0.0001402363    1.060    0.057
       275  -9.8864    145.7755    178.9080   1.0339254644e+02   1.7313246661e+01    0.1944639    0.1800504  24.12 0.0006008337    1.216    0.177
       276  -9.0623     34.7830    179.4165   1.2601479106e+02   3.3779011174e+01    0.1270602    0.1065647  37.01 0.0004175064    1.590    0.371
       277 -10.4858    134.3950    177.2264   1.0545941162e+02   1.9723749757e+01    0.2584161    0.2218748  80.46 0.0006979982    1.175    0.149
       278  -9.0060     42.6365    178.6730   1.2443297738e+02   3.3070702809e+01    0.1050969   0.08398692 -47.98 0.0007039463    1.797    0.444
       279  -9.4162     26.4759    177.9949   1.2748664414e+02   3.4921421682e+01    0.1660007   0.08745326 -77.34 0.0007002464    1.571    0.363
       280  -9.4775    169.3913    176.5083   9.8186584159e+01   1.3233642778e+01    0.2258952     0.208263  -7.97 0.0007010855    1.212    0.175
       281  -9.9358    150.2910    175.6435   1.0191026655e+02   1.7067842177e+01    0.2594832    0.2126402 -45.41 0.0008761466    1.364    0.267
       282  -9.7877    100.8660    175.9819   1.1227189896e+02   2.5707769600e+01    0.3084391    0.1710074  59.71  0.001523301    1.842    0.457
       283  -9.4804     65.1775    177.6121   1.1984395764e+02   3.0552709140e+01    0.1514277    0.1127652  33.31 0.0007296511    1.692    0.409
       284  -9.1363      6.4590    177.4808   1.3117034436e+02   3.6876705789e+01    0.1061697   0.07671641  85.36 0.0008083227    1.055    0.052
       285  -9.8762    197.7468    175.0923   9.2370580270e+01   7.9071113545e+00    0.2612755    0.2158773  -8.86 0.0007036962    1.310    0.237
       286  -9.3976     46.7997    181.4249   1.2386968166e+02   3.2038982157e+01    0.1351938    0.1093046  33.67 0.0006311869    1.650    0.394
       287  -9.2616     47.4966    175.9725   1.2322758560e+02   3.3066829455e+01    0.1544043    0.0798443 -52.19 0.0008087904    2.461    0.594
       288  -9.5526    187.6231    171.2291   9.3577929071e+01   1.0538248814e+01    0.2511386    0.2171726  13.31 0.0006157495    1.194    0.162
       289 -10.1750    182.5689    174.1536   9.5131790693e+01   1.1050482015e+01    0.3358938     0.245499 -14.35 0.0007751583    1.751    0.429
       290  -9.2950    183.7518    169.6185   9.4026823522e+01   1.1583013903e+01     0.225725    0.1839818   4.04 0.0005977636    1.415    0.293
       291 -10.8596    175.6459    172.0523   9.6107392239e+01   1.2779739013e+01    0.4552665    0.4340402  55.85   0.00278677    1.094    0.086
       292  -9.9190    178.9219    166.8478   9.4448336594e+01   1.3031107302e+01    0.3358838    0.2815104   1.18  0.001061689    1.374    0.272
       293  -9.3578    139.9656    175.0618   1.0394551065e+02   1.9114273851e+01    0.2028016     0.187694  50.86 0.0004885425    1.078    0.073
       294  -8.3524    117.6968    175.6742   1.0869825464e+02   2.2979399328e+01    0.1220944    0.1069088  -7.49 0.0005346145    1.642    0.391
       295  -8.4713    112.3415    175.3092   1.0976736777e+02   2.3962535467e+01    0.1224021    0.1064872  -2.21 0.0007044353    1.692    0.409
       296  -9.1265     37.9576    174.9628   1.2502185152e+02   3.4342244431e+01    0.1637554    0.1264449 -52.83 0.0008820614    1.718    0.418
       297 -10.0414    161.4475    173.8066   9.9300544484e+01   1.5259323895e+01    0.2519618    0.1990058  32.70 0.0004880859    1.279    0.218
       298  -9.2444     14.6325    174.6793   1.2948242851e+02   3.6713423319e+01   0.09983155   0.07335918 -55.29 0.0007037412    1.790    0.441
       299  -9.9521    129.0303    172.7430   1.0585046364e+02   2.1561879107e+01    0.2104025    0.1901273 -69.44 0.0004604373    1.167    0.143
       300  -8.6326     51.3133    173.3144   1.2220226297e+02   3.3166362106e+01    0.1064982   0.08706624 -50.68 0.0003766452    1.639    0.390
       301 -10.5376     24.1512    172.2910   1.2749528361e+02   3.6303290902e+01    0.1803005    0.1541136 -60.85 0.0007688169    1.535    0.349
       302  -8.9682     89.8221    171.8103   1.1402477448e+02   2.8278915007e+01    0.1787963    0.1658111 -68.14 0.0006782219    1.269    0.212
       303  -9.1207    201.0798    170.1846   9.0772531239e+01   8.0311121049e+00    0.2559347    0.1773592 -28.86  0.001006235    1.564    0.361
       304 -10.1558    205.1286    167.3383   8.9432617355e+01   7.6788980506e+00    0.2721266    0.2247156 -12.38 0.0005255855    1.267    0.210
       305  -8.4571     76.5167    171.4778   1.1679015323e+02   3.0287410042e+01     0.124512    0.1058215  82.06  4.57605e-05    1.044    0.042
       306  -8.9399     44.4238    170.7499   1.2334507013e+02   3.4495924203e+01    0.1583354   0.09127177 -64.47 0.0006934286    1.646    0.393
       307  -8.9817    107.4233    171.6958   1.1026857495e+02   2.5512279001e+01    0.1711995    0.1208304 -51.48 0.0009396903    1.577    0.366
       308  -9.1575      8.6816    171.6969   1.3040042966e+02   3.7834214964e+01   0.09682253   0.07102834 -61.42 0.0002746277    1.625    0.385
       309  -9.5369    143.2309    169.8028   1.0235841756e+02   1.9506901286e+01    0.1802269    0.1636261   4.15 0.0007725304    1.347    0.258
       310  -9.0254    119.4871    169.9856   1.0743004491e+02   2.3804667484e+01    0.1899448    0.1298052 -57.15 0.0005297398    1.531    0.347
       311  -8.8456     62.4798    170.4926   1.1960995032e+02   3.2375650708e+01    0.1206795    0.1011699  86.58  0.000809212    1.074    0.069
       312  -9.1749    197.2023    168.7365   9.1226504704e+01   9.0367699390e+00    0.2203395    0.1620171  -7.44 0.0006522186    1.652    0.395
       313 -10.0727    199.5907    163.0667   8.9618387249e+01   9.4826252235e+00    0.3203477    0.2415899 -32.25 0.0008453557    1.401    0.286
       314  -9.0963    158.2180    169.1064   9.9103843405e+01   1.6748141742e+01    0.2055464    0.1836944  15.07 0.0006615898    1.260    0.207
       315  -9.2078    164.7102    166.6787   9.7307367551e+01   1.5911785568e+01    0.2923118     0.177295 -28.20  0.001250345    2.265    0.558
       316  -9.5244    134.8811    167.8800   1.0379142336e+02   2.1446673114e+01    0.2000969    0.1863167  12.84 0.0005063103    1.292    0.226
       317  -8.8585    102.4012    171.7613   1.1134692041e+02   2.6320293666e+01    0.1751985    0.1164974 -51.10 0.0009403259    1.686    0.407
       318  -9.5506    169.9340    166.7440   9.6248278387e+01   1.4856338856e+01    0.2222753     0.203457 -31.92 0.0006041198    1.192    0.161
       319  -9.6281    150.3377    167.0005   1.0036050347e+02   1.8679918749e+01    0.2359335     0.190247  20.30 0.0006125491    1.496    0.332
       320  -8.3090    100.3165    167.3051   1.1113988626e+02   2.7575666721e+01    0.1195551    0.1060495 -17.66 0.0002968752    1.626    0.385
       321  -8.9004     85.0103    167.4906   1.1446762990e+02   2.9899522136e+01    0.1779775    0.1193219  43.10 0.0004228526    1.510    0.338
       322  -9.4248      8.9944    167.5108   1.3006575223e+02   3.8649797892e+01    0.1192226   0.08942413 -30.29 0.0008089156    2.422    0.587
       323  -9.1357    127.8569    165.9606   1.0496763588e+02   2.3119686143e+01    0.1925618    0.1847443   5.75 0.0004561716    1.269    0.212
       324  -8.8311     90.5261    166.5045   1.1314188129e+02   2.9278048794e+01    0.1286404    0.1132555  81.62 0.0001128893    1.047    0.045
       325 -10.2443    192.0984    163.2493   9.1112423187e+01   1.0976377346e+01    0.3384593    0.2346408 -25.54 0.0009784668    1.637    0.389
       326  -9.0116     45.0260    165.4629   1.2270044229e+02   3.5533683169e+01    0.1338417    0.1049969 -13.77 0.0005764007    2.388    0.581
       327  -9.1705    159.6038    163.6015   9.7779619894e+01   1.7498838720e+01    0.1997492    0.1645288   8.95 0.0007085027    1.509    0.337
       328  -9.7988    120.2809    163.2933   1.0615973155e+02   2.5023439053e+01    0.2093702    0.2075652  33.68 0.0005458378    1.204    0.170
       329  -8.3795     95.5131    164.4668   1.1176374282e+02   2.8933541464e+01    0.1308569     0.115228  79.65  0.000101842    1.026    0.025
       330  -8.8889    111.2414    163.5282   1.0817629031e+02   2.6549568116e+01    0.1725893    0.1274737  34.12 0.0004235578    1.544    0.352
       331  -8.6259     80.5333    163.5389   1.1490110020e+02   3.1388776803e+01    0.1264386    0.1105048  85.92 0.0008076834    1.062    0.058
       332  -9.0978    172.7318    162.2845   9.4803404264e+01   1.5095592870e+01    0.1898498    0.1581321  18.23   0.00053909    1.323    0.244
       333 -10.5293    205.4456    159.4689   8.7749461420e+01   8.8787431107e+00    0.3022749    0.2514211   3.15 0.0006135231    1.246    0.197
       334  -8.3937    181.5129    161.5233   9.2866381579e+01   1.3438021185e+01    0.1435834    0.1296625  26.34 0.0008090439    1.073    0.068
       335  -8.6922    183.9662    158.9454   9.1846039502e+01   1.3386676072e+01    0.1972187     0.184586  19.06 0.0003984651    1.050    0.048
       336  -9.3916    163.6037    160.2454   9.6289984028e+01   1.7323394586e+01    0.2245187    0.1770573 -32.72 0.0006085847    1.428    0.300
       337  -8.6307    146.8059    161.3914   1.0007061576e+02   2.0447390949e+01    0.1904656    0.1270785  36.05 0.0003354176    1.563    0.360
       338  -9.6988    184.9264    163.6196   9.2605689561e+01   1.2374925415e+01    0.2425908    0.1947372 -10.33 0.0005995506    1.450    0.310
       339  -8.6930      9.3514    161.2860   1.2956713346e+02   3.9888001126e+01   0.09889281   0.07280679 -56.98  0.000462014    1.662    0.398
       340  -9.1100    153.1359    160.1502   9.8482077383e+01   1.9441618808e+01    0.2116832    0.1876199  11.60  0.000512331    1.316    0.240
       341  -8.5268    124.3459    160.2872   1.0475255858e+02   2.4909364738e+01    0.1314475     0.111139   4.53 0.0006135965    1.652    0.395
       342  -8.6747    191.5560    157.9306   9.0121929721e+01   1.1992986278e+01    0.1891133    0.1229488  -8.77 0.0008035546    2.305    0.566
       343 -10.0076    176.8259    157.0765   9.2910801392e+01   1.5197071956e+01    0.2648497    0.2233971 -27.95   0.00047881    1.286    0.222
       344  -8.9700    168.0974    157.6973   9.4842315195e+01   1.6882591023e+01    0.2011114    0.1754535  39.53 0.0005859568    1.086    0.079
       345  -8.7316     55.4781    158.4771   1.1971864258e+02   3.5800413542e+01    0.1223423    0.1008351  89.88 0.0001689217    1.041    0.039
       346 -10.8898     24.8815    155.8368   1.2598033383e+02   3.9650083886e+01    0.1933882    0.1764704  57.27  0.001502266    1.377    0.274
       347  -9.1337    159.0631    158.1574   9.6833802623e+01   1.8635679239e+01     0.213892    0.1882139  15.54 0.0004902082    1.282    0.220
       348 -10.5278    223.6838    144.8031   8.1173284053e+01   7.4757328875e+00     0.343496    0.2547089   2.10 0.0005689618    1.497    0.332
       349  -9.3938    221.9453    155.0096   8.3729783304e+01   6.2377944600e+00    0.2443993    0.1840303 -28.19 0.0004079937    1.334    0.250
       350 -10.1031    221.4810    150.7690   8.2893336582e+01   6.9913082527e+00    0.2963491    0.2293186 -10.48  0.001159054    1.332    0.249
       351  -9.9825    216.2268    154.5654   8.4682068742e+01   7.4654133485e+00    0.2756796    0.2212346 -20.58 0.0004357499    1.253    0.202
       352 -10.1823    197.2773    154.8561   8.8348268356e+01   1.1329078106e+01    0.2931764    0.2336083  -9.64 0.0006003208    1.394    0.283
       353  -9.1054    166.3454    153.2928   9.4310159307e+01   1.8068242440e+01    0.4061032    0.1214689  50.56  0.001234658    3.614    0.723
       354  -9.1409    128.0915    155.7501   1.0311183299e+02   2.5153579626e+01    0.1916704     0.174208  55.04 0.0004146133    1.072    0.068
       355  -8.8283     99.4605    156.0530   1.0959128877e+02   3.0089867433e+01    0.1895928    0.1246413 -59.77 0.0004349567    1.496    0.332
       356  -9.5764    187.8504    153.6831   8.9964449886e+01   1.3503370840e+01    0.3373361    0.2020545 -32.62 0.0009166196    1.839    0.456
       357  -8.8434    183.8185    154.1566   9.0877177298e+01   1.4264721037e+01    0.3438494    0.1824641 -17.24  0.001093437    4.210    0.762
       358  -8.6192    154.7960    155.3731   9.7191918116e+01   2.0032741327e+01    0.1975791    0.1285455  36.95 0.0003732626    1.578    0.366
       359  -9.2920    113.4899    155.0706   1.0626192448e+02   2.7932684893e+01    0.1984469    0.1310411 -55.34 0.0005074563    1.535    0.348
       360  -9.7726     17.6064    154.7186   1.2739672656e+02   4.0547004702e+01    0.1649219   0.08336997 -87.56  0.000953484    1.652    0.395
       361  -8.9446    211.6270    154.2158   8.5463242413e+01   8.4625541072e+00    0.2066944    0.1377981 -33.13 0.0003721507    1.540    0.351
       362  -9.4677    211.8813    150.2018   8.4542830851e+01   9.0594775030e+00    0.2892141    0.1902845 -21.18 0.0007725983    1.683    0.406
       363 -10.1889    215.0223    147.0520   8.3261041937e+01   8.9160319121e+00    0.2909315    0.2369947  15.37 0.0005285422    1.236    0.191
       364  -8.7799      5.6788    154.6774   1.2982693461e+02   4.1547334162e+01    0.1030444   0.06924322 -58.29 0.0007045669    1.675    0.403
       365  -9.5850    206.1032    152.5299   8.6143750243e+01   9.8799615229e+00    0.2572373    0.1887386 -10.59 0.0006244571    1.567    0.362
       366  -8.8466    192.5357    152.9422   8.8872133477e+01   1.2649171105e+01    0.2056628    0.1419528 -35.61 0.0007780335    1.521    0.343
       367  -8.7952    171.5542    152.2387   9.2996942754e+01   1.7182109422e+01    0.1917845    0.1401031 -27.35 0.0005402098    1.590    0.371
       368 -10.2406    145.0089    151.2536   9.8501477464e+01   2.2809004592e+01    0.2958219    0.2602406  65.09 0.0003993007    1.118    0.105
       369  -9.3237    143.3983    147.4596   9.8095705380e+01   2.3896729695e+01    0.2403371    0.2071322 -41.20 0.0005637715    1.251    0.201
       370  -9.5843    157.2159    151.1055   9.5808083316e+01   2.0370085576e+01    0.2129111    0.1960043   5.74 0.0005090796    1.217    0.178
       371  -9.0318    151.9804    151.0748   9.6937325798e+01   2.1443875159e+01     0.213918    0.1746994   9.02 0.0004477284    1.573    0.364
       372 -11.5791    133.1520    147.1505   1.0033878865e+02   2.5974804867e+01    0.6689429    0.3933609 -62.85  0.002324288    1.992    0.498
       373 -10.6518    131.8928    139.9114   9.9165203229e+01   2.7735701597e+01    0.4262644    0.2897401 -65.42  0.001381553    1.657    0.397
       374  -8.8524    107.9973    151.3013   1.0685558502e+02   2.9685909408e+01    0.1889249    0.1663138  55.62 0.0004654671    1.126    0.112
       375  -9.1160    202.6496    149.8630   8.6225721204e+01   1.1047523356e+01      0.22043     0.169751 -10.44 0.0006685655    1.451    0.311
       376  -8.6059    176.4633    150.4163   9.1590008217e+01   1.6488680830e+01    0.1453904    0.1343987  31.35 0.0001315545    1.044    0.042
       377  -9.5836    197.0522    148.3633   8.6986756513e+01   1.2486740860e+01    0.2515912    0.1944447 -12.05 0.0003863011    1.464    0.317
       378  -9.5499    182.0436    148.1491   8.9952139922e+01   1.5720395460e+01    0.2292091    0.2057055 -22.73 0.0003418539    1.168    0.144
       379  -9.8881     54.0394    149.4953   1.1895090463e+02   3.7925718387e+01    0.1679829    0.1183415  41.21 0.0009934856    1.563    0.360
       380  -8.6970    172.4666    148.4615   9.2005386248e+01   1.7695720933e+01    0.1459638      0.13693  30.03 0.0001366419    1.045    0.044
       381  -9.3663    162.0083    147.2787   9.3976242693e+01   2.0120899674e+01    0.2390243    0.2098733 -43.50 0.0004304893    1.196    0.164
       382  -9.2457    122.0268    148.4835   1.0313126148e+02   2.7794336036e+01    0.2068279    0.1340611  44.46 0.0003867695    1.513    0.339
       383  -9.5960    191.1751    146.4173   8.7723245127e+01   1.4079998344e+01    0.2528756    0.2100325   4.74 0.0003261869    1.331    0.249
       384  -8.8266    150.0195    147.0036   9.6532825298e+01   2.2651964341e+01    0.2166744    0.1761622  10.42 0.0004231027    1.584    0.368
       385  -9.9355     50.8055    147.3812   1.1942104613e+02   3.8769535530e+01    0.1458443     0.119902  25.04 0.0004977942    1.650    0.394
       386  -9.1282     61.3406    146.3223   1.1686810047e+02   3.7730843848e+01    0.1210423   0.09333441 -40.28 0.0007050615    1.722    0.419
       387  -9.2321    176.3388    144.3784   9.0307810069e+01   1.7634142471e+01    0.2430027     0.212238   2.86 0.0005782275    1.269    0.212
       388  -8.8386     39.3141    145.6840   1.2182123055e+02   4.0406779496e+01    0.1254982   0.07561263  73.98 0.0007035651    1.644    0.392
       389  -9.9312    208.3770    143.2814   8.3665591669e+01   1.0938611383e+01    0.2898327    0.2140065  10.20  0.000702088    1.587    0.370
       390  -9.3149    200.3246    143.2907   8.5217696423e+01   1.2661513237e+01    0.2349901    0.2033331   7.02 0.0002984742    1.187    0.157
       391  -8.9475     56.3009    144.3204   1.1776599330e+02   3.8795840915e+01    0.1188131    0.0898665 -45.84  0.000316582    1.625    0.385
       392  -8.9022    218.8642    142.9338   8.1629590048e+01   8.7767704923e+00    0.2191236    0.1742014   5.82 0.0005013799    1.323    0.244
       393  -9.0999    171.8529    142.9394   9.0934239837e+01   1.8867082110e+01     0.221271     0.191651  12.74 0.0005115063    1.279    0.218
       394  -8.9825    194.5136    141.9965   8.6069624995e+01   1.4141238155e+01    0.2130645    0.1445026 -32.75 0.0006159008    1.534    0.348
       395  -9.0599    147.8348    141.6282   9.5889821775e+01   2.4182946919e+01    0.2271835    0.1795117  29.24 0.0006121734    1.415    0.293
       396 -10.0656    139.0222    141.2166   9.7796926952e+01   2.6053744639e+01    0.3037081    0.2478822  27.95  0.000472467    1.397    0.284
       397  -9.3827    214.2529    140.8163   8.2001561367e+01   1.0095703532e+01    0.2488342    0.1838911  -8.86 0.0006460547    1.516    0.340
       398  -9.4248    155.6598    140.9385   9.3999453186e+01   2.2697040380e+01    0.2378243    0.2011328  28.89 0.0005474013    1.268    0.211
       399  -8.8274    203.5400    139.9331   8.3831904563e+01   1.2544476213e+01    0.2047513    0.1423587 -30.08 0.0004221025    1.478    0.323
       400  -9.7067    224.5049    138.5204   7.9603367220e+01   8.2988901080e+00    0.2768728    0.2170128   3.02 0.0006507439    1.348    0.258
       401  -8.9122    187.1132    138.8411   8.6841414915e+01   1.6317704249e+01    0.1994524    0.1701852   8.65 0.0004216829    1.274    0.215
       402  -8.6637    181.5263    139.4808   8.8134179570e+01   1.7421358029e+01    0.1487748    0.1400342  22.16 0.0001685785    1.043    0.041
       403  -9.3966    166.5205    138.5834   9.1105810077e+01   2.0849316071e+01    0.2587136    0.2177953  35.83 0.0006713962    1.188    0.158
       404  -8.7425    152.0626    137.6562   9.4081490174e+01   2.4110553169e+01    0.2025238    0.1863188  44.34 0.0005953145    1.070    0.066
       405  -8.1742    109.5056    138.5065   1.0416108633e+02   3.2200710992e+01    0.1378108    0.1321071 -78.80 -0.0002790298    1.089    0.082
       406  -9.9940    218.7989    136.3365   8.0134321433e+01   9.8594535595e+00    0.2918352    0.2200243   0.44 0.0006490743    1.491    0.329
       407  -9.2757    146.9471    136.7868   9.5044184169e+01   2.5353987096e+01    0.2126476    0.1974765  11.29  0.000490598    1.206    0.171
       408 -11.2480     69.0238    136.0734   1.1354488033e+02   3.9023063185e+01    0.4062978    0.2288432  70.64  0.001886541    2.296    0.564
       409  -9.5440    198.7492    134.8470   8.3590072964e+01   1.4473442603e+01    0.2776474     0.242878 -24.10  0.001079096    1.151    0.131
       410  -8.3720    183.3705    136.2809   8.7020966343e+01   1.7608447192e+01    0.1555067    0.1139318  17.24 0.0006547903    1.695    0.410
       411  -9.1055    172.4389    135.2840   8.9085697665e+01   2.0198947927e+01    0.2607568    0.1472911 -36.40 0.0006453932    1.895    0.472
       412  -9.4396    137.7644    135.7954   9.6934972355e+01   2.7436552921e+01    0.2338866    0.1890434 -22.45  0.001175171    1.545    0.353
       413  -9.7863    192.9639    134.6403   8.4689236711e+01   1.5788117219e+01    0.2650969    0.2137853 -31.57 0.0004028594    1.264    0.209
       414  -9.4640    217.5465    132.3318   7.9430685591e+01   1.0785313753e+01    0.4761774     0.277938  10.05  0.001721659    3.114    0.679
       415 -10.4553    221.2894    126.7802   7.7436904817e+01   1.0882695016e+01    0.4460077    0.3210403   1.40  0.001717414    1.665    0.399
       416 -10.5028    227.9047    123.1810   7.5404740737e+01   1.0024962932e+01    0.4771073    0.3858551 -14.91  0.001641643    1.218    0.179
       417  -8.7802    231.4855    119.4776   7.3896408019e+01   9.8382354779e+00    0.2231748    0.1671008   3.62 0.0006950458    1.513    0.339
       418  -9.3744    187.9168    133.6919   8.5486986192e+01   1.7078356212e+01    0.2543511    0.2033236 -17.20 0.0006028638    1.380    0.276
       419  -9.3100    163.6566    133.6409   9.0607324440e+01   2.2435005116e+01     0.246509    0.2178726   0.13 0.0006010259    1.287    0.223
       420  -9.1032    155.8876    134.1666   9.2446399195e+01   2.4004431591e+01    0.2210474    0.2020417  82.86 0.0004559229    1.164    0.141
       421  -8.3790    117.6482    151.6638   1.0471710881e+02   2.7916819683e+01    0.1370423    0.1127439  -8.79 0.0007045338    1.790    0.441
       422  -8.7551     22.2993    134.3409   1.2446445913e+02   4.4516561535e+01    0.1146639   0.07387824 -53.27 0.0007035461    1.668    0.400
       423 -10.1253    179.5154    129.9508   8.6341734925e+01   1.9644729681e+01    0.2789286    0.2487208  20.64  0.000470713    1.162    0.139
       424  -9.8648    136.7558    130.0570   9.5910435634e+01   2.8847694551e+01    0.3173388    0.2382638 -54.18  0.001092161    1.349    0.259
       425  -9.9667    134.9958    124.2126   9.4999751524e+01   3.0444411734e+01    0.3368632    0.2041346 -47.01  0.001491809    1.649    0.394
       426  -9.8587    135.0000    120.0184   9.4015777464e+01   3.1334890954e+01     0.277516    0.2613015 -27.42  0.001386437    1.141    0.123
       427 -10.9342    134.1210    113.6008   9.2674321408e+01   3.2880946144e+01    0.7916184    0.2705074 -37.34  0.002262551    4.080    0.755
       428  -8.9842    114.4939    131.0048   1.0145559337e+02   3.2951017599e+01      0.21121    0.1366424 -52.71 0.0004769054    1.513    0.339
       429  -8.5467    150.4308    133.4575   9.3514352863e+01   2.5306363226e+01    0.1456972    0.1432107  53.72  0.000124112    1.027    0.026
       430  -8.4165    198.2858    130.3804   8.2628615509e+01   1.5363387859e+01    0.1564218    0.1146785   5.14 0.0007013727    1.731    0.422
       431  -8.8443    160.7158    130.0222   9.0418218327e+01   2.3791502258e+01    0.2079799    0.1944944 -37.60 0.0004638731    1.099    0.090
       432  -8.6955    126.0141    130.0197   9.8457071447e+01   3.0991616605e+01    0.1744582    0.1641814 -72.93 0.0004213477    1.036    0.035
       433  -8.6406    206.3046    129.2968   8.0816058984e+01   1.3765389112e+01    0.1509236     0.112623  12.75 0.0003537915    1.584    0.369
       434  -8.4423    131.3066    129.3538   9.7044526546e+01   3.0093463830e+01    0.1477086    0.1186003  -9.14 0.0005755855    1.716    0.417
       435 -10.1538    208.2742    135.9331   8.2003013114e+01   1.2198251495e+01    0.3284268    0.2040574  45.45  0.001155115    1.573    0.364
       436  -8.7240    154.7051    128.6879   9.1453317208e+01   2.5363695801e+01    0.1486598    0.1202465   3.09 0.0002215636    1.595    0.373
       437  -8.2756    212.2909    127.3294   7.9216003677e+01   1.2771833250e+01    0.1520464    0.1121469   8.89 0.0003360032    1.624    0.384
       438  -9.4067    192.7747    127.0206   8.2918403897e+01   1.7202016366e+01    0.2296569    0.1949267   7.40 0.0005417605    1.282    0.220
       439  -9.1017    186.7365    127.2365   8.4194871649e+01   1.8526932546e+01    0.2056061     0.171634  10.49 0.0004502824    1.339    0.253
       440  -8.8347    172.0217    127.1680   8.7270405468e+01   2.1852112046e+01    0.2475534     0.166026  24.52 0.0005918283    1.923    0.480
       441  -8.3924    165.6752    126.6941   8.8536989381e+01   2.3359010595e+01    0.1539437    0.1200859   9.86 0.0005549908    1.646    0.392
       442  -9.1598    200.0514    124.9534   8.0977476214e+01   1.5925534675e+01    0.2326335    0.1756448  11.57 0.0003943557    1.592    0.372
       443  -8.8141    217.8225    124.2037   7.7445599694e+01   1.2069737000e+01    0.2044275    0.1647554  10.31 0.0004627813    1.335    0.251
       444  -8.9875    152.0939    124.3082   9.1015017155e+01   2.6819216586e+01    0.2100271    0.1911678  52.79 0.0004096036    1.086    0.079
       445  -8.9369    124.4651    124.4641   9.7605150344e+01   3.2494113455e+01    0.1445651    0.1402988 -79.11 0.0001757421    1.031    0.030
       446  -8.6518    108.1631    123.8066   1.0150621665e+02   3.5685436006e+01     0.184053     0.167405 -21.97 0.0003836998    1.310    0.237
       447  -9.5440    179.9860    122.0683   8.4336151532e+01   2.1024962425e+01    0.3082284    0.2380827  -3.68 0.0009126152    1.620    0.383
       448  -8.4365    170.4189    122.5590   8.6500351859e+01   2.3105243367e+01    0.1507822    0.1454065  12.96 0.0001293269    1.050    0.048
       449  -9.7045    212.6557    120.4665   7.7484100198e+01   1.3851601377e+01    0.2688068    0.2318367  10.38 0.0005328007    1.194    0.162
       450  -9.4767    188.0284    121.0321   8.2414663624e+01   1.9375745729e+01    0.2279826    0.2129948  17.90 0.0003316009    1.068    0.064
       451  -9.9450    133.9023    107.3327   9.1147772897e+01   3.4254743252e+01    0.4273775    0.2227292 -46.66   0.00118208    1.889    0.470
       452  -8.8358    117.0382    121.0053   9.8663684910e+01   3.4674180988e+01    0.2249397    0.1801051 -14.96 0.0007411415    1.694    0.410
       453  -9.2418    203.0849    119.5946   7.9074479625e+01   1.6177664784e+01    0.2115758    0.1851609  40.57 0.0004709128    1.134    0.118
       454  -8.5777    220.1850    118.9174   7.5734269932e+01   1.2420063902e+01    0.2002497    0.1643185  -0.81 0.0005130726    1.287    0.223
       455  -9.0508    194.2814    118.9887   8.0646335287e+01   1.8308839516e+01    0.2092623    0.1870042 -21.36 0.0003178075    1.123    0.109
       456  -8.7740    224.2830    118.3163   7.4860847289e+01   1.1606420584e+01    0.2139787    0.1287037  -6.14 0.0002260998    2.473    0.596
       457  -9.4930    225.4566    114.8391   7.3803064253e+01   1.1911229110e+01    0.2216391    0.1391253 -31.91 0.0009139618    1.531    0.347
       458  -9.3180    157.4760    118.0218   8.8255706470e+01   2.6911670423e+01    0.2279381    0.2057016  45.19 0.0004664702    1.101    0.092
       459  -8.2286    209.3267    117.2704   7.7313873039e+01   1.5152677629e+01    0.1524784    0.1133128  17.88 0.0004463899    1.578    0.366
       460  -8.7277    174.1821    117.5766   8.4451019977e+01   2.3210579023e+01    0.2162362    0.1411949  37.20 0.0005242451    1.630    0.386
       461  -9.0840     66.3212    117.2973   1.1105527738e+02   4.3644001931e+01    0.1280246    0.0968989 -35.75 0.0003291971    1.619    0.382
       462  -9.1259    147.8089    116.1357   9.0019669507e+01   2.9429071311e+01    0.2074009     0.183012   0.75   0.00060447    1.319    0.242
       463  -9.5321    218.9168    113.6380   7.4656975106e+01   1.3580655496e+01    0.4496605    0.1920174  36.06  0.001495303    3.167    0.684
       464  -8.4681    163.4386    114.5516   8.6039552881e+01   2.6260619986e+01    0.1531136    0.1472583   9.92 8.864991e-05    1.070    0.066
       465  -9.1743    129.7390    114.2043   9.3901791464e+01   3.3655612341e+01    0.2031557    0.1793932  -3.75 0.0006779512    1.357    0.263
       466  -8.6789     21.3737    114.3177   1.2238258484e+02   4.9021510648e+01    0.1200127   0.07407161 -46.26  0.000703171    1.800    0.444
       467  -9.3225    185.9635    113.0123   8.0816560295e+01   2.1335567558e+01    0.2314688    0.2178926  13.16 0.0004052561    1.071    0.067
       468  -8.8591    114.3867    112.7551   9.7429102020e+01   3.6988294526e+01    0.2049696    0.1322081 -41.04 0.0003918721    1.616    0.381
       469  -9.5902      6.5010    113.0031   1.2599718029e+02   5.0398436327e+01    0.1791635   0.08634229 -75.31 0.0007258937    1.566    0.361
       470  -9.2163    194.6451    111.2812   7.8623037945e+01   1.9613282492e+01     0.249426    0.1905836 -21.53 0.0004045468    1.395    0.283
       471  -8.8693    203.4018    113.8167   7.7567448807e+01   1.7116505354e+01    0.2072193    0.1433776 -21.06 0.0004666594    1.587    0.370
       472 -13.0518    245.4787    240.0281   9.5222371894e+01  -8.5089260103e+00    0.9096327    0.7265431 -22.15  0.006928556    1.540    0.351
       473  -8.2936    144.2999    110.2726   8.9371412199e+01   3.1406957459e+01    0.1478633    0.1214518   6.86  0.000253361    1.530    0.347
       474  -8.3580    168.4677    109.5579   8.3638754632e+01   2.6082859027e+01    0.1541099    0.1490267  14.56 0.0001012973    1.047    0.045
       475  -8.4862     66.6837    109.6476   1.0951316722e+02   4.5343814315e+01    0.1362185   0.09483702 -35.98 0.0007046635    1.737    0.424
       476  -8.5349      1.5976    109.2123   1.2682897227e+02   5.1535589181e+01    0.1640977   0.07340918 -65.22  0.000935201    1.663    0.399
       477 -12.1565    219.7773    201.9892   9.3289739137e+01  -7.3286808534e-02    0.9715677    0.6279907  13.36   0.00334584    1.748    0.428
       478  -8.6147    176.7825    108.4066   8.1540355130e+01   2.4356793430e+01    0.2145243    0.1432075  39.44 0.0005935738    1.562    0.360
       479  -9.8252    123.6779    107.8971   9.3861402175e+01   3.6238228194e+01    0.2535187    0.2064433  29.19 0.0006943038    1.390    0.281
       480  -8.2352    201.4677    107.4794   7.6315667821e+01   1.8680840973e+01    0.1533604    0.1454909   3.46 0.0002606509    1.040    0.038
       481  -8.8157    190.3844    107.2240   7.8420051224e+01   2.1354243827e+01    0.2061425    0.1425632 -44.76  0.000276641    1.482    0.325
       482  -8.6026    183.1426    106.8284   7.9791783516e+01   2.3147999840e+01     0.211621    0.1806056  13.29 0.0004067912    1.300    0.231
       483  -9.0977    160.8677    105.9337   8.4379925582e+01   2.8556369649e+01    0.2309534    0.2059989   1.39 0.0003983312    1.245    0.197
       484  -9.3038    129.2664    106.2922   9.2038165070e+01   3.5443762957e+01    0.2080241    0.1745039 -89.33  0.001038605    1.386    0.279
       485  -9.1846    113.0068    105.6902   9.6071256929e+01   3.8799870874e+01    0.1995395    0.1941381  61.26 0.0004574081    1.072    0.067
       486  -9.1625     13.0217    106.2363   1.2354145586e+02   5.1443621830e+01    0.1220189    0.0992631  29.18 0.0005610851    1.603    0.376
       487  -8.7246    165.7519    104.5821   8.2925068579e+01   2.7685060280e+01    0.2145832    0.1505083  61.77 0.0009398556    1.591    0.371
       488  -8.5273    218.7440    103.3577   7.2089056371e+01   1.5327220423e+01    0.2069606    0.1344129  42.50 0.0004816932    1.594    0.373
       489  -8.4935    205.5911    103.4645   7.4493598731e+01   1.8403424990e+01    0.1529623    0.1428592  -1.42 9.100867e-05    1.066    0.062
       490 -13.4909    247.2911    158.8495   8.0129353397e+01   7.5993804859e-01     2.994305     1.056695 -20.23  0.008186233    6.141    0.837
       491  -8.7881    190.2550    102.3927   7.7170773176e+01   2.2261229823e+01      0.15952     0.120042   1.97 0.0006960556    1.689    0.408
       492 -10.2542    119.6898    101.6993   9.3304633122e+01   3.8369601852e+01    0.2605907    0.2274041 -17.84 0.0008578594    1.306    0.234
       493  -8.7901    141.3235    100.2987   8.7463813946e+01   3.4119635142e+01    0.1543003    0.1227633   5.91 0.0003055375    1.627    0.385
       494  -9.0240     18.5105     99.5206   1.2116128219e+02   5.2539440080e+01    0.1193524   0.09219605 -75.73 0.0008099644    1.037    0.035
       495  -9.9781    225.5900     97.6034   6.9441067288e+01   1.4676454959e+01    0.3546859    0.2217081  10.28  0.001256056    2.537    0.606
       496  -9.4178    229.6053     94.2380   6.7916682331e+01   1.4284140920e+01    0.2334107    0.1724921  15.27 0.0006618152    1.647    0.393
       497 -12.6637    232.1997    174.6815   8.5978838784e+01   1.3665799347e+00     1.542662     0.579529 -25.48  0.005694385    3.503    0.715
       498  -8.8388     65.9526    103.5289   1.0848706126e+02   4.6834285423e+01    0.1749986    0.1178192  -5.76 0.0008096741    2.637    0.621
       499  -8.1272    167.3253     98.3215   8.0880454061e+01   2.8523629382e+01     0.161704    0.1236008  11.60  0.000704719    1.682    0.406
       500  -8.8120     90.0096     97.9548   1.0042157004e+02   4.4570596828e+01    0.2190465    0.1671165  87.86 0.0007121207    1.645    0.392
       501  -8.7461    203.3716     95.8645   7.2897765649e+01   2.0246293333e+01    0.2167645    0.1442378 -20.69  0.000465423    1.676    0.403
       502  -8.3950    195.4547    101.5026   7.5908399141e+01   2.1170733444e+01    0.1557151    0.1465217   5.67 0.0001491805    1.073    0.068
       503  -8.7320      7.6492     96.6847   1.2378070633e+02   5.3905281550e+01    0.1180101   0.06692987 -48.61 0.0007046853    1.731    0.422
       504  -8.3187    195.3131     95.3178   7.4275516043e+01   2.2299421842e+01    0.1599015     0.120484  14.71 0.0003612275    1.646    0.392
       505  -8.1551    207.3074     93.3138   7.1493301304e+01   1.9728570876e+01    0.1569786    0.1182501  15.05 0.0006175837    1.625    0.385
       506  -9.6302    225.2226     91.8336   6.8010537686e+01   1.5689975602e+01    0.2091373    0.1700957   0.27 0.0006141451    1.364    0.267
       507  -8.6794    164.6261     92.2228   7.9777935231e+01   3.0334411927e+01    0.2181868    0.1483934 -25.82 0.0004521432    1.635    0.388
       508  -8.8415    127.9805     91.2844   8.8322933872e+01   3.8868859608e+01    0.1987303    0.1893496  31.90 0.0001769345    1.090    0.083
       509  -8.3381    188.6659     90.6921   7.4304187090e+01   2.4746955207e+01    0.1623081    0.1210631  17.71 0.0007041479    1.672    0.402
       510  -8.4360    197.0000     89.9706   7.2493285161e+01   2.2819807460e+01    0.2448289   0.08699068 -34.30 0.0003654209    2.766    0.638
       511  -8.5177    203.5928     89.1605   7.1046467911e+01   2.1338028409e+01    0.2134781     0.146582 -18.42 0.0004836691    1.642    0.391
       512  -8.9888    158.1452     88.6277   8.0211188188e+01   3.2571571060e+01    0.2156823    0.1968598  37.62 0.0005690299    1.112    0.100
       513 -12.0943    235.9212    226.9216   9.4718099055e+01  -5.7159026690e+00    0.3720865    0.2655563 -20.24 0.0007589906    1.537    0.349
       514  -8.7114    151.0213     86.4552   8.1232657439e+01   3.4675713417e+01    0.2138554    0.1306884  27.22 0.0004387067    2.290    0.563
       515  -9.6425      9.8061     85.7805   1.2164879693e+02   5.6166219955e+01    0.2332024    0.1364861  70.55   0.00122569    2.125    0.529
       516  -8.4215    197.7419     85.6422   7.1158008147e+01   2.3380843702e+01    0.1569628    0.1201502   7.02 0.0006970689    1.619    0.382
       517 -10.4272    217.2964     83.2228   6.7046292692e+01   1.8969570722e+01    0.5306603    0.2266204  40.61  0.001805043    2.941    0.660
       518 -10.4160      2.8138     82.5639   1.2325645881e+02   5.7271920047e+01    0.2486191    0.1584474 -88.95  0.001609311    1.487    0.328
       519  -8.6056    185.5308     81.4599   7.2316762810e+01   2.7150864273e+01    0.1558432    0.1505765   8.84 4.979657e-05    1.047    0.045
       520  -8.5584    159.1622     79.8257   7.7395664040e+01   3.3983896355e+01    0.2141163    0.1831446  12.08 0.0003755199    1.314    0.239
       521  -8.6463    215.4386     78.4797   6.6072443235e+01   2.0184268420e+01    0.1508542    0.1436531  -7.21 0.0001310471    1.061    0.057
       522  -8.7290    150.8236     77.1760   7.8510344864e+01   3.6486194712e+01    0.2129917    0.1818281  11.43  0.000337443    1.317    0.241
       523  -8.6688    206.1343     82.8692   6.8866634291e+01   2.1766650854e+01    0.2078819    0.1774579   5.24  0.000311336    1.299    0.230
       524 -12.0476    238.4242    217.7181   9.2796443777e+01  -5.1052918420e+00    0.4653198    0.2961976 -16.23  0.001153127    1.691    0.409
       525  -8.3172    194.4110     75.5318   6.8922974171e+01   2.5922632547e+01     0.153397    0.1483539  -9.09 0.0001145817    1.039    0.038
       526  -8.6539    174.6752     75.7174   7.2825036467e+01   3.0880837641e+01    0.1598213    0.1208302  21.40 0.0003186052    1.597    0.374
       527  -8.6270    167.2748     75.3887   7.4280905785e+01   3.2791216280e+01    0.1632331    0.1223722   7.62 0.0005223744    1.725    0.420
       528  -8.4869    157.4955     73.5369   7.5864644332e+01   3.5539436772e+01    0.1564523    0.1500012  10.34  0.000233659    1.055    0.052
       529  -8.7022    206.4614     72.4927   6.5924954814e+01   2.3375355044e+01    0.1514195    0.1476011 -19.08 0.0002360732    1.022    0.022
       530 -10.6944      1.6472     68.2627   1.2142227998e+02   6.0413808724e+01    0.4510297   0.08146322 -64.39  0.001335252    3.156    0.683
       531 -13.8335    244.1759    144.9530   7.7642389430e+01   3.3285273556e+00     3.226145     1.345912 -19.99   0.01121632    3.492    0.714
       532  -8.4708    140.2661     72.3145   7.9538776765e+01   3.9882023664e+01    0.1523223    0.1201589   3.90 0.0001932952    1.547    0.353
       533  -9.6433     92.5148     69.5628   9.1813199102e+01   5.0238273395e+01    0.2597991    0.2309471 -38.27 0.0008983224    1.030    0.029
       534 -12.4630    234.7228    144.5720   7.9168969159e+01   5.2597743575e+00     1.268652    0.7688416 -30.19   0.00619594    1.607    0.378
       535  -9.4859    170.5528     68.3695   7.1458678829e+01   3.3190129480e+01    0.2781949    0.2230986 -29.77 0.0005681366    1.253    0.202
       536  -8.2917    163.2913     69.3349   7.3290730269e+01   3.4850439296e+01    0.1603038     0.121876  13.37 0.0002916463    1.636    0.389
       537  -8.2823    116.3197     69.3369   8.4834863996e+01   4.5728101494e+01    0.1541593    0.1160813  -0.05 0.0007049679    1.707    0.414
       538 -12.3160    229.6534    231.2927   9.6442877613e+01  -5.1994743078e+00     0.708837    0.3266179 -37.68  0.002406332    2.715    0.632
       539  -8.4046    138.6833     65.2812   7.7680855632e+01   4.1540201016e+01     0.150298    0.1218748 -77.32 0.0002723057    1.578    0.366
       540  -9.4382     68.5461     63.8076   9.7660404816e+01   5.5195577137e+01    0.2292502    0.1955347  27.00  0.001063793    1.321    0.243
       541  -8.4083    208.4301     62.5206   6.2785799310e+01   2.4435862148e+01    0.1495763    0.1452875 -36.51 0.0001219066    1.015    0.015
       542 -13.1809    223.2810    220.3463   9.5775542538e+01  -2.9400049607e+00     1.386227    0.7099541  30.90  0.007286859    1.748    0.428
       543  -8.6709    157.5622     59.4755   7.1418894650e+01   3.7962765729e+01    0.1539549    0.1483201  10.06 0.0001341679    1.035    0.034
       544  -8.6387    164.9976     57.7851   6.9298795637e+01   3.6360933071e+01    0.2242187    0.1673409  -4.50 0.0005322013    1.618    0.382
       545  -8.3572     31.3562     58.3079   1.0903860518e+02   6.0544260251e+01    0.1284818   0.07558378 -34.18 0.0007042137    1.726    0.420
       546  -9.0788    146.9311     56.8153   7.2929325275e+01   4.1036410330e+01    0.2375967    0.2018314  15.62 0.0005356894    1.272    0.214
       547 -11.0458      2.3979     54.0579   1.1855494358e+02   6.3374635894e+01    0.4206848    0.2207163 -75.57  0.002450325    1.797    0.444
       548 -12.3469    191.6042    244.6048   1.0471155437e+02  -6.2556089823e-01     0.306662    0.2507352  13.53 0.0006002365    1.319    0.242
       549  -9.9888     11.4943     35.4744   1.1045373575e+02   6.6639294553e+01    0.2011693    0.1186301 -61.66 0.0006900855    1.491    0.329
       550 -10.6830     16.7243     40.0108   1.0961633829e+02   6.5405402805e+01    0.3094371    0.1915992  33.00  0.001962268    2.078    0.519
       551 -10.1113      2.0184     45.7936   1.1692821625e+02   6.5095528760e+01    0.2514255    0.1365837 -54.74 0.0003926008    1.308    0.235
       552 -10.3591      4.9008     41.4101   1.1475715713e+02   6.5838167151e+01    0.2351113    0.1550658 -48.20 0.0003802705    1.145    0.126
       553 -10.2218     78.4922     52.9786   9.0820633283e+01   5.5851159191e+01    0.2499757     0.242163 -83.13  0.001011533    1.267    0.211
       554  -8.7592    163.2845     51.3369   6.7572399517e+01   3.7819637410e+01    0.1583096    0.1175765  18.43 0.0004141732    1.626    0.385
       555  -9.3695    172.0925     49.9663   6.5390068975e+01   3.5757111014e+01    0.2180244    0.2141384  27.47  0.001181072    1.015    0.015
       556 -11.1985    221.4156     48.7778   5.7004578502e+01   2.3150518397e+01    0.3272563    0.2318344 -54.03 0.0007472048    1.450    0.311
       557 -10.3047     10.0625     39.9782   1.1230884077e+02   6.5837438632e+01     0.255682    0.1625185 -35.76   0.00041472    1.404    0.288
       558  -9.1254     25.8442     34.1387   1.0401740761e+02   6.5850579754e+01    0.1620551     0.109239 -31.66 0.0003111355    1.290    0.225
       559 -10.3026      5.7993     33.4252   1.1226493002e+02   6.7371220485e+01    0.2693742    0.1202425 -32.96  0.001193986    2.200    0.546
       560 -11.7323    233.5476    210.7787   9.2438867346e+01  -3.5132099601e+00    0.4006808    0.2612279   0.11 0.0008750372    1.701    0.412
       561 -12.4066    230.1186    195.8380   9.0383356705e+01  -1.0895393885e+00      1.60177    0.6792359 -17.59  0.005651714    4.627    0.784
       562  -9.0087     30.2018     31.2024   1.0116317627e+02   6.6016689329e+01     0.150615    0.1302456 -52.68 0.0007932878    1.308    0.236
       563  -8.4570    173.7105     33.7211   5.9864601573e+01   3.7626176933e+01     0.150476    0.1104287  30.83 0.0006937621    1.522    0.343
       564 -11.2836    236.2227     28.5093   4.9765433460e+01   2.2121535440e+01    0.3386857    0.2467483  -2.12  0.001712685    1.770    0.435
       565  -9.2686    186.5437    245.4952   1.0567393546e+02   7.9461907932e-02    0.1598947    0.1146165 -36.50 0.0005501457    1.817    0.450
       566 -10.8124    124.1201    246.8519   1.1627067452e+02   9.7538598953e+00    0.2475359    0.1954453  63.37 0.0005544133    1.121    0.108
       567  -9.0027    119.9848    248.6918   1.1713167811e+02   1.0112200850e+01    0.1580017    0.1264306  44.70 0.0005079995    1.260    0.206
       568  -9.0526    108.2962    248.9840   1.1906760372e+02   1.1794910734e+01     0.143503    0.1174364  66.12 0.0005943759    1.147    0.128
       569  -9.3461     16.4484    248.9713   1.3311374350e+02   2.3239617477e+01    0.1429542    0.1169635  54.04 0.0008146872    1.585    0.369
       570  -9.2547      8.5111    248.3347   1.3420075998e+02   2.4133144882e+01     0.137572    0.1022003 -88.82 0.0005598838    1.435    0.303
       571  -9.7424     31.5853    247.2664   1.3086099247e+02   2.1907847838e+01    0.1603844    0.1433087  72.84 0.0007815797    1.594    0.373
       572 -10.4830    133.0766    245.4592   1.1463898730e+02   8.5810858882e+00    0.2153073    0.1944485  30.62 0.0004355891    1.398    0.285
       573 -10.4795      4.7326     16.5796   1.0734966541e+02   7.0591070603e+01    0.2227558    0.1835584  25.84 0.0005759123    1.635    0.388
       574 -10.2048    113.4833    244.3442   1.1778911761e+02   1.1718386334e+01    0.2167754    0.1933111 -38.44  0.000760908    1.733    0.423
       575 -10.4833     93.0679    244.5984   1.2116218947e+02   1.4632234100e+01    0.2329943    0.1764868  46.55 0.0006388651    1.328    0.247
       576 -10.0335     12.6033     27.4089   1.0746342458e+02   6.8113525553e+01    0.2004204    0.1576961 -54.90 0.0007357604    1.242    0.195
       577 -10.8993      3.6216     27.5464   1.1149185930e+02   6.8621127098e+01    0.3236429    0.2195999   8.52  0.001774243    1.799    0.444
       578  -9.8738      4.4554     23.4734   1.0984235578e+02   6.9344242955e+01    0.2058874    0.1262996 -32.40 0.0005699563    1.403    0.287
       579  -8.5928     78.7206     22.3021   7.8737772831e+01   6.0971574753e+01    0.1190296     0.102221 -52.82 0.0003017705    1.546    0.353
       580  -8.9818     75.5909    246.2441   1.2409154451e+02   1.6755369057e+01    0.1206506    0.0912137 -70.31 0.0005298689    1.614    0.381
       581 -10.2105     80.3568    244.2700   1.2318590976e+02   1.6429456526e+01    0.1928201    0.1522525  58.15 0.0004575739    1.205    0.170
       582  -8.8539     47.3828     18.3859   8.8728650894e+01   6.6328435709e+01    0.1855177    0.1197769 -11.12 0.0005746512    1.602    0.376
       583  -9.7522     37.9481     15.4919   9.1438444135e+01   6.7924808281e+01    0.1798733    0.1291004 -28.90 0.0003821395    1.114    0.102
       584 -10.2011     22.8510     15.6594   9.8352713596e+01   6.9425106478e+01    0.2119245    0.1527521 -33.38 0.0003848334    1.055    0.052
       585  -9.3713     41.2013    244.6453   1.2929787499e+02   2.1247825435e+01    0.1488358    0.1396386  68.86 0.0008314876    1.695    0.410
       586 -13.9190    223.8958    182.9939   8.9074061758e+01   1.7453045632e+00     4.650431     1.158423 -33.40   0.01528042    4.595    0.782
       587 -10.6158    104.5022    241.5436   1.1901744564e+02   1.3465275679e+01    0.2355819     0.220594 -47.68 0.0007520382    1.621    0.383
       588  -9.0181    101.5174    238.5528   1.1924091473e+02   1.4363347374e+01    0.1529456    0.1042065 -70.37 0.0006529295    1.677    0.404
       589 -10.3960    125.2891    240.0998   1.1538959070e+02   1.0560695535e+01     0.215262    0.1943705  87.70 0.0004279014    1.290    0.225
       590 -10.4233     68.4220    240.2030   1.2479336624e+02   1.8648371449e+01    0.1874539    0.1553068  69.22 0.0004475064    1.249    0.199
       591  -9.8065     51.3918    240.3922   1.2749075305e+02   2.0738532075e+01    0.1698468    0.1498611  64.28 0.0006571044    1.478    0.323
       592 -10.0422     25.0669    239.6571   1.3145155545e+02   2.3832489172e+01    0.1971138    0.1499375 -57.86  0.001050211    2.158    0.537
       593 -10.4947    219.8524    238.6472   9.9176498254e+01  -4.4494501143e+00     0.212521    0.1701026  -4.26 0.0005392785    1.351    0.260
       594 -10.5339    148.7792    238.4233   1.1119787771e+02   7.0949829386e+00    0.2124866    0.1893619  37.28 0.0003991445    1.234    0.189
