#   1 NUMBER                 Running object number                                     
#   2 MAG_AUTO               Kron-like elliptical aperture magnitude                    [mag]
#   3 X_IMAGE                Object position along x                                    [pixel]
#   4 Y_IMAGE                Object position along y                                    [pixel]
#   5 X_WORLD                Barycenter position along world x axis                     [deg]
#   6 Y_WORLD                Barycenter position along world y axis                     [deg]
#   7 A_WORLD                Profile RMS along major axis (world units)                 [deg]
#   8 B_WORLD                Profile RMS along minor axis (world units)                 [deg]
#   9 THETA_WORLD            Position angle (CCW/world-x)                               [deg]
#  10 FWHM_WORLD             FWHM assuming a gaussian core                              [deg]
#  11 ELONGATION             A_IMAGE/B_IMAGE                                           
#  12 ELLIPTICITY            1 - B_IMAGE/A_IMAGE                                       
         1 -12.8149    189.8989      6.5754   5.7245316714e+01   3.7175092280e+01     3.269854    0.3733766  65.90   0.01014337    4.992    0.800
         2 -11.3316    246.5805      6.3496   5.2300420305e+01   2.5034111602e+01    0.6471661    0.5689479  88.77   0.00499654    1.369    0.269
         3 -12.8316    167.2013     17.3647   6.2551869193e+01   4.1296647669e+01      2.56656      1.29554  68.57   0.01294588    1.689    0.408
         4 -12.4120    246.3284    207.7751   9.2176063879e+01  -7.7869707338e+00      2.70152     1.593144 -16.30    0.0135586    1.985    0.496
         5 -11.2963    246.8151    248.7698   9.9403453301e+01  -1.4070656427e+01    0.8603084    0.6163504  -4.60  0.005326079    1.206    0.171
         6 -11.8567    236.0551    247.2807   1.0110257322e+02  -1.2449855773e+01    0.3149489    0.2482899  -1.94 0.0003413731    1.052    0.049
         7 -12.2751    248.8937    200.7993   9.0411290562e+01  -7.0074404534e+00     2.780024    0.6895128 -43.93  0.009400355    3.951    0.747
         8  -9.9192    148.0807    224.0604   1.1502112938e+02   5.6314898657e+00    0.2403533    0.2332459  -7.31  0.001451772    1.111    0.100
         9 -12.5332     10.5542    202.3645   1.4262333532e+02   3.0578002767e+01     1.980806     1.122197 -60.81   0.01140257    1.737    0.424
        10  -7.9446    149.9073    209.4925   1.1216342640e+02   8.3307133022e+00    0.2092709     0.136424  40.72 3.171662e-05    1.451    0.311
        11  -8.9371    157.2273    180.2271   1.0497437808e+02   1.3369256339e+01    0.2555113    0.1153221  50.28 0.0008965819    2.481    0.597
        12 -10.0485    167.3010    175.6020   1.0171185944e+02   1.2395504399e+01    0.3462738    0.2770828 -43.93  0.001119715    1.246    0.198
        13  -9.1836    175.8544    175.7334   9.9819970021e+01   1.0657645800e+01    0.2519668    0.2013394  15.63  0.001135218    1.462    0.316
        14  -7.7540     25.2722    175.5827   1.3686747693e+02   3.5453425606e+01    0.1477197    0.1294046   7.92 0.0009400363    1.555    0.357
        15  -7.7863    105.4837    174.5066   1.1654252872e+02   2.4591673349e+01    0.1510564    0.1431416 -87.95 -9.721272e-05    1.014    0.014
        16  -8.9103    190.1644    171.1832   9.5765686594e+01   8.7888393246e+00    0.3156371    0.1799597  22.09  0.001155687    2.800    0.643
        17  -9.0332    182.9050    168.9970   9.6855388233e+01   1.0701546417e+01    0.2974894    0.2150041  23.05  0.001362229    1.663    0.399
        18  -9.2678     97.6815    164.7488   1.1674710388e+02   2.8371337451e+01    0.2640448     0.256491 -73.00  0.000311341    1.070    0.065
        19  -8.3162    163.9299    162.0099   9.9595046302e+01   1.6127117304e+01    0.2249772    0.2185258 -76.88  0.001194387    1.038    0.037
        20  -8.6847    243.1159    160.2374   8.3427975834e+01   1.0792493679e+00    0.2623512    0.2146958  -9.38 0.0008080011    1.362    0.266
        21  -9.8923    210.8642    158.1328   8.8792230950e+01   7.4095423198e+00    0.2768729    0.2657684  78.33 0.0004410533    1.151    0.131
        22  -8.9627     96.5099    149.4831   1.1404758214e+02   3.2376919063e+01      0.25116    0.2448322  63.64 0.0005206099    1.069    0.065
        23  -7.4602    237.6638    149.3151   8.2098347693e+01   4.0774180371e+00    0.1388418    0.1052787 -72.76 0.0007047296    1.694    0.410
        24  -7.9109    160.1669    148.4029   9.7436658073e+01   2.0004388927e+01    0.2169646    0.1482109  57.04 0.0004885539    1.615    0.381
        25  -7.9163    139.7770    143.7632   1.0132160390e+02   2.5401700717e+01    0.2589127    0.1231163  53.32 0.0008857999    2.477    0.596
        26  -9.3111    230.0584    140.4835   8.1526251050e+01   7.1734089744e+00    0.2632822    0.2052155 -45.43 0.0002984227    1.145    0.126
        27  -7.6256    215.6373    139.7295   8.3902883828e+01   1.0152700850e+01    0.2169178    0.1251659 -51.02 0.0009447718    1.692    0.409
        28  -9.1877    158.4554    139.0354   9.5666499732e+01   2.2493103680e+01    0.2924236    0.2251041  28.39 0.0004460329    1.510    0.338
        29  -8.8384    162.9696    135.0353   9.3668180146e+01   2.2400401638e+01    0.2453794    0.1980112  -5.85 0.0006484241    1.637    0.389
        30  -8.1225    142.3361    134.3278   9.8457901975e+01   2.7051031687e+01    0.1622504    0.1281558  -4.45 0.0007051846    1.725    0.420
        31  -8.2928    136.8029    123.7631   9.7271578515e+01   3.0645573827e+01    0.2203849    0.1871769 -86.62   0.00105964    1.344    0.256
        32  -7.2417     23.0775    124.7780   1.3066249909e+02   4.7963454271e+01    0.1393796    0.1072327  25.71  0.000428797    1.551    0.355
        33  -9.9359    250.1434    118.1586   7.3717241062e+01   7.5292708498e+00     0.444184    0.1607125 -44.44  0.001578173    2.332    0.571
        34  -8.6778    185.7164    115.9371   8.4164076646e+01   2.1378875788e+01    0.2177215    0.1906385 -55.66 0.0004012405    1.092    0.084
        35  -7.2773      2.3458    116.6698   1.3557855962e+02   5.1320055561e+01    0.1211814    0.0830589  72.56 0.0007050115    1.757    0.431
        36 -11.3232    171.0327    107.9637   8.5241890498e+01   2.6345002069e+01    0.7803537    0.2989136 -40.61  0.002648626    2.654    0.623
        37  -8.4797    188.2350    109.1653   8.2037672471e+01   2.2165368996e+01    0.2470327    0.1708979   8.36 0.0009489892    2.812    0.644
        38  -9.0727    149.4111    108.7780   9.0328713949e+01   3.1124100238e+01    0.2236892    0.1480337 -32.85 0.0007178802    1.706    0.414
        39 -11.4824    164.2074    117.3008   8.9067859641e+01   2.5973617159e+01    0.6375026    0.4271731 -40.60  0.002830321    1.508    0.337
        40 -11.2547    166.7957    103.7949   8.5097312884e+01   2.8160949596e+01    0.7861333    0.4777424  17.28  0.002465102    4.123    0.757
        41 -11.1318    167.7208     96.5833   8.3056869924e+01   2.9363287652e+01    0.9110353    0.2620226  57.30  0.002435812    4.510    0.778
        42 -10.7873    161.1664    101.7086   8.5792551967e+01   2.9879731786e+01    0.5940284    0.2716938  39.16  0.002056065    2.754    0.637
        43  -8.3009    142.3563    105.2987   9.1128008849e+01   3.3437548953e+01    0.1575757    0.1239906   9.92 0.0007035848    1.703    0.413
        44 -11.0070    181.3199     99.9023   8.1127223526e+01   2.5560139378e+01    0.4079227    0.3420294  18.66  0.002046102    1.560    0.359
        45 -11.0602    160.6442     94.3661   8.3998071824e+01   3.1440633833e+01    0.6386623    0.3922271 -75.55  0.002359083    2.765    0.638
        46 -11.3791    156.4957     87.2602   8.3025423782e+01   3.3752637133e+01    0.6828644    0.4252558 -21.60  0.002768114    2.354    0.575
        47 -10.8492    171.1507     92.3199   8.1253603961e+01   2.9374116737e+01    0.4411874    0.3184557 -75.20   0.00109696    1.685    0.407
        48  -9.0612    133.8937     92.7030   8.9835490524e+01   3.7877357819e+01    0.2537335    0.2090643 -28.49  0.000409449    1.315    0.239
        49 -10.7151    177.3296     90.4941   7.9558105157e+01   2.8267258704e+01    0.3920797    0.2872593  83.62  0.001855611    1.590    0.371
        50 -10.9762    170.9411     84.4477   7.9272891026e+01   3.0873448466e+01    0.4515274    0.2908113  56.85  0.002090048    1.521    0.342
        51  -9.3647    227.5677     85.3706   7.0009131937e+01   1.7829579420e+01    0.2324964    0.2089725 -73.87 0.0005861234    1.067    0.063
        52  -7.6922    232.0396     81.4959   6.8565589036e+01   1.7538793284e+01    0.1866135     0.128856  67.36  0.000445017    1.504    0.335
        53 -10.8303    195.8461     79.5120   7.3514377315e+01   2.5906105877e+01    0.4316939    0.3242246  12.49   0.00201208    2.268    0.559
        54 -11.2099    179.6913     76.6424   7.5616737588e+01   3.0177841543e+01    0.7572511    0.4601856  17.13  0.002353435    4.978    0.799
        55 -10.2553    160.7897     78.1790   7.9684856455e+01   3.4381486746e+01     0.382449    0.2798583  33.99  0.001835974    1.639    0.390
        56  -7.2443     22.7223     77.7100   1.2137914810e+02   5.8505976015e+01    0.1257141   0.07550751 -32.72            0    1.521    0.343
        57 -11.9530    193.4086     66.7427   7.0845039712e+01   2.8589947290e+01      1.09977    0.6722907 -80.68  0.004871431    2.136    0.532
        58  -8.4999    149.0000     72.9483   8.0770658610e+01   3.8051022764e+01    0.2386135   0.08366419 -38.21 0.0008083837    2.984    0.665
        59  -9.4568    171.2405     67.0716   7.4714494004e+01   3.3769344559e+01    0.2580463    0.2067912  81.69 0.0006169787    1.250    0.200
        60 -10.7943    187.2043     75.4583   7.3991706127e+01   2.8610502302e+01    0.5067712    0.2685942 -66.39  0.001902417    2.809    0.644
        61  -7.6760      2.6957     60.7004   1.2491395472e+02   6.3224601695e+01    0.1210424   0.06361173 -34.25 0.0003422226    1.589    0.371
        62 -10.2027    199.6217     58.3252   6.7907876822e+01   2.8455315327e+01    0.3190674    0.1760602 -58.92  0.001462379    1.938    0.484
        63  -9.7836    127.3739     52.9411   7.9884040301e+01   4.6161568912e+01    0.2535776    0.2244876  56.97 0.0003996415    1.075    0.070
        64  -8.1504    114.4353     75.0722   8.9879282608e+01   4.5395698626e+01    0.2095216    0.1857187  42.55  0.000315662    1.094    0.086
        65  -8.6933    223.0370     36.7942   6.0225558535e+01   2.6235646690e+01    0.2687711    0.1955382 -40.36 0.0009377554    1.504    0.335
        66 -10.1221    242.2103    170.0135   8.5557519219e+01  -5.6136068207e-01     1.157025     0.673242  56.35 0.0007612911    2.417    0.586
        67  -9.4544    242.6241    165.2513   8.4527033469e+01   2.4084194373e-01    0.3905554     0.259438  58.12  0.001983618    2.017    0.504
