#   1 NUMBER                 Running object number                                     
#   2 MAG_AUTO               Kron-like elliptical aperture magnitude                    [mag]
#   3 X_IMAGE                Object position along x                                    [pixel]
#   4 Y_IMAGE                Object position along y                                    [pixel]
#   5 X_WORLD                Barycenter position along world x axis                     [deg]
#   6 Y_WORLD                Barycenter position along world y axis                     [deg]
#   7 A_WORLD                Profile RMS along major axis (world units)                 [deg]
#   8 B_WORLD                Profile RMS along minor axis (world units)                 [deg]
#   9 THETA_WORLD            Position angle (CCW/world-x)                               [deg]
#  10 FWHM_WORLD             FWHM assuming a gaussian core                              [deg]
#  11 ELONGATION             A_IMAGE/B_IMAGE                                           
#  12 ELLIPTICITY            1 - B_IMAGE/A_IMAGE                                       
         1 -12.6169    165.9609     39.4336   7.6047141611e+01   3.8971674909e+01     1.161892    0.8560182 -11.30  0.005957562    1.704    0.413
         2  -9.1358    232.8067     12.9400   6.0656851912e+01   2.6079976377e+01    0.2816003    0.1691179 -36.89  0.001466899    1.729    0.422
         3 -11.4611    180.6094      7.0675   6.4890314337e+01   3.9063416013e+01    0.8374628    0.7104653  79.59  0.005312725    1.014    0.014
         4  -8.3552     75.6924      3.2997   8.4177676051e+01   6.2456435120e+01     0.100179   0.09439763 -64.64 0.0004790686    1.596    0.373
         5  -8.7603     28.1585      2.3811   1.0083209945e+02   6.9506515283e+01    0.1397151   0.09144212  35.26 0.0009608131    1.781    0.439
         6  99.0000    131.5343    233.6066   1.2798408652e+02   7.9290470174e+00    0.2534227    0.1343156  64.30    0.0010951    2.436    0.589
         7 -15.6545    189.6466    222.6212   1.1486878408e+02  -5.2277684075e-01     4.801946     3.744431 -40.74   0.02822233    1.435    0.303
         8 -13.4793    120.1867    232.7723   1.3007815739e+02   1.0016257187e+01    0.3473846    0.2499551  82.61  0.001997731    1.527    0.345
         9 -12.4750    115.5340    229.0975   1.3051265104e+02   1.1492913769e+01    0.4916617    0.2266481 -65.94   0.00220638    2.634    0.620
        10 -12.7355    121.8747    249.1904   1.3177591464e+02   6.7808875279e+00     0.339451    0.1816322  37.87  0.001767267    1.830    0.453
        11 -12.6503    126.3064    246.5585   1.3063850366e+02   6.5058804037e+00    0.2577891    0.1753137  40.43  0.001520382    1.370    0.270
        12 -15.4394     60.2995    135.0412   1.2882521967e+02   4.0974754600e+01     7.837308     6.992984  36.36   0.04874603    1.306    0.234
        13 -10.1108    135.7158    212.0119   1.2403447020e+02   1.1303850386e+01    0.1685681    0.1548395  85.55  0.000302745    1.101    0.091
        14 -10.6692    131.0496    210.6280   1.2479059129e+02   1.2423287135e+01    0.3984726    0.2242739  29.38  0.001143081    2.353    0.575
        15 -11.6056    129.0235    205.5495   1.2443162300e+02   1.3820675129e+01    0.3247744    0.1840667 -57.94  0.001531127    1.892    0.472
        16  -9.7252      1.0000    206.8791   1.4976953923e+02   3.1129085422e+01    0.1647051   0.04766705 -76.66 0.0002873394    2.708    0.631
        17 -12.1374    121.4696    203.4698   1.2570866051e+02   1.5606855738e+01    0.2217251    0.1963049  64.95 0.0001114776    1.018    0.017
        18 -12.2554    118.0329    201.3449   1.2611496709e+02   1.6662726942e+01    0.2717254    0.2086874  68.91 0.0004082953    1.273    0.214
        19 -13.4009    115.1329    197.7244   1.2618142693e+02   1.7945415638e+01    0.4242597    0.2592879  43.38  0.001959985    1.566    0.362
        20 -11.4045    111.2867    195.3006   1.2664031668e+02   1.9141128587e+01    0.1999771    0.1765936  68.73 0.0002433131    1.028    0.027
        21 -12.4263     98.1167    201.6509   1.3039105153e+02   1.9985633355e+01    0.2323797    0.1957448  81.47  0.000590726    1.059    0.055
        22 -12.4532    100.2368    195.9138   1.2912347953e+02   2.0883847092e+01    0.4646724    0.3550416 -41.35  0.002525711    1.687    0.407
        23 -10.5015      6.8778    201.6505   1.4839218214e+02   3.1660991230e+01    0.2165064    0.1562022 -72.27  0.001567216    1.355    0.262
        24 -10.1313      5.9367    197.2705   1.4825222027e+02   3.2658763709e+01    0.1317975     0.100205  86.69 0.0001804502    1.083    0.076
        25 -10.2560      1.6968    201.2556   1.4928357764e+02   3.2215738540e+01    0.2276901    0.1092092 -86.02  0.001359251    1.630    0.387
        26 -10.7295     68.0442    192.2689   1.3551847590e+02   2.6624910498e+01    0.1649437    0.1442149  77.67 0.0002172955    1.103    0.094
        27  -9.8069    116.9175    190.8199   1.2470100635e+02   1.9126477380e+01    0.1747413    0.1607103  84.64  0.000261314    1.045    0.043
        28 -12.0618    108.4130    189.0087   1.2628948539e+02   2.1020991135e+01    0.3857017    0.2020036 -56.10  0.001737688    1.917    0.478
        29 -10.0581     17.0314    187.0088   1.4536568838e+02   3.3801148280e+01    0.1394591    0.1083583  85.05 0.0009823547    1.063    0.059
        30 -12.6520     20.3182    183.2829   1.4438990048e+02   3.4292821378e+01    0.3294687    0.1647296 -78.04  0.001841728    1.620    0.383
        31  -9.6689      5.9735    186.2443   1.4742750496e+02   3.4984120980e+01    0.1369319     0.103181  88.97 0.0002025439    1.048    0.046
        32 -11.4410      1.9037    184.2296   1.4804426567e+02   3.5763908867e+01    0.1983315    0.1193734 -76.64 0.0001998554    1.285    0.222
        33 -10.7988    124.8057    231.9293   1.2907103268e+02   9.3910248839e+00     0.160588     0.139072  67.79            0    1.057    0.054
        34 -10.6495     92.9271    181.9143   1.2864276159e+02   2.5212610380e+01    0.1901998     0.167905  86.76  0.001119092    1.011    0.011
        35  -8.7360    151.9093    181.3042   1.1525824019e+02   1.4538933503e+01    0.2579078    0.1822789  30.95   0.00121537    1.581    0.368
        36 -12.6947    125.2796    226.5347   1.2825614219e+02   1.0325745295e+01      0.62507    0.3918796  13.73  0.002445366    3.951    0.747
        37  -7.9453    147.0387    180.0233   1.1609483837e+02   1.5780455474e+01    0.1644744    0.1563397 -74.16 0.0003381134    1.071    0.066
        38  -9.0197     73.8439    179.3118   1.3254738863e+02   2.8733434906e+01    0.1409517    0.1109703 -73.98 0.0002944143    1.146    0.127
        39  -8.1799     21.4300    178.0309   1.4367727059e+02   3.5339937457e+01    0.1472211   0.09250396 -74.81    0.0001864    1.273    0.215
        40 -13.1486     89.2309    175.4944   1.2848703750e+02   2.7278098489e+01    0.3160481    0.2738599 -74.41 0.0006300451    1.090    0.083
        41  99.0000     38.7606    172.2351   1.3940650849e+02   3.4839380364e+01    0.2313508    0.1310545  72.10            0    1.900    0.474
        42  -8.4502     17.8743    173.3441   1.4396138718e+02   3.6716365597e+01    0.1410671    0.1123668 -85.52 0.0003618936    1.074    0.069
        43 -14.7490     50.3868    177.3377   1.3747655045e+02   3.2319192837e+01    0.9691021     0.729723 -80.46  0.005995874    1.113    0.101
        44  99.0000      8.1010    221.9398   1.4951413564e+02   2.7440473442e+01     1.000594    0.6072735  87.99  0.007002778    1.227    0.185
        45  -9.6713     29.0958    168.2336   1.4105878711e+02   3.6772728752e+01     0.184209     0.136683 -87.94 0.0003252177    1.096    0.088
        46 -12.6548    114.5319    213.0999   1.2856921981e+02   1.4826927457e+01     1.525873     1.016688  85.21   0.00778489    1.795    0.443
        47  -9.8481     21.4165    168.0557   1.4269362950e+02   3.7563709358e+01    0.1758415    0.1464593  76.68 0.0002980167    1.169    0.145
        48  -8.0705      5.9890    166.1032   1.4574856969e+02   3.9350453411e+01     0.129122   0.09371897 -84.22 0.0003196415    1.024    0.023
        49 -15.5078     76.2694    200.4209   1.3480478229e+02   2.3645515649e+01     1.080028     1.012097 -45.80   0.00706511    1.442    0.307
        50 -11.9867     33.7411    176.0310   1.4090944861e+02   3.4527484311e+01    0.3148357    0.2641728  -2.42  0.001193558    1.907    0.476
        51 -16.2564     87.0129    219.1448   1.3488561305e+02   1.8063596251e+01     1.350129    0.7979956  79.47  0.006899044    1.915    0.478
        52 -13.9187    122.7821    241.0065   1.3061847939e+02   8.0727151281e+00    0.6712159    0.4962231 -33.58  0.003865625    2.068    0.516
        53 -15.0991    104.7940    228.9665   1.3258653470e+02   1.3289906648e+01     1.032329    0.8966803  42.95  0.006696573    1.298    0.230
        54 -16.3876     55.7267    203.3786   1.3931379895e+02   2.5851287076e+01     1.650455    0.8538421  59.17  0.008618929    1.851    0.460
        55 -11.7709    245.4729    141.9911   8.8081983438e+01   2.9805317843e+00    0.9781258    0.7116311 -52.61   0.00509122    1.462    0.316
        56 -11.9288    248.1602    130.3030   8.5058228753e+01   4.5109574055e+00    0.9851305    0.6759586 -47.31  0.005045452    1.387    0.279
        57 -11.5643    247.6163    118.5641   8.2524741438e+01   6.6844887079e+00    0.7711185    0.4776884 -36.53  0.002111006    1.480    0.324
        58  -9.1240    160.8361    127.7076   1.0146587434e+02   2.4281624499e+01    0.5168023    0.3507908 -89.90   0.00155961    2.413    0.586
        59  -9.3475    229.5970    136.4645   8.9578223351e+01   7.1811201488e+00    0.2984894    0.2763725  28.60  0.001688549    1.149    0.130
        60  -8.7135    196.6245    107.1069   8.8654221455e+01   2.0145453794e+01    0.2661959    0.2161816  47.69 0.0003613546    1.277    0.217
        61 -19.0048     61.3461    235.5593   1.4137541156e+02   1.8491961650e+01     5.328637     2.925079  56.82   0.03140331    1.519    0.342
        62 -12.0959    133.7085    219.0419   1.2550471450e+02   1.0287554349e+01    0.2851748    0.2174079  36.07  0.001101118    1.353    0.261
        63 -11.5022    139.0278    219.1296   1.2443765701e+02   9.3189311630e+00    0.2079312    0.1778431  43.43 0.0003419245    1.128    0.113
        64  -6.9714    148.2522    231.2415   1.2438341967e+02   5.4343467913e+00    0.1149621   0.09644529  20.37 0.0002489138    1.406    0.289
        65  -7.9760     40.1224     79.8496   1.2311709650e+02   5.5609737746e+01    0.1697902    0.1495486 -56.28 0.0002628319    1.170    0.146
        66 -11.2072    125.7718    218.3208   1.2701206395e+02   1.1830698566e+01    0.5044062    0.2593682 -40.35  0.002158114    2.884    0.653
        67  99.0000    129.7178    215.3020   1.2576773149e+02   1.1729678967e+01     0.230939    0.1526519  65.61 0.0002317028    1.630    0.386
        68  -9.0119    127.5085     60.7088   9.0768452044e+01   4.4928004169e+01    0.4251436    0.2522494 -57.32  0.001688529    2.417    0.586
        69  -9.0431    241.3624     61.7137   7.0518369144e+01   1.7544924914e+01    0.2282787    0.2138193  85.05 0.0002496771    1.158    0.136
        70 -12.2778    154.3062     54.6326   8.2763462832e+01   3.9663718747e+01     1.424557    0.7830807  39.29  0.005981583    2.049    0.512
        71 -10.1502    137.0075    243.6133   1.2825581353e+02   5.2172001053e+00    0.2406398    0.1131703  40.25   0.00114763    1.894    0.472
        72 -10.5651    170.0177     32.6861   7.3421972950e+01   3.8836931029e+01    0.3865872     0.363532 -40.95  0.001086751    1.162    0.139
        73  -8.2538    137.8680     36.8469   8.0751248888e+01   4.6046503205e+01    0.1866211    0.1647553 -74.28 0.0007410622    1.319    0.242
        74 -11.3234     15.6631    242.7161   1.4954359616e+02   2.2672903316e+01   0.09993878   0.07604618 -88.87 0.0007714049    1.268    0.211
        75 -10.1828    116.2332    241.2838   1.3188812678e+02   9.1069856416e+00    0.1030786    0.0975933  52.55 0.0002260597    1.265    0.210
        76 -10.1582    133.2787    237.5702   1.2817493450e+02   6.9137444820e+00    0.1183621    0.1059328  70.81   0.00014005    1.104    0.094
