#   1 NUMBER                 Running object number                                     
#   2 MAG_AUTO               Kron-like elliptical aperture magnitude                    [mag]
#   3 X_IMAGE                Object position along x                                    [pixel]
#   4 Y_IMAGE                Object position along y                                    [pixel]
#   5 X_WORLD                Barycenter position along world x axis                     [deg]
#   6 Y_WORLD                Barycenter position along world y axis                     [deg]
#   7 A_WORLD                Profile RMS along major axis (world units)                 [deg]
#   8 B_WORLD                Profile RMS along minor axis (world units)                 [deg]
#   9 THETA_WORLD            Position angle (CCW/world-x)                               [deg]
#  10 FWHM_WORLD             FWHM assuming a gaussian core                              [deg]
#  11 ELONGATION             A_IMAGE/B_IMAGE                                           
#  12 ELLIPTICITY            1 - B_IMAGE/A_IMAGE                                       
         1 -14.0681    186.5187     23.0374   7.2479461956e+01   3.4940155266e+01     1.840549     1.244755  -2.63  0.006370602    1.841    0.457
         2 -14.2148    193.2142     16.6176   6.9757971288e+01   3.3843395175e+01     1.601094     1.400441 -27.83  0.006837111    1.177    0.151
         3 -13.9935    199.2507      9.2257   6.6966919689e+01   3.2993271113e+01     1.680415    0.7324972  53.73  0.001529059    2.412    0.585
         4 -11.2843     32.6024      4.7451   1.0949890216e+02   7.4810819932e+01    0.4785787    0.1139766 -45.19  0.001612868    4.044    0.753
         5 -12.8083    126.1165    240.6759   1.3178267745e+02   1.2615460937e+01    0.6680627    0.3788329 -51.43  0.003969072    2.447    0.591
         6 -10.4563    238.6772    249.9368   1.1357181415e+02  -3.3969540645e+00    0.1404332     0.096593  15.45   0.00066543    1.081    0.075
         7 -11.7821    150.2291    247.5979   1.2804840170e+02   8.4165945166e+00    0.5877314    0.1673394  43.20  0.002710495    2.741    0.635
         8 -10.9385    143.7959    249.4153   1.2939064648e+02   9.0774343563e+00    0.3667199    0.2326291  64.73  0.002294734    2.467    0.595
         9 -11.3494    135.1693    249.5450   1.3096224669e+02   1.0232879787e+01    0.5417162    0.1366577  42.28  0.002436196    2.805    0.644
        10 -12.4058    136.2575    227.3671   1.2848273253e+02   1.2995152952e+01    0.4079438    0.2892953   7.31  0.002595589    1.883    0.469
        11 -10.9055    152.5069    243.4037   1.2719340039e+02   8.6054743439e+00    0.2363952    0.2129608  80.80   0.00171904    1.635    0.388
        12 -12.1415    146.4919    240.4246   1.2797159484e+02   9.8120197121e+00    0.4722261    0.2620857  24.93 0.0001238972    1.753    0.430
        13 -12.0130    135.7892    241.1412   1.3002386706e+02   1.1215197987e+01    0.3563812    0.2216796  37.08  0.001064995    1.143    0.125
        14 -12.6065    134.6486    235.7820   1.2968936317e+02   1.2080246287e+01    0.4504964    0.2983209  62.17  0.002911693    1.911    0.477
        15 -11.4307    104.1325    238.0310   1.3570940883e+02   1.5970955227e+01    0.4616134    0.2076455  48.32  0.002651419    1.759    0.432
        16  -9.5637     92.4870    232.1130   1.3747422969e+02   1.8392406678e+01    0.1803931    0.1185156  49.04  0.001236221    1.156    0.135
        17 -12.2164     95.9508    239.5421   1.3739503458e+02   1.6831317934e+01    0.5745979    0.3871592  35.99  0.003466356    1.210    0.173
        18 -11.6340     87.5628    248.8831   1.3965651294e+02   1.6557952078e+01    0.4416395     0.299233  54.42  0.003327189    1.229    0.186
        19 -11.3159     81.5338    246.8474   1.4063684195e+02   1.7596638645e+01    0.3857186    0.2195022  83.40  0.002113036    2.333    0.571
        20 -11.9673     99.5509    247.3987   1.3732721258e+02   1.5245234572e+01    0.5212781    0.3649438  40.08  0.003902887    1.075    0.070
        21 -12.4752    108.9132    248.1020   1.3564778971e+02   1.3929921235e+01    0.8480906     0.292325  43.25  0.004527222    2.000    0.500
        22 -11.9726     85.8771    237.0674   1.3913620698e+02   1.8497002971e+01    0.6729226    0.2770722  28.85  0.002946939    2.574    0.612
        23 -14.9975     32.7455    183.4259   1.4676935224e+02   3.4231779452e+01     4.816966     1.589436 -54.66   0.01698388    4.627    0.784
        24 -11.3553    121.4241    232.0742   1.3183898355e+02   1.4454141440e+01    0.2923695    0.1984624  42.46  0.001505729    1.091    0.083
        25 -10.6534    155.8898    231.8082   1.2527017104e+02   9.5589209597e+00    0.2564691     0.149416  30.40  0.001604695    1.362    0.266
        26 -13.4832     43.1528    237.2260   1.4728816097e+02   2.3509602070e+01      0.50609     0.364152  28.33  0.002569398    1.558    0.358
        27 -10.4337    141.5320    212.7444   1.2573585364e+02   1.4290030431e+01    0.3728861    0.1794107  38.05  0.001990423    1.590    0.371
        28 -11.4651    142.6170    228.5453   1.2739378133e+02   1.1909975159e+01    0.2721123    0.2316644 -56.07  0.001299346    1.629    0.386
        29 -12.2748    142.2473    220.6602   1.2655401838e+02   1.3048858629e+01    0.3952174     0.348522 -82.40  0.002914633    1.580    0.367
        30  -9.8027    240.3830    228.1982   1.1032067004e+02  -1.7625599352e+00    0.1208449   0.08969961 -23.55 0.0003192292    1.687    0.407
        31 -10.3842    190.9350    227.9818   1.1845064048e+02   4.9615037597e+00    0.1688455    0.1224701  26.58 0.0003012638    1.011    0.010
        32 -10.6721    164.6245    226.1613   1.2296471567e+02   8.9968306751e+00    0.1767792    0.1465749 -50.16   0.00079348    1.723    0.420
        33 -10.0558    163.9057    221.2992   1.2248289793e+02   9.7218211694e+00    0.1838397    0.1472344   9.29 0.0009948408    1.311    0.237
        34 -10.1352     91.7608    226.0108   1.3711910174e+02   1.9432907139e+01    0.3996228    0.1220054  51.98  0.001658093    3.370    0.703
        35 -10.9639    117.5248    224.2167   1.3181661639e+02   1.6148893760e+01      0.24782    0.1663078  43.05 0.0002955764    1.116    0.104
        36 -15.3381     26.4044    248.4843   1.5075631283e+02   2.3487928487e+01     1.006162    0.5823989  31.07  0.007345366    1.658    0.397
        37  -9.0992    220.1381    223.2325   1.1282656319e+02   1.3742437571e+00     0.132815     0.105601  27.72 0.0002648039    1.307    0.235
        38 -10.9486    149.9553    222.2922   1.2525759565e+02   1.1674611536e+01    0.1851409    0.1568394  23.23 0.0001871034    1.180    0.152
        39 -10.4821    244.8113    231.9832   1.1018542644e+02  -2.6475693874e+00    0.2407196    0.1297048  51.67  0.001112155    5.108    0.804
        40 -10.5725    105.2026    222.5955   1.3412023269e+02   1.8134765170e+01    0.3140828    0.1757729  21.12  0.001171415    2.398    0.583
        41  -9.3228    110.7277    222.6158   1.3301268145e+02   1.7356058917e+01    0.2171408   0.09096878  34.62 0.0009056426    1.929    0.482
        42  -9.3756    104.5505    218.5337   1.3386390121e+02   1.8863066642e+01    0.1943495    0.1324647  53.39 2.422441e-05    1.275    0.216
        43 -11.4338    101.3609    212.4494   1.3392713015e+02   2.0295474104e+01    0.4962605    0.2713152  46.46  0.002882804    1.424    0.298
        44 -15.1268     14.4833    239.6397   1.5263445576e+02   2.5998162710e+01     1.155542    0.4799317 -68.52  0.003638886    3.056    0.673
        45 -10.4741    177.7412    218.3183   1.1951551677e+02   8.0250092576e+00    0.2176341    0.2017206  57.77  0.001032969    1.521    0.342
        46  -8.5971    156.2911    218.2998   1.2354552679e+02   1.1262562134e+01    0.1144302   0.07892606  15.79  0.000275739    1.564    0.360
        47  -9.6661    134.0559    217.8167   1.2783427192e+02   1.4679158605e+01    0.1872332    0.1279315  47.00 0.0006081273    1.254    0.203
        48  -9.9796    246.9536    218.0000   1.0780508715e+02  -1.6878926238e+00     0.170401   0.04772318  38.42 0.0008040551    2.954    0.661
        49 -10.1811    233.3234    216.6352   1.0972054558e+02   2.3240548937e-01    0.1739919    0.1520977  36.77 0.0009752958    1.696    0.410
        50 -10.2528    183.2708    214.0934   1.1791439857e+02   7.7125847642e+00    0.2251116    0.1613407  48.61  0.001007488    1.582    0.368
        51 -12.7983    110.5125    229.7760   1.3374074633e+02   1.6309085346e+01    0.7699971    0.3878352  33.71  0.004051073    1.610    0.379
        52  -9.9203    151.8084    212.3663   1.2365328675e+02   1.2764822700e+01    0.2504289    0.1879069 -11.46  0.001062339    1.743    0.426
        53 -15.7809     10.4133    248.0533   1.5354010055e+02   2.5068076268e+01     1.188779     1.026936  46.87   0.01066674    1.439    0.305
        54 -10.2035    221.5288    245.4584   1.1565027541e+02  -9.0741420630e-01    0.1073556    0.0707624  20.73 5.883319e-05    1.048    0.045
        55  -9.2661     80.6218    210.2409   1.3808580561e+02   2.3513693256e+01    0.1279826    0.1094032 -68.57  0.000458558    1.476    0.322
        56 -10.1665    134.6422    208.4802   1.2659805770e+02   1.5984802587e+01    0.2225418    0.1703559   0.94  0.001004064    1.732    0.423
        57  -8.8774    197.6756    208.2542   1.1445968073e+02   6.2366197439e+00    0.1066825   0.08132592  46.33 0.0001871532    1.546    0.353
        58  -9.9429     97.3084    207.3094   1.3427178590e+02   2.1728621981e+01    0.2170425     0.168971  39.50 0.0009474016    1.121    0.108
        59 -10.7690     93.4806    204.9633   1.3485893067e+02   2.2671307656e+01    0.3179135    0.2834675  47.68  0.002290617    1.174    0.148
        60 -10.1289     89.0915    204.7786   1.3578624997e+02   2.3315994993e+01    0.2559189    0.1497502  49.30 0.0007968781    1.365    0.267
        61 -11.1672    246.4551    205.9595   1.0601288083e+02  -5.0580785493e-01    0.3845068    0.1507686  25.24  0.001926641    2.573    0.611
        62 -10.5677    175.0202    205.4398   1.1821040432e+02   1.0089568153e+01    0.2914503     0.198739  10.27  0.001570916    1.624    0.384
        63 -10.5004    166.3047    206.3157   1.2000603824e+02   1.1344011870e+01    0.3429453    0.1373483  40.16  0.001647265    1.969    0.492
        64 -10.0087    166.9539    202.9900   1.1940477310e+02   1.1698915992e+01    0.4292894    0.2084656  22.95  0.001926636    2.659    0.624
        65  -9.7933    148.3348    205.3632   1.2342077277e+02   1.4316265412e+01    0.2102748    0.1584441  23.21 0.0006814012    1.264    0.209
        66 -10.1759    126.0452    205.4420   1.2799986355e+02   1.7780762664e+01    0.2204187    0.1526332  50.10 0.0006025009    1.285    0.222
        67  -8.9508    114.4536    206.5035   1.3055346714e+02   1.9365483138e+01    0.1238799    0.0969476  42.04 3.207457e-05    1.022    0.022
        68 -11.4782     41.2798    204.7954   1.4606944525e+02   2.9245153415e+01    0.3651863    0.1830398 -89.99  0.001620019    2.106    0.525
        69 -11.2011     45.4689    203.0643   1.4507715809e+02   2.9101806196e+01    0.4802189    0.2243126 -89.61   0.00264252    2.369    0.578
        70 -10.7455    108.3961    203.1713   1.3146822054e+02   2.0820813285e+01    0.3088745     0.229249 -30.66 0.0008853429    2.000    0.500
        71  -9.0158    156.6689    204.2733   1.2160714429e+02   1.3155265643e+01     0.119581   0.08319907  53.75 0.0002467813    1.592    0.372
        72 -10.2719    103.0987    203.1010   1.3259803827e+02   2.1612530481e+01    0.2434821    0.2061092  12.66  0.001119724    1.478    0.323
        73 -11.1114    133.2089    202.6049   1.2615497220e+02   1.7118128487e+01    0.2127469    0.1820985  35.70 0.0002578895    1.097    0.088
        74 -10.5527     70.3551    201.8526   1.3959665660e+02   2.6339110597e+01    0.4437307    0.1299224  47.33  0.001680354    2.608    0.616
        75  -9.1781    224.8114    202.1913   1.0885609509e+02   2.8914372698e+00    0.1533984    0.1026553  14.57  0.000368558    1.242    0.195
        76 -11.1395    197.1179    200.6275   1.1339050940e+02   7.2402212203e+00    0.3450674    0.2297449  43.63  0.001650102    1.500    0.333
        77  -9.8215    122.8328    200.9259   1.2812562770e+02   1.9005006754e+01    0.2294814    0.1480053  39.36 0.0007747077    1.223    0.182
        78  -9.4992    169.6899    200.1462   1.1845691630e+02   1.1654844810e+01    0.1607384    0.1341747  21.51 0.0003796951    1.098    0.089
        79 -10.8832    141.5126    198.3137   1.2386239699e+02   1.6472373254e+01     0.319684    0.2129418  16.53 0.0009746162    1.821    0.451
        80  -9.7890    250.6312    199.2019   1.0428683485e+02  -4.1958307284e-01    0.1533288   0.08493363 -11.19 0.0009534951    1.735    0.424
        81  -9.1156    158.7941    199.3743   1.2049098266e+02   1.3522651512e+01     0.176143   0.09647264  32.21 0.0003147328    1.557    0.358
        82 -10.2646    100.7529    198.1249   1.3257010163e+02   2.2818519546e+01    0.2021311    0.1668914  37.45 0.0002736196    1.151    0.131
        83 -10.1643     57.9483    198.4005   1.4205450091e+02   2.8519150739e+01    0.3449869    0.1708365  76.31 0.0006605622    2.324    0.570
        84 -10.7101     57.1202    192.8259   1.4182738901e+02   2.9671975929e+01    0.2269725    0.1600657 -74.00  0.001029806    1.579    0.367
        85  -9.7176    192.0082    197.9457   1.1389975401e+02   8.3767588664e+00    0.1827498    0.1438707  24.32 0.0004000255    1.018    0.018
        86 -10.4558     52.8159    197.9466   1.4315406118e+02   2.9213648132e+01    0.1958195    0.1695932  42.05  0.001428479    1.261    0.207
        87  -9.6070     95.3933    196.9557   1.3362505404e+02   2.3806489282e+01    0.1635601    0.1454915  63.54 0.0005294951    1.160    0.138
        88 -12.0497     74.1361    194.4830   1.3812856986e+02   2.7205415757e+01    0.3443467    0.2828512 -48.83  0.002309593    1.646    0.393
        89 -11.9768     78.6955    187.6354   1.3644385142e+02   2.7886395118e+01    0.2709512    0.2404594 -36.34 0.0009169657    1.555    0.357
        90 -10.3128    113.7963    195.9832   1.2946881617e+02   2.1229485525e+01    0.2455422    0.1197626  46.05  0.001235091    1.688    0.408
        91 -16.1473      1.9312     71.3289   1.4822197469e+02   6.2180375328e+01     24.62836     1.376945 -80.39   0.03588233   21.785    0.954
        92  -9.0086    217.9473    194.9969   1.0883809953e+02   4.7027147666e+00    0.1406395    0.1043457  22.02 0.0003236094    1.053    0.050
        93 -11.0630    173.0857    193.3384   1.1676258966e+02   1.2053113560e+01    0.4094531    0.2558752 -13.96  0.001799019    2.253    0.556
        94  -9.3290    135.5182    195.0359   1.2467285165e+02   1.7958386952e+01    0.1524473      0.12864 -49.12 0.0003993029    1.478    0.323
        95  -9.6377    106.8972    195.0320   1.3086948655e+02   2.2446616896e+01    0.3035247    0.1191395  53.77  0.001224559    2.965    0.663
        96  -9.5580     82.5746    193.8290   1.3616808914e+02   2.6187043556e+01    0.2661088    0.1879542  11.10 0.0008883951    2.105    0.525
        97 -10.7359    191.5026    191.2366   1.1291947893e+02   9.3218845016e+00    0.2412778    0.2040368   8.09 0.0005558355    1.137    0.121
        98  -9.0201    101.9582    191.9330   1.3160816354e+02   2.3741269244e+01    0.1502555    0.1220914  47.61 0.0004607486    1.017    0.017
        99 -10.9951    249.5307    242.0392   1.1088193194e+02  -4.0504388054e+00    0.1663783    0.1402952  11.89  0.001455724    1.572    0.364
       100 -11.0924     15.3609    190.9885   1.5100958646e+02   3.4416126325e+01    0.2692114    0.1429236 -75.93   0.00168126    1.953    0.488
       101  -9.2532    158.4556    241.4879   1.2590729268e+02   8.0056868706e+00    0.1135313   0.08048007  32.05 2.762612e-05    1.026    0.025
       102  -9.4759    119.1156    236.6095   1.3271944505e+02   1.4137292220e+01     0.252097    0.1576123  72.74  0.001211788    2.398    0.583
       103  -9.7995    135.8988    189.8315   1.2387128600e+02   1.8746431541e+01    0.2527876    0.1851725  -0.47   0.00121491    1.933    0.483
       104 -11.0867    249.9398    188.0851   1.0253352794e+02   7.6859961486e-01    0.2541136     0.156318  -8.97  0.001220055    1.479    0.324
       105 -11.3595    245.7590    240.2440   1.1119938961e+02  -3.4554802267e+00    0.2791165   0.09565362  27.99  0.001516517    2.404    0.584
       106 -11.0774    115.8712    240.0117   1.3364990041e+02   1.4108639892e+01    0.2446581    0.1631479  65.09 0.0004223147    1.772    0.436
       107 -10.1470    173.2658    239.7515   1.2305649750e+02   6.1354002698e+00    0.2020169    0.1793764 -63.87  0.001181174    1.843    0.457
       108 -10.8678    159.7093    194.0290   1.1952286632e+02   1.4158523782e+01    0.3297645    0.1853971  47.61 0.0003843851    1.684    0.406
       109  -9.8327     67.5215    186.3223   1.3890973117e+02   2.9628289217e+01    0.2111141    0.1334192  38.47 0.0005275939    1.354    0.262
       110  -9.8309     88.0248    183.4681   1.3383825482e+02   2.7371006931e+01    0.3922889    0.1636377  45.30  0.001827987    1.941    0.485
       111  -9.3776     79.7025    182.1229   1.3564813912e+02   2.8812879449e+01    0.1914644    0.1348855  68.80 0.0005584365    1.390    0.280
       112 -10.1481     47.7682    179.9172   1.4302729155e+02   3.3310724416e+01    0.2613226     0.181689  16.86 0.0008858856    1.894    0.472
       113  -9.9711    144.1265    180.1579   1.2066368408e+02   1.8969533868e+01    0.1840193    0.1373417  52.37 0.0005037608    1.330    0.248
       114 -10.2346    135.0457    180.2484   1.2266276325e+02   2.0504764293e+01    0.2569333    0.1571925  50.61  0.001338268    1.551    0.355
       115  -9.9924    128.9905    179.1328   1.2384473716e+02   2.1722321034e+01    0.1974517     0.165712  41.68  0.000364316    1.010    0.010
       116 -10.6001    182.0290    176.7628   1.1228725439e+02   1.2904113934e+01    0.3322683     0.209118  25.48  0.001414934    1.519    0.342
       117 -10.4080    100.4174    170.0747   1.2923631721e+02   2.8105227997e+01    0.3506843    0.1924917  48.51 0.0004279454    1.595    0.373
       118 -11.3081     96.5179    159.4786   1.2872562470e+02   3.0865062587e+01    0.3419409    0.2053086 -51.19  0.001076779    1.932    0.483
       119 -10.5469     90.0634    160.4721   1.3050822166e+02   3.1671775116e+01    0.2150278     0.186827  88.14 0.0003486941    1.191    0.160
       120 -10.0914     88.8918    156.8844   1.3031470288e+02   3.2605282284e+01    0.2041836    0.1756515  54.12  0.001231215    1.014    0.014
       121 -12.0656     87.1614    176.0019   1.3319189442e+02   2.8951556785e+01    0.4204312    0.2605332  33.91  0.002278545    1.503    0.334
       122 -12.5461     92.8623    167.3681   1.3072777136e+02   2.9824533791e+01    0.6646873    0.5185446 -37.58  0.002351139    1.711    0.416
       123  -9.6491     95.5275    175.3635   1.3110510600e+02   2.7825920030e+01    0.2352114    0.1847001  26.24 0.0008123918    1.387    0.279
       124 -11.5968     74.5155    173.3314   1.3596552169e+02   3.1284090034e+01    0.4129605    0.2685651 -49.14  0.001767253    1.984    0.496
       125  -9.4024     67.6076    174.3635   1.3776326987e+02   3.2002557055e+01    0.2045207     0.116815 -80.00  0.000719082    1.934    0.483
       126 -11.7242     19.6489    172.8340   1.4928214330e+02   3.7638003454e+01    0.4058824    0.1778257  52.99  0.001548579    1.771    0.435
       127 -11.5255     15.9684    166.6415   1.4987815679e+02   3.9245997913e+01    0.3462375     0.189556 -86.81  0.001814156    1.674    0.403
       128 -10.1325     83.7425    242.0036   1.3989525670e+02   1.8030441521e+01    0.2309454    0.1850683  39.07  0.001159227    1.223    0.182
       129 -11.8773    249.0194    171.5892   9.9764945544e+01   2.6147289567e+00    0.3667741    0.2472881  32.65   0.00241227    1.374    0.272
       130 -11.2836     98.5745    222.9892   1.3549086999e+02   1.8988749909e+01    0.3205513     0.239615  51.88            0    1.121    0.108
       131 -11.5078     91.2441    219.1693   1.3664154400e+02   2.0596017715e+01    0.4482886     0.268962  41.62  0.002132719    1.240    0.194
       132 -10.9521     47.7942    169.3927   1.4220509293e+02   3.5475790328e+01    0.4131578    0.2420996  53.06  0.002366212    1.413    0.292
       133  -9.0981    122.5356    168.9989   1.2379646001e+02   2.4660898423e+01    0.1693636    0.1360628 -57.09 0.0003236153    1.455    0.313
       134 -10.8647    107.3705    168.3190   1.2730696296e+02   2.7332423838e+01    0.3133084    0.2059909  27.73  0.001227355    1.624    0.384
       135 -10.5663     85.2497    166.9291   1.3256594363e+02   3.1062548472e+01    0.3568622    0.2329598 -71.92  0.001152057    1.703    0.413
       136 -10.4874     80.1378    164.0574   1.3350010718e+02   3.2405253754e+01    0.3710162    0.1702639  45.84  0.001719986    1.851    0.460
       137  -8.7338     69.5104    167.5203   1.3658578327e+02   3.3163286480e+01    0.1326306    0.1050557  58.67 0.0001254593    1.060    0.057
       138  -9.5684     58.8880    167.3187   1.3924217891e+02   3.4583287911e+01    0.1731153    0.1427014  53.49 0.0005061183    1.063    0.059
       139  -9.8675    175.8583    166.1873   1.1162643392e+02   1.5578272686e+01    0.1923637    0.1653945  47.40 0.0004252655    1.247    0.198
       140 -12.0215    244.8977    162.4405   9.8696474534e+01   4.2441732761e+00    0.3409539    0.2409056 -10.53  0.002212693    1.248    0.199
       141 -11.9118    240.6831    150.4579   9.7028489928e+01   6.3003317345e+00    0.5843958    0.3786735 -46.74  0.003204333    2.266    0.559
       142 -10.5536    249.5030    160.5037   9.7636116451e+01   3.7481709029e+00    0.2099387    0.1623011   6.91  0.001294894    1.032    0.031
       143 -11.6422    247.9535    157.4225   9.7281209388e+01   4.3315728395e+00    0.5368714    0.2556223  51.15   0.00264355    2.749    0.636
       144  -9.0135    124.4495    165.4415   1.2278801650e+02   2.4997842804e+01    0.1376477    0.1171587  45.88 1.629367e-05    1.021    0.020
       145 -10.3141     24.9505    164.9894   1.4758637176e+02   3.8787060666e+01    0.1460385    0.1140195  65.78  0.000524384    1.014    0.013
       146 -10.7424     23.5228    149.0201   1.4698462840e+02   4.2383193733e+01    0.2465795    0.1358086 -83.22 0.0009062535    1.669    0.401
       147 -11.5857     36.4053    162.2993   1.4452774778e+02   3.8229762033e+01    0.4508618    0.1865529  38.02  0.002252552    1.989    0.497
       148 -12.2678     37.0204    157.8214   1.4403480180e+02   3.9135000221e+01    0.3952606    0.2959092  34.96  0.002514641    1.350    0.259
       149 -13.0744     33.4897    140.7243   1.4361104187e+02   4.3315576643e+01    0.5965744    0.3983416  64.68    0.0035139    1.317    0.240
       150 -12.7812     25.2169    155.2452   1.4693388997e+02   4.0858020369e+01    0.6376868    0.2762188  40.43  0.002606447    1.898    0.473
       151 -12.4861     33.6658    152.9481   1.4454736612e+02   4.0548414867e+01    0.5677951    0.2647918 -65.21  0.002884955    2.160    0.537
       152  -8.7769     70.6494    162.3344   1.3572348047e+02   3.4102290338e+01    0.1448524   0.08164825  61.40 0.0007046835    1.781    0.439
       153  -9.5107    203.8672    160.7836   1.0522845579e+02   1.1310666595e+01    0.1958904    0.1525037   9.55  0.001176587    1.198    0.165
       154 -11.3204     12.0320    161.0196   1.5059389777e+02   4.0758937796e+01    0.2187191    0.1493601  35.45  0.001410372    1.427    0.299
       155  -9.4217     59.5293    159.7114   1.3832211434e+02   3.6127239149e+01    0.1641577    0.1115377  83.19 0.0005555472    1.469    0.319
       156  -9.0967    171.3881    159.2119   1.1124256969e+02   1.7500110312e+01    0.1615328    0.1309703 -50.11 0.0002946788    1.518    0.341
       157  -9.5805    119.9228    158.9504   1.2281959798e+02   2.7034891974e+01     0.204508     0.177057  51.62 0.0004151659    1.051    0.049
       158  -9.7927     82.2504    159.1499   1.3234033356e+02   3.3129483304e+01    0.1832692    0.1701416  47.99 0.0003926141    1.151    0.131
       159 -11.4856     98.6949    231.0484   1.3617071199e+02   1.7729780564e+01    0.3280104    0.2767152  12.14  0.002438062    1.550    0.355
       160  -9.6798     52.0746    158.4467   1.4014772423e+02   3.7317075378e+01    0.1872323    0.1099001  37.02 0.0009726065    1.542    0.352
       161  -9.6325    115.8190    157.2655   1.2354800871e+02   2.8084989158e+01    0.2017619    0.1679168  55.89 0.0005438122    1.121    0.108
       162 -10.9571     74.2179    156.6000   1.3411418876e+02   3.4835875003e+01     0.369825    0.1967907  42.43  0.001153912    1.613    0.380
       163  -9.7793    134.5999    155.5650   1.1872099144e+02   2.5035416972e+01    0.2291233    0.2193565  -8.86 0.0006030268    1.176    0.150
       164  -9.8068    124.7457    154.0391   1.2081427917e+02   2.7132552671e+01    0.1925892    0.1698342  51.81  0.000405559    1.054    0.052
       165 -10.0321     62.3278    153.0378   1.3685813024e+02   3.7226562923e+01    0.3546976     0.180999  89.85  0.001369554    2.428    0.588
       166 -10.2470    113.7671    152.1904   1.2321698020e+02   2.9462537346e+01    0.3146035    0.2377882 -87.18  0.001126339    1.637    0.389
       167 -11.2227    249.8018    149.5695   9.5484478004e+01   4.9276548583e+00    0.3702419    0.2104954 -32.13  0.002113618    1.742    0.426
       168  -9.9492    146.5054    152.1014   1.1531553690e+02   2.3438695325e+01    0.3709864    0.1691997  50.73 0.0009342356    2.288    0.563
       169 -11.0090    103.8100    150.7861   1.2552715815e+02   3.1471560210e+01    0.3161454    0.2914271   7.17   0.00117229    1.299    0.230
       170 -10.0223    106.4795    145.8584   1.2401217758e+02   3.2046108716e+01    0.3228046    0.2385058 -23.64 0.0009869257    1.979    0.495
       171 -10.8249     93.2587    151.3694   1.2837317900e+02   3.3088850269e+01    0.4489037    0.2005736  52.22  0.001572549    2.308    0.567
       172  -9.4680    119.9505    151.2746   1.2151224438e+02   2.8545495929e+01    0.1916168    0.1616627  43.74 0.0002573172    1.052    0.050
       173 -12.1132     55.8262    149.6797   1.3825018212e+02   3.8796956130e+01    0.4028944     0.368196  68.23  0.001910976    1.116    0.104
       174 -10.6432     59.4972    145.5067   1.3676267422e+02   3.9273308898e+01    0.2046141    0.1762388  35.91 0.0006807561    1.240    0.193
       175  -8.9797     75.6233    150.7573   1.3299196669e+02   3.5907717289e+01    0.1242227    0.1040585   1.80 0.0004003258    1.631    0.387
       176 -12.3864     58.5905    134.6727   1.3567934365e+02   4.1872766775e+01    0.6070136    0.3656155 -88.77  0.001921702    1.791    0.442
       177 -13.4404     67.6380    143.9773   1.3429557267e+02   3.8539972259e+01    0.8167824    0.5861754  69.32   0.00382535    1.353    0.261
       178 -12.7457     71.5467    138.7739   1.3247837931e+02   3.9173530278e+01     1.022115    0.4203907  48.27  0.004113785    2.297    0.565
       179  -9.4028     86.0355    147.7422   1.2975692229e+02   3.5011200812e+01    0.1880436     0.159974  48.47  0.001099663    1.073    0.068
       180 -11.6214     41.0359    146.6485   1.4202030603e+02   4.1189325790e+01     0.237864     0.226988 -48.91  0.001624459    1.337    0.252
       181 -10.8542     21.3981    144.3413   1.4725855283e+02   4.3615125121e+01    0.2133524    0.1765865 -28.50  0.001221168    1.696    0.410
       182 -11.7783    248.2810    140.9662   9.3992586165e+01   6.1653325206e+00    0.7766247    0.3226523  39.93  0.003742144    2.360    0.576
       183 -11.9813    248.2640    135.9786   9.2978252543e+01   6.7534643612e+00    0.5101566       0.4631   6.89  0.003569316    1.198    0.165
       184 -11.8468    248.8112    131.7982   9.2035633217e+01   7.1555915934e+00    0.3848491    0.2782315 -15.74  0.001790595    1.210    0.174
       185 -10.5397    119.2719    138.3827   1.1932043975e+02   3.1291694861e+01    0.2603419    0.2347473  40.94 0.0003942772    1.061    0.057
       186 -11.1463    113.0817    136.2469   1.2053156430e+02   3.2891007729e+01    0.4732304    0.2978202  43.80  0.001581313    1.442    0.307
       187 -12.7253     45.0772    130.1053   1.3915304226e+02   4.4563921055e+01    0.6057048    0.3603395 -76.17  0.001766804    1.605    0.377
       188 -11.9903     47.0014    138.7345   1.3954613586e+02   4.2334700413e+01      0.41705    0.2838761 -30.97  0.001050584    2.253    0.556
       189 -11.0787     51.3457    137.6996   1.3817147167e+02   4.2066780885e+01    0.2444587    0.1824026 -85.58  0.001039498    1.275    0.216
       190  -9.2625     82.4964    135.9368   1.2891868963e+02   3.8185751321e+01    0.1891976    0.1349913 -66.14 0.0009868359    1.457    0.313
       191 -10.1112    136.9987    134.0375   1.1397170376e+02   2.8719635503e+01    0.2202479    0.1993954  44.49 0.0003044067    1.012    0.012
       192  -9.2197     97.8888    134.2177   1.2428347906e+02   3.6044665985e+01    0.1784193    0.1666343   6.48 0.0004283219    1.271    0.213
       193  -9.2861    129.9640    132.2301   1.1534668897e+02   3.0483957055e+01    0.2005581    0.1749648  44.07            0    1.051    0.048
       194  -9.1352     54.2904    140.3076   1.3762476923e+02   4.1109795021e+01    0.1212414    0.1001941 -37.90 0.0002083248    1.578    0.366
       195 -11.3919     27.1807    140.8342   1.4540423151e+02   4.3892424002e+01    0.3721353    0.1884343  66.36 0.0009550918    1.855    0.461
       196  -9.6667    107.2920    130.1325   1.2091076213e+02   3.5267270371e+01     0.290144     0.167343  60.51  0.001096637    2.107    0.525
       197 -12.1497     66.3067    127.3715   1.3234135629e+02   4.2550004094e+01    0.5161458    0.3500137  83.56  0.002382598    1.599    0.375
       198 -11.6929    133.6750    142.5908   1.1651852743e+02   2.7698380881e+01    0.8383118    0.3789073 -51.35  0.003384448    2.526    0.604
       199 -10.4610    118.6738    128.2985   1.1745759116e+02   3.3512605908e+01    0.2715093    0.1718649 -29.08 0.0008060294    2.307    0.566
       200 -11.6476     32.6973    126.9288   1.4258229699e+02   4.6600695458e+01    0.3596162    0.1798547  77.80  0.001684536    2.120    0.528
       201 -10.4572    159.8506    126.4949   1.0693978856e+02   2.5412381056e+01    0.2392446    0.2108988 -72.91  0.001085879    1.382    0.276
       202  -9.0077     93.4185    127.4356   1.2430330230e+02   3.8325334180e+01    0.1428811    0.1301141  63.53  7.12972e-05    1.010    0.010
       203  -9.9996     86.4666    126.3281   1.2612673686e+02   3.9740510168e+01    0.3227547    0.2284663   8.59  0.001040134    2.150    0.535
       204 -11.8087     37.8627    125.4707   1.4084182785e+02   4.6432943726e+01     0.424954    0.2052152  72.55  0.001822916    2.370    0.578
       205 -10.2983    246.7643    122.2221   9.0302944827e+01   8.6574906084e+00    0.3139964    0.1271569  39.82  0.001401205    2.589    0.614
       206  -9.6371    243.4198    120.1620   9.0331984833e+01   9.5041675906e+00    0.1785998    0.1049466 -36.23 0.0006457029    1.685    0.406
       207 -10.3495    209.8673    125.6678   9.6837691357e+01   1.5137683181e+01    0.2334173    0.1993272 -19.22  0.000469912    1.139    0.122
       208 -10.7221     27.4359    126.3637   1.4413837201e+02   4.7222836508e+01    0.2890936   0.09323936  31.58  0.001227047    2.757    0.637
       209  -9.6529    124.5412    125.4883   1.1530915706e+02   3.2945937074e+01     0.148279    0.1375726  49.44 7.984552e-05    1.005    0.005
       210 -14.0867     45.5892    246.5095   1.4724243537e+02   2.1807730917e+01    0.9705734      0.61722  27.50  0.003920639    1.707    0.414
       211 -13.2318     51.9626    228.3490   1.4516818445e+02   2.3969441361e+01    0.4504087    0.4289753  22.32  0.002774836    1.519    0.342
       212  -9.8407     50.3475    122.6627   1.3660160081e+02   4.5722797034e+01    0.2199599    0.1339038  64.73  0.001089846    1.687    0.407
       213  -8.9580    238.6777    121.6730   9.1347020880e+01   1.0173910986e+01    0.1352612   0.08889628  11.27 0.0007048339    1.689    0.408
       214  -9.4480    143.6373    121.3237   1.0953953213e+02   2.9835063345e+01    0.1545858    0.1175563  80.58 0.0007041068    1.785    0.440
       215 -10.9259     58.3375    119.0839   1.3355527928e+02   4.5587301744e+01    0.4030828    0.2142094 -38.02  0.001614352    2.915    0.657
       216 -10.4997    130.8561    119.1534   1.1224504580e+02   3.2963304727e+01    0.2172774     0.194261  69.41 0.0002624284    1.168    0.144
       217 -11.9280     32.4142    116.2059   1.4155862009e+02   4.9185400489e+01     0.442422    0.2361555 -65.12  0.002245874    1.743    0.426
       218 -10.3398    249.5255    117.5000   8.8902786002e+01   8.7416446129e+00    0.2164569    0.1817652  12.30 0.0006343079    1.117    0.105
       219 -11.6830    248.4137    112.5958   8.7985788955e+01   9.5330023899e+00    0.4752053    0.3569383  -1.22  0.002144551    1.263    0.208
       220  -9.6612     85.5497    117.7580   1.2478905302e+02   4.1868660167e+01    0.3304712    0.1501636  49.75  0.001287442    2.271    0.560
       221  -9.2939     80.5473    117.4569   1.2627149357e+02   4.2754475665e+01    0.1409796    0.1327755  70.78 4.672516e-06    1.039    0.038
       222  -9.2247    112.1126    116.1520   1.1662484539e+02   3.7400149946e+01    0.2029452    0.1690813  72.66 0.0002561751    1.289    0.224
       223 -10.6737    168.4076    113.3911   1.0195580723e+02   2.5891056199e+01    0.3811995    0.2876787  78.18  0.001419528    1.831    0.454
       224  -9.8553     82.0611    114.0684   1.2514234841e+02   4.3304188249e+01    0.2124256    0.1925983  66.97            0    1.031    0.030
       225 -11.8091     59.9075    111.2070   1.3177353509e+02   4.7277158254e+01    0.6033494    0.3235681  64.71   0.00254387    2.343    0.573
       226  -9.1881    203.5015    111.4877   9.4664106125e+01   1.8523710476e+01    0.1421392    0.1277162   9.16 0.0008100762    1.049    0.047
       227 -11.2915     69.6830    110.8057   1.2847849978e+02   4.6002023755e+01     0.364536    0.2056315  53.85 0.0009621273    1.865    0.464
       228  -9.7520     80.0004    108.9541   1.2476301304e+02   4.4843670852e+01    0.2174526    0.1910404  73.79 0.0003091645    1.107    0.097
       229 -11.3618     63.0711    106.9335   1.2995841989e+02   4.7880833725e+01    0.3810591    0.1893897 -68.26  0.001635127    2.042    0.510
       230 -15.4815     59.7868    216.0971   1.4287604672e+02   2.5122169405e+01     2.913114     2.266459  66.82   0.02168731    1.179    0.152
       231 -10.5587    134.6137    105.4193   1.0792701222e+02   3.4952580364e+01    0.3728854    0.1475803 -39.16  0.001257182    2.874    0.652
       232 -11.3011    248.0276     99.9543   8.5218459229e+01   1.1145580688e+01    0.4873253    0.3263507   2.37  0.002657316    1.664    0.399
       233 -10.1090    112.1689    104.1448   1.1376320772e+02   4.0011386153e+01    0.2142771     0.178849  76.47  0.001022947    1.324    0.245
       234 -10.3261     76.3320     98.9951   1.2383986775e+02   4.7801431821e+01    0.2402307    0.1955622  51.13 0.0003540756    1.205    0.170
       235  -9.8033     63.6121     98.1133   1.2806102702e+02   4.9943440997e+01    0.2361586     0.179907  51.40 0.0004704226    1.304    0.233
       236  -9.1246    136.6907     94.2714   1.0441727622e+02   3.6715082069e+01    0.1518322    0.1218811  85.84 0.0002327349    1.546    0.353
       237  -9.4049    101.9907     87.9724   1.1257652505e+02   4.5652154078e+01    0.2240443    0.1791899  86.44 0.0003369966    1.503    0.335
       238  -9.1704     52.8363     82.8206   1.2881575320e+02   5.5126583823e+01    0.1875669    0.1526134  73.88 -0.000430966    1.291    0.226
       239  -8.9738     37.6045     67.8280   1.3181966770e+02   6.0547304564e+01    0.1834821    0.1205511 -78.82 0.0003331901    1.555    0.357
       240 -10.9521    247.5471    248.5786   1.1206054754e+02  -4.3350531535e+00    0.1967439    0.1152553 -32.87  0.001441659    2.445    0.591
       241 -10.3925    205.0141    249.3296   1.1880853923e+02   8.5515213829e-01    0.1535302   0.09409143  29.78 0.0003528043    1.136    0.120
       242 -10.2342    121.4936    244.5242   1.3300527772e+02   1.2732708102e+01    0.2238795    0.1327072  50.05 0.0007635324    1.459    0.314
