#   1 NUMBER                 Running object number                                     
#   2 MAG_AUTO               Kron-like elliptical aperture magnitude                    [mag]
#   3 X_IMAGE                Object position along x                                    [pixel]
#   4 Y_IMAGE                Object position along y                                    [pixel]
#   5 X_WORLD                Barycenter position along world x axis                     [deg]
#   6 Y_WORLD                Barycenter position along world y axis                     [deg]
#   7 A_WORLD                Profile RMS along major axis (world units)                 [deg]
#   8 B_WORLD                Profile RMS along minor axis (world units)                 [deg]
#   9 THETA_WORLD            Position angle (CCW/world-x)                               [deg]
#  10 FWHM_WORLD             FWHM assuming a gaussian core                              [deg]
#  11 ELONGATION             A_IMAGE/B_IMAGE                                           
#  12 ELLIPTICITY            1 - B_IMAGE/A_IMAGE                                       
         1 -13.0959    234.6248     86.7248   3.1161325472e+01   1.9121877800e+01      1.02723    0.1982763 -44.10  0.003872184    3.756    0.734
         2 -13.8617    240.7770     43.4277   2.2965348131e+01   2.3977415689e+01      1.38429    0.9195619 -45.17  0.008946959    1.348    0.258
         3 -13.0615    248.5818     82.0666   2.8992639725e+01   1.7652861017e+01     2.186399    0.3645278 -39.30  0.006959599    5.979    0.833
         4 -12.9931    244.2778     68.0562   2.6947302646e+01   2.0242597248e+01     1.243399    0.3927375 -36.47  0.005500791    3.402    0.706
         5 -11.8253    227.0070     37.1376   2.2854071845e+01   2.7043576603e+01    0.4795104    0.2176279 -28.99  0.002377883    3.376    0.704
         6 -10.3908    245.7724     18.8565   1.8541023120e+01   2.6008986387e+01    0.2686308    0.1706121 -25.70  0.001816437    2.504    0.601
         7  -9.4139    188.5293     13.5126   2.1234365049e+01   3.6834451818e+01    0.1634897    0.1092753 -21.62  0.001030715    2.209    0.547
         8  -8.5393    209.3321      9.3253   1.8973482110e+01   3.3289613960e+01   0.09217588   0.07741015  56.57 0.0003933018    1.708    0.415
         9 -10.7544    224.1694    176.4044   4.8788084622e+01   5.9749467077e+00     0.387071    0.2340016  56.14  0.001981855    3.050    0.672
        10 -11.3403    195.9056    171.3638   5.2670843555e+01   1.0636500526e+01    0.3794032    0.2768862 -67.43  0.002021599    1.968    0.492
        11 -10.4938    215.2663    170.5220   4.9171043032e+01   8.1319806432e+00    0.2991175    0.1526244 -55.66  0.001379895    2.493    0.599
        12 -10.1002    249.8169    171.0341   4.4121409826e+01   3.8441655211e+00    0.1719165    0.1291953 -46.51    0.0012154    1.279    0.218
        13 -10.4301    225.3581    169.9776   4.7471031505e+01   6.9237038835e+00    0.2240798    0.1915869 -49.45   0.00114503    1.286    0.222
        14 -11.4969    236.4512    163.2426   4.4645284559e+01   6.6709004176e+00    0.3248566    0.2425417  71.27  0.001992606    2.381    0.580
        15 -11.5299    227.3884    162.0178   4.5750897177e+01   8.0200136149e+00    0.3526498    0.2689999 -69.54  0.002177662    1.861    0.463
        16  -9.9694    167.8680    162.5192   5.6461119918e+01   1.6652285070e+01    0.2938861    0.1805505 -59.69  0.001326144    1.997    0.499
        17  -8.8726    238.5041    249.5279   5.8307201462e+01  -6.9734358135e+00    0.1105945    0.0779419 -17.25 0.0002217211    1.031    0.030
        18 -13.1068    235.6463     62.4538   2.6698311252e+01   2.2371032166e+01     1.055216    0.2211446 -49.27  0.004187741    3.773    0.735
        19  -8.6292    235.3208    234.6747   5.6584437819e+01  -4.5639051724e+00   0.09404208   0.08550498 -37.37 0.0004133308    1.681    0.405
        20 -11.9343    238.8346     76.0092   2.8826474607e+01   1.9998431526e+01    0.5437744    0.2056352 -42.10  0.001856882    2.115    0.527
        21 -14.6066    245.2709    139.0971   3.9266300184e+01   9.4803038147e+00     2.106189     1.207824 -42.60   0.01303734    1.326    0.246
        22  -9.1532    228.8805    206.6092   5.3168354862e+01   4.0634519921e-01    0.1414612    0.1070706  35.61 0.0009429803    1.768    0.434
        23  -9.5993    230.5779    197.8883   5.1449982850e+01   1.6406107418e+00    0.1996399     0.156204  46.28  0.001326688    1.942    0.485
        24 -13.5183    246.0909    120.6665   3.5958044759e+01   1.2274286995e+01     1.683733    0.6630892 -50.66  0.008406065    2.227    0.551
        25 -11.6037    223.0479    153.8621   4.4933203865e+01   9.9910462072e+00    0.3052191    0.2284451  79.86  0.001769823    2.285    0.562
        26 -10.6021    191.0214    150.0389   4.9465442724e+01   1.5403466490e+01    0.2938712    0.1717124 -62.59  0.001306516    2.420    0.587
        27 -11.7190    211.1452    145.3255   4.5172880753e+01   1.3178701118e+01    0.4422344    0.2415542 -51.04  0.002275273    1.718    0.418
        28  -9.7421    176.4875    145.5274   5.1276246409e+01   1.8657464736e+01    0.2649764    0.1168032 -36.37  0.001038013    2.405    0.584
        29 -10.0165    155.7644    149.9009   5.6500026667e+01   2.1332165126e+01    0.2859511    0.2043226 -62.67  0.001378008    1.641    0.391
        30 -11.0661    195.6823    133.8505   4.5439424814e+01   1.7673892614e+01    0.4753931    0.2033474 -45.99  0.002095063    2.036    0.509
        31  -9.8668    176.2343    130.5372   4.8200336291e+01   2.1635216628e+01    0.3926097    0.1053991 -44.46  0.001280194    3.362    0.703
        32 -11.9095    226.3719    128.9509   3.9892594738e+01   1.3742599974e+01    0.5611719    0.2235059 -55.87  0.002239882    3.392    0.705
        33 -11.1949    214.2861    122.7487   4.0391991828e+01   1.6628712348e+01    0.3290957    0.1995609 -57.02  0.001801518    1.656    0.396
        34 -10.8128    224.0934    119.5873   3.8455710375e+01   1.5633335119e+01    0.2597284    0.1873228 -76.12  0.001529245    1.744    0.427
        35  -8.9025    205.3075    120.6320   4.1284863979e+01   1.8444541752e+01    0.1321878    0.0895979 -67.34 0.0007036016    1.755    0.430
        36  -9.1533    153.3020    117.6516   4.9932377685e+01   2.8462359332e+01    0.1467659    0.1107597 -78.90 0.0007039274    1.692    0.409
        37  -9.4830    207.0266    115.2975   3.9977382198e+01   1.9077760188e+01    0.2573251    0.1600904 -50.92  0.001151151    1.404    0.288
        38 -10.2349    223.7881    113.8024   3.7411854221e+01   1.6626873404e+01    0.2775358    0.1910459 -58.49  0.001393687    1.365    0.267
        39 -10.3458    219.3066    109.1725   3.7111545999e+01   1.8088414478e+01    0.2616172    0.1722185 -53.43 0.0008220756    1.310    0.236
        40 -10.2114    224.4535    106.1854   3.5898861936e+01   1.7748921191e+01    0.4412612    0.1389729 -51.06  0.001758621    3.145    0.682
        41  -9.4472    202.3883    104.7827   3.8539168234e+01   2.1648549125e+01    0.1807645    0.1076811 -36.83 0.0009521565    1.638    0.389
        42  -9.6709    168.9920    103.2420   4.3558905965e+01   2.8121324258e+01    0.3576973    0.1424991 -34.26   0.00126481    3.272    0.694
        43  -9.9383    192.4157    100.9032   3.9195489503e+01   2.4084831471e+01    0.3597997    0.1786574 -63.36  0.001468741    2.951    0.661
        44 -11.8044    229.2806    102.3345   3.4604642358e+01   1.7597071883e+01    0.3623409     0.247272 -48.52  0.002354185    1.163    0.140
        45  -9.9862    221.7045     98.4863   3.4779559626e+01   1.9408164057e+01    0.2654752    0.1103149 -51.56  0.001267223    2.162    0.538
        46 -13.2659    246.0648     96.9950   3.1824154380e+01   1.5870648508e+01     1.633816    0.3767245 -46.76  0.004738478    3.300    0.697
        47 -10.1638    152.4028     92.3315   4.4121333824e+01   3.3446706270e+01    0.4453532    0.1821464 -55.90  0.001526898    3.387    0.705
        48 -10.5601    225.1438     86.4023   3.2105732816e+01   2.0697056348e+01    0.2214202     0.189498 -55.90 0.0009123405    1.115    0.103
        49 -10.0956    216.9579     90.4938   3.3816805092e+01   2.1441854068e+01    0.2462899    0.1364585 -54.82  0.001312582    1.605    0.377
        50  -9.9834    187.6664     87.0797   3.6960913599e+01   2.7266458534e+01    0.4886986    0.2120928 -57.49  0.001996154    2.813    0.645
        51  -8.8983    209.6223     85.1637   3.3654576477e+01   2.3531320049e+01    0.1691399    0.1032192 -35.96 0.0009449566    1.676    0.403
        52 -10.1207    172.2130     77.9287   3.7247900469e+01   3.1790030792e+01     0.397378     0.179089 -31.59  0.001611249    2.938    0.660
        53 -10.5124    228.6986     78.6681   3.0292369559e+01   2.1250130494e+01    0.2480292      0.09532 -54.78  0.001165102    2.515    0.602
        54 -11.5958    215.2887     75.8061   3.1165752723e+01   2.3939849064e+01     0.524029    0.2005915 -54.48  0.002376355    2.597    0.615
        55 -12.0441    236.3418     32.1792   2.1332637474e+01   2.6050196275e+01    0.3851839    0.2908716 -12.37  0.002098745    2.601    0.616
        56 -11.7089    218.6884     59.8273   2.7751052913e+01   2.5595814953e+01    0.4479911    0.1623641 -48.78  0.002220766    2.237    0.553
        57 -11.7034    230.3383     63.7728   2.7403689640e+01   2.3067150154e+01    0.3003922    0.1584651 -46.86  0.001839624    1.505    0.336
        58 -10.0715    199.7458     61.6757   3.0071900474e+01   2.8796909254e+01    0.3688421    0.1574432 -33.47  0.001689618    2.754    0.637
        59 -11.7607    211.4281    159.0216   4.7694025602e+01   1.0696838731e+01    0.3744594    0.2372362  45.59  0.002111277    1.964    0.491
        60  -9.7116    209.6316     57.9066   2.8267101266e+01   2.7478938136e+01    0.2532501   0.09586194 -39.75   0.00122244    2.369    0.578
        61  -9.7395    143.6137     57.7963   3.7059184135e+01   4.0962171662e+01    0.1894711    0.1135962 -50.57 0.0009528653    1.698    0.411
        62 -11.7927    226.3875     52.3693   2.5667590686e+01   2.5248543333e+01    0.3256853    0.2143937 -23.38  0.001957283    2.409    0.585
        63  -8.9415    160.6839     55.3502   3.3688045329e+01   3.7590582257e+01    0.1374673   0.08741107 -71.19 0.0007047292    1.731    0.422
        64 -12.0171    222.4859     48.5511   2.5294702652e+01   2.6414452950e+01    0.4391737    0.3233173   0.38  0.002497218    3.267    0.694
        65  -9.7131    209.4847     51.9900   2.7121323805e+01   2.8296395745e+01    0.1730146   0.09835208 -42.44  0.001030907    1.590    0.371
        66  -9.4130    187.4778     52.2977   2.9495535736e+01   3.2464311960e+01    0.2540299    0.1834158  -6.78  0.001372976    2.640    0.621
        67  -9.6678    202.5562     42.6553   2.5932259869e+01   3.0787773446e+01    0.2088768    0.1049861 -35.48  0.001144482    2.099    0.524
        68  -9.0581    220.5385    189.0484   5.1574512933e+01   4.2557417531e+00    0.1674264   0.09849258 -59.19 0.0008093045    2.645    0.622
        69 -10.2404    167.4093     30.9864   2.7037583486e+01   3.9263815498e+01    0.3446928   0.09035075 -38.01  0.001409864    3.412    0.707
        70 -11.2878    218.5922     28.9715   2.1983190759e+01   2.9480690070e+01    0.3253612    0.1944995 -37.92  0.002153316    1.719    0.418
        71  -9.5156    178.4802     35.4830   2.6835142567e+01   3.6424679232e+01    0.3528548    0.1083851 -35.43  0.001496797    3.283    0.695
        72  -9.2520    193.7269     25.4764   2.3255551465e+01   3.4529392513e+01    0.2525924   0.09607004 -49.71  0.001300644    2.232    0.552
        73 -12.5571    233.0238    117.8009   3.6994086791e+01   1.4583634141e+01    0.8679994    0.2552857 -47.37  0.003638901    2.820    0.645
        74 -10.8498    244.8559     26.4231   1.9834998958e+01   2.5319031793e+01    0.1967752    0.1746081 -14.72  0.001606464    1.966    0.491
        75 -10.2365    226.4128    185.1066   4.9945159922e+01   4.2297289139e+00    0.2527448    0.1730967  39.58   0.00126275    1.884    0.469
        76 -10.3662    218.6622    179.7678   5.0263992088e+01   6.0800028750e+00    0.2964951    0.2008093 -70.05  0.001480977    2.857    0.650
