#   1 NUMBER                 Running object number                                     
#   2 MAG_AUTO               Kron-like elliptical aperture magnitude                    [mag]
#   3 X_IMAGE                Object position along x                                    [pixel]
#   4 Y_IMAGE                Object position along y                                    [pixel]
#   5 X_WORLD                Barycenter position along world x axis                     [deg]
#   6 Y_WORLD                Barycenter position along world y axis                     [deg]
#   7 A_WORLD                Profile RMS along major axis (world units)                 [deg]
#   8 B_WORLD                Profile RMS along minor axis (world units)                 [deg]
#   9 THETA_WORLD            Position angle (CCW/world-x)                               [deg]
#  10 FWHM_WORLD             FWHM assuming a gaussian core                              [deg]
#  11 ELONGATION             A_IMAGE/B_IMAGE                                           
#  12 ELLIPTICITY            1 - B_IMAGE/A_IMAGE                                       
         1 -12.7575     80.1231     57.8253   4.4440887647e+01   5.5789215096e+01     1.574957    0.9773216 -24.98  0.006564918    1.963    0.491
         2 -13.9963     56.1258     64.2811   5.6425450110e+01   5.8367353735e+01     1.960841     1.108886 -31.38  0.008148365    2.086    0.521
         3 -14.9015      6.5486     70.9377   8.0271695839e+01   6.1430221654e+01     1.231861    0.7455332 -61.88  0.004135012    1.278    0.218
         4 -13.3254    187.6527     11.4610   4.2328065474e+00   3.6811213815e+01    0.6540535    0.4844922 -22.32  0.003138199    1.450    0.311
         5 -12.9357      7.8862      2.5340   5.5478654568e+01   7.6906300674e+01    0.5640414    0.3897932  33.22  0.003548263    1.823    0.452
         6 -15.9219     11.3623     23.2875   6.4208177951e+01   7.2600079513e+01     2.120466     1.012088 -37.31  0.009891671    1.796    0.443
         7 -14.2405     26.9483     12.0443   4.7848326311e+01   7.3167565019e+01    0.8901005    0.5530744 -17.66  0.004712442    1.629    0.386
         8 -14.4305    189.3310     24.2756   7.8231225215e+00   3.4908169360e+01     1.421608    0.8098387 -51.76  0.005729146    1.625    0.385
         9 -14.3221    166.6380     29.2196   1.2187914573e+01   3.9924675941e+01     1.067401    0.8650409  76.47  0.003666153    1.247    0.198
        10 -14.2079    147.6036     29.4502   1.5233003791e+01   4.4759380477e+01     1.303232    0.8196883  70.58  0.004562031    1.643    0.391
        11 -13.8695    122.2862     36.7766   2.3099309334e+01   5.0154674859e+01     1.030195    0.6046198  31.74  0.003351708    2.250    0.556
        12 -13.5530    217.8068     28.8591   6.2530404849e+00   2.7678189471e+01    0.7889958    0.3917042 -67.75  0.003465858    2.343    0.573
        13 -12.9702    223.8228     20.4491   3.5835746953e+00   2.7395052015e+01    0.4361849    0.3013392 -38.97  0.001661485    1.230    0.187
        14 -11.8360    232.4914      1.8397   3.5845004200e+02   2.7633538034e+01    0.5572425    0.2059618  64.79  0.002557953    2.942    0.660
        15 -14.3346    217.0124     11.4089   1.7962165353e+00   2.9953875405e+01    0.9993744    0.8305923 -80.96  0.003650261    1.173    0.148
        16 -12.5470    120.6968     25.9773   1.9111296411e+01   5.2081355795e+01    0.6414093    0.5185319  27.03  0.003336328    1.353    0.261
        17 -15.0652     99.0695     11.5757   1.7777239263e+01   5.9142063535e+01      1.49167    0.9380419  56.38  0.003982272    1.504    0.335
        18 -11.9396     85.6306     13.8202   2.2505352509e+01   6.2052726816e+01    0.4721319    0.3492144 -21.20  0.001910521    1.345    0.257
        19 -12.1017     60.0963     15.3009   3.2414428408e+01   6.7274601857e+01     0.521556    0.3020846  27.92  0.002470408    1.918    0.479
        20 -11.8048     46.7394     12.7989   3.7080666841e+01   7.0066288661e+01    0.3011084    0.2988143  41.33  0.001259811    1.373    0.272
        21 -12.3094    123.2727     10.7407   1.2339781650e+01   5.3205360018e+01    0.2817026    0.2345074 -79.84 0.0004292904    1.281    0.219
        22 -11.5142     75.1446      9.9668   2.3762023443e+01   6.4843372506e+01    0.3025763    0.2140933  -6.16 0.0009548843    1.454    0.312
        23 -12.1939    152.3104      8.9492   7.2768663894e+00   4.5940035294e+01    0.4491857    0.2663635  63.73  0.002171335    1.611    0.379
        24 -11.9246    119.5193      2.7597   9.6788660200e+00   5.4912447345e+01    0.6702074    0.2938279 -88.72  0.002258422    3.782    0.736
        25 -11.7703     81.3120      1.3289   1.7188417092e+01   6.4337891722e+01    0.7209573   0.07156155  56.90  0.002042413    4.932    0.797
        26 -11.1468     67.7109      2.7195   2.2145709479e+01   6.7228239566e+01    0.2977459    0.1818592  26.23  0.001500049    1.693    0.409
        27 -13.9534     41.5930      4.8069   3.4601040613e+01   7.2054250832e+01    0.9600885    0.6051491  -0.18  0.004321096    1.752    0.429
        28 -10.6315     80.5062      7.1063   2.0528342844e+01   6.3962106237e+01    0.2008443    0.1291917 -21.30  0.001021217    1.557    0.358
        29 -11.1286     61.4419      1.4769   2.3632833650e+01   6.8672409057e+01    0.3615191    0.1261196  57.27  0.001412588    2.962    0.662
        30 -11.0063    122.2671    181.2855   6.2696829666e+01   1.8202887910e+01    0.3941899    0.2329501  79.31  0.001405375    3.713    0.731
        31 -12.7586    107.5772    247.1165   7.4082618925e+01   7.8748005932e+00    0.6948087    0.4841072  76.15  0.004463192    1.835    0.455
        32 -13.0542     98.6889    238.9620   7.5043156656e+01   1.0387666018e+01    0.7846743    0.4257169  32.84  0.004464411    1.608    0.378
        33 -13.8644     92.4304    230.6546   7.5507767729e+01   1.2676384244e+01    0.6308352    0.5773672  63.32  0.004575219    1.125    0.111
        34 -12.3775     51.3774    248.1515   8.4844947794e+01   1.4542427770e+01    0.3702045    0.3500291  35.78  0.003005518    1.400    0.286
        35 -12.1654     59.7919    246.4097   8.3165625803e+01   1.3887825266e+01    0.4068083    0.2655326 -77.68  0.002764087    1.690    0.408
        36 -11.2775     41.4560    249.9050   8.6762688917e+01   1.5328786319e+01    0.2202629    0.1258319  58.72  0.001462859    1.372    0.271
        37 -12.7800     28.4648    246.2509   8.8946675559e+01   1.7345082265e+01    0.4640229    0.2856712  77.14  0.002981021    1.427    0.299
        38 -12.2302      2.8495    249.6482   9.3560691945e+01   1.9225375454e+01     0.361247    0.1967183  53.71  0.001899289    1.263    0.209
        39 -13.7963      9.8322    245.7886   9.2244150023e+01   1.9263589400e+01      0.85547    0.3125083  52.20  0.004100278    1.855    0.461
        40 -11.4146     84.0000    178.9674   7.1589299461e+01   2.4613738071e+01    0.2260536    0.0763759 -63.68 0.0008075555    2.978    0.664
        41 -12.4640    124.2188    166.5667   5.9717742769e+01   2.1135671539e+01    0.6339279    0.4118706 -70.89  0.002842875    1.936    0.484
        42 -12.2585     24.4798    159.0641   8.4608393562e+01   3.6707798570e+01    0.2886173     0.203582 -59.22  0.001633754    1.495    0.331
        43 -11.3161    239.0004    159.4995   3.4856412874e+01   3.0459320029e+00    0.1532561    0.1193925  72.78 0.0008106842    2.637    0.621
        44 -12.2070     77.2497    156.7976   7.0199208559e+01   3.1011398871e+01    0.5118317    0.3740799  21.48  0.001477676    1.662    0.398
        45 -13.2467     73.7564    153.2653   7.0616173298e+01   3.2415002075e+01    0.8041342    0.5706069  32.32  0.002744918    1.526    0.345
        46 -11.0562     54.7837    156.2208   7.6222829896e+01   3.4166241987e+01    0.3087156    0.1780479  -9.28  0.001078545    4.243    0.764
        47 -10.9421    188.3300    155.6702   4.3154128986e+01   1.1995124539e+01    0.1365186    0.1158573 -77.83 0.0007051637    1.714    0.417
        48 -11.6319     85.4970    153.1426   6.7382437415e+01   3.0714612110e+01    0.5305926    0.2704119 -42.72  0.002069808    2.422    0.587
        49 -12.8562      8.8212    149.1683   8.7979980689e+01   4.0555012019e+01    0.7699362    0.4136001  46.30  0.004054753    1.783    0.439
        50 -11.3922    103.4029    149.7441   6.1938271385e+01   2.8687155081e+01    0.3686866    0.2562042 -37.66  0.001355671    1.661    0.398
        51 -11.6336     59.6712    148.3167   7.3818655407e+01   3.5610377344e+01    0.2534623    0.1975076  57.39  0.001052095    1.263    0.208
        52 -11.8282     62.3276    146.3201   7.2777190721e+01   3.5790140881e+01    0.3125222    0.2366772  47.05  0.001406732    1.339    0.253
        53 -11.0852     38.0860    145.6700   7.9601695671e+01   3.8832319013e+01    0.1896271    0.1715945  72.70 0.0006836274    1.128    0.113
        54 -12.0013    111.4584    155.9292   6.0973411492e+01   2.5805113494e+01    0.5233603    0.3410811  75.21  0.002162959    2.257    0.557
        55 -11.7302    246.2912    135.0006   2.8557383685e+01   5.7553881641e+00    0.2318673    0.1752587 -87.58  0.001189946    2.718    0.632
        56 -12.7040     44.0010    132.9652   7.6259374770e+01   4.1593189398e+01    0.5904124    0.2767156 -62.38  0.002522436    1.827    0.453
        57 -12.3776    136.8700    132.0505   4.9393092373e+01   2.6812875868e+01    0.5701813    0.3358588  33.35  0.002319657    1.925    0.480
        58 -14.7488    105.7541    104.2970   5.0921764660e+01   3.9775338722e+01     1.458776     1.378199 -58.25  0.005793772    1.020    0.020
        59 -12.0261     32.6645    110.6875   7.6649256859e+01   4.8842583353e+01    0.5414401    0.3121769 -81.67  0.002491097    1.619    0.382
        60 -13.0132     28.8525    122.0401   7.9519018902e+01   4.6092458669e+01     0.878046    0.2976091 -62.53  0.003384063    2.316    0.568
        61 -12.4315    180.9894    120.9460   3.6581615597e+01   2.0223004575e+01    0.3307051    0.2746037  41.57  0.001203996    1.324    0.245
        62 -11.8541     88.5860    109.3641   5.7563579577e+01   4.1655283844e+01    0.4762218    0.3118571 -64.09  0.002050627    1.521    0.343
        63 -13.1760     84.3791    114.9728   6.0238132442e+01   4.0891756474e+01    0.9928185    0.6302488  16.46  0.004003711    2.284    0.562
        64 -12.5615     78.8331    110.8060   6.1049419308e+01   4.2905636977e+01    0.5333899    0.3957309 -88.46  0.002391036    1.572    0.364
        65 -13.2454      5.3862    117.3818   8.6490081704e+01   4.9123047058e+01     1.411789    0.4289745 -62.51  0.005607123    2.521    0.603
        66 -12.5159     49.5984     98.7540   6.8433071649e+01   5.0292994380e+01     1.049183    0.5464956  20.47  0.004309508    2.476    0.596
        67 -11.9473     49.0127     93.4961   6.7486215622e+01   5.1785724891e+01    0.4681084    0.3323243  72.54  0.002217314    1.725    0.420
        68 -12.1350     42.5692     90.3277   6.9229502704e+01   5.3383896643e+01    0.4582582    0.2945468 -81.61 0.0002429206    1.667    0.400
        69 -12.5594     20.9524     85.8527   7.6850558101e+01   5.6588022893e+01     0.835008    0.5024576   8.88  0.001398126    2.155    0.536
        70 -12.3544     36.7656     92.9225   7.2011724396e+01   5.3295242804e+01    0.5007985    0.3724959   0.65  0.001561011    1.732    0.423
        71 -13.3057      2.2251     96.8999   8.5543622072e+01   5.4771428566e+01    0.9367241    0.3577119 -79.30  0.003502514    2.103    0.525
        72 -14.0405     18.3484    111.7946   8.1669436804e+01   4.9751589265e+01    0.7174487    0.5758886  -5.79  0.003034959    1.642    0.391
        73 -14.1379     14.1067    103.7160   8.2119637343e+01   5.2244855654e+01     1.096407    0.5360336  29.63  0.002603679    2.317    0.568
        74 -14.5051     22.8272     94.9713   7.7683456697e+01   5.3983758919e+01     1.551297    0.8745722   7.06  0.007204564    2.423    0.587
        75 -12.2828    121.4716    112.0486   4.8467737059e+01   3.4707979297e+01    0.3629364    0.3095094  86.81  0.001057503    1.364    0.267
        76 -11.1031     62.8527    110.7903   6.6346789345e+01   4.5301192833e+01    0.9705365    0.5069868 -75.90   0.00368844    2.232    0.552
        77 -10.9435     64.5104    101.5431   6.3719346210e+01   4.7568750269e+01     0.279824    0.2476898 -29.71 0.0005345591    1.251    0.200
        78 -12.0887     61.5076     97.5418   6.3835371216e+01   4.9068368398e+01    0.5078613    0.3960751  82.65   0.00168569    1.475    0.322
        79 -10.9036     46.0600    110.2071   7.1959932717e+01   4.7579494134e+01    0.3255052    0.1308448 -46.96  0.001175039    2.597    0.615
        80 -11.0427    222.9703    109.2304   2.6183610362e+01   1.4061097903e+01    0.1670633    0.1225125  50.51 0.0008796942    1.648    0.393
        81 -11.1864     42.8028    106.6693   7.2445772071e+01   4.8912717189e+01     0.279802    0.2026774 -36.50  0.001395074    1.568    0.362
        82 -12.5629     29.6909     89.4058   7.4052968922e+01   5.4916762947e+01    0.5531938    0.3413825  85.94  0.001876563    1.870    0.465
        83 -12.6440    136.3288    103.1000   4.2046841174e+01   3.3678167047e+01    0.6668378     0.353766  49.93   0.00183894    2.072    0.517
        84 -13.4819    119.6420    102.3614   4.6336006659e+01   3.7431036679e+01    0.7478418    0.3800089  39.61  0.002771334    2.171    0.539
        85 -11.9894    163.3623     97.7202   3.4111563977e+01   2.8808378625e+01      0.37204    0.2989056  63.58 0.0005974502    1.432    0.302
        86 -12.9953    137.1473     94.7157   3.9416318383e+01   3.5395425068e+01    0.5402721    0.4823453  89.47  0.001741446    1.264    0.209
        87 -14.0794    104.7297    122.2393   5.5773346666e+01   3.5419840649e+01     1.598448      1.07486  43.14  0.007072784    1.569    0.363
        88 -11.7469    129.4275     96.1334   4.1850780314e+01   3.6792194650e+01    0.3208615     0.223011  66.99  0.001320623    1.873    0.466
        89 -12.9883    112.0573    116.8367   5.2349355383e+01   3.5400743428e+01    0.6307632    0.4267189  31.24  0.002403443    1.701    0.412
        90 -13.3780    188.2243     84.1724   2.5411427559e+01   2.5803785045e+01    0.6766122    0.4253804  40.46  0.002138974    1.928    0.481
        91 -12.6733    187.1053     79.1415   2.4191955391e+01   2.6975593762e+01    0.3185772      0.25215 -15.30  0.001001877    1.426    0.299
        92 -11.6746    242.4257     83.8462   1.7385895871e+01   1.4564957683e+01    0.2754719    0.2103907  84.20  0.001571915    1.748    0.428
        93 -13.1993    164.2274     71.4239   2.6141387747e+01   3.3799077079e+01     1.005676    0.4980308  49.30  0.003874248    2.193    0.544
        94 -13.4672    160.7719     80.8272   2.9725343389e+01   3.2829734047e+01     1.018716    0.6332995  24.55  0.003784512    2.620    0.618
        95 -14.2564    169.2886     76.8843   2.6808414821e+01   3.1564305802e+01     1.466518    0.6451645  51.32  0.004372546    2.447    0.591
        96 -10.6932    125.4677     84.4931   3.9370324361e+01   4.0308793451e+01    0.1637372    0.1528808 -38.84 -1.142558e-05    1.030    0.030
        97 -13.6598    171.5067    242.2251   6.1325889319e+01   1.9698381585e-01    0.7696276    0.4548341  24.82  0.004715062    1.439    0.305
        98 -11.8781     40.8525     67.9674   6.4234709734e+01   5.9429888127e+01     1.020772     0.314242  28.31  0.003534628    3.621    0.724
        99 -12.3592    147.4379    238.8433   6.5457245601e+01   3.8868956153e+00    0.2219897    0.1646234  49.28 0.0008830184    1.461    0.315
       100 -13.9841     73.6242     74.0708   5.2695709206e+01   5.3233553478e+01     2.380148     1.076937  19.49  0.006022374    6.097    0.836
       101 -13.2675     87.4336     65.2305   4.4580809626e+01   5.2747258124e+01    0.6692775    0.5202765  20.27 0.0009916683    1.513    0.339
       102 -13.0757     92.2849     57.5932   4.0032879669e+01   5.3395818309e+01    0.6665109    0.5035333 -46.16  0.001876989    1.279    0.218
       103 -12.8686     54.7300     81.2217   6.2194527690e+01   5.4311257211e+01    0.7105974       0.4129 -43.57  0.003126528    1.639    0.390
       104 -13.8167     61.1917     75.6821   5.8020568747e+01   5.4816665576e+01    0.7877126    0.5061764 -41.62  0.001622437    1.477    0.323
       105 -13.0358    216.2303     80.7393   2.0055255872e+01   2.0276374910e+01    0.5606764    0.5002919 -39.44  0.002592497    1.064    0.060
       106 -12.2408    210.2294     77.4860   2.0066199464e+01   2.2100378055e+01    0.5503574    0.2910494 -54.64  0.002280884    2.114    0.527
       107 -11.9508    114.1427     79.8884   4.1086543670e+01   4.3861670216e+01    0.5325646    0.3518062 -47.41  0.002280244    1.431    0.301
       108 -11.3655     42.6722     79.3118   6.6559469953e+01   5.6301085603e+01    0.4961365    0.2583261 -82.95  0.001783429    2.973    0.664
       109 -11.1051     41.6205     75.7446   6.6068389199e+01   5.7350295344e+01    0.4110141    0.2900082  86.26  0.001925955    1.809    0.447
       110 -10.6500     89.9679     80.9514   4.9079427803e+01   4.8605094665e+01    0.2546397    0.1984354 -89.45  0.001139018    1.707    0.414
       111 -11.9909    237.0756     79.9234   1.7095898646e+01   1.6199658252e+01    0.2997926    0.2022436  81.18  0.001545819    2.076    0.518
       112 -12.5333    135.3976     79.2615   3.5096694855e+01   3.9156132196e+01    0.7790809    0.3942331  54.29   0.00277198    2.196    0.545
       113 -12.7234     23.4294    216.2510   8.8512767269e+01   2.3623350916e+01    0.7452234    0.2850075  44.73  0.003911451    1.979    0.495
       114 -14.1438      5.2087     63.4089   7.9523913210e+01   6.3439109478e+01    0.6878856    0.6417343 -39.20  0.003794249    1.221    0.181
       115 -11.5440     27.2974     75.8893   7.2207956943e+01   5.8729811449e+01    0.4513058    0.2488252 -86.58  0.001912259    2.249    0.555
       116 -13.4410    199.2964     69.9486   1.9641564957e+01   2.5791018219e+01    0.7404205    0.4983522  43.50  0.002533684    1.803    0.445
       117 -11.9401    214.3328     71.7640   1.7976768350e+01   2.2162619223e+01     0.230497    0.2222665  82.25  0.001382882    1.203    0.169
       118 -10.6484    117.5209     71.5081   3.7299458134e+01   4.4935261225e+01    0.3160559    0.1612808  48.89  0.000992336    2.084    0.520
       119 -12.5972    134.7937     66.1043   3.0887407880e+01   4.1965956847e+01    0.6182713    0.4874932  29.48  0.001987045    1.491    0.329
       120 -11.8762    158.5526     64.6752   2.5148473851e+01   3.6419158037e+01    0.6241288    0.2365782 -42.99  0.002103737    2.447    0.591
       121 -11.2775    199.8550     61.8231   1.7297523243e+01   2.7001321882e+01    0.2201097    0.2002503 -16.23 0.0009625347    1.220    0.180
       122 -11.8067     36.1316     54.4791   6.2182608324e+01   6.3278164659e+01    0.5774347    0.2206758 -44.59  0.002251544    2.295    0.564
       123 -11.1510     34.7314     60.4839   6.4786413624e+01   6.1967601292e+01     0.497899    0.1762489 -50.94  0.001918485    2.231    0.552
       124 -11.9460     38.8193     59.9894   6.2717673339e+01   6.1644769366e+01    0.3469206    0.2600812  78.63  0.001738288    1.870    0.465
       125 -13.4481    177.7405     57.3184   1.9359601019e+01   3.2979365641e+01    0.9121429    0.5747184 -47.77  0.002564139    1.483    0.326
       126 -11.7438     24.8495     59.0340   6.9084452339e+01   6.3263779740e+01    0.4757097    0.2294933 -54.29  0.002186566    1.631    0.387
       127 -14.4732    119.1222     54.4686   3.0729690621e+01   4.7948138398e+01     1.159604    0.7007815  43.51  0.003125533    1.774    0.436
       128 -12.2170    136.1488     50.8542   2.5216736690e+01   4.4421596768e+01    0.6189483    0.4416858 -34.06  0.001871348    1.352    0.260
       129 -13.8907    100.9022     49.6662   3.4102636638e+01   5.3078246110e+01    0.9286914    0.8317383 -77.77  0.002890202    1.303    0.232
       130 -13.1170     66.0226     49.3493   4.6595163405e+01   6.0170550386e+01    0.7370984    0.6405186 -67.33  0.003980871    1.382    0.276
       131 -11.2177     17.6265     55.2939   7.1625345240e+01   6.4759569125e+01    0.3376939    0.1957286 -67.38  0.001691967    1.520    0.342
       132 -11.4250    248.0526     54.9005   9.8965163176e+00   1.7817895872e+01     0.315758    0.1088512 -50.48  0.001221808    2.829    0.646
       133 -10.5016     23.5320     49.9554   6.7031351580e+01   6.5599554253e+01    0.2018409    0.1134272 -57.52 0.0004053331    1.469    0.319
       134 -12.1524    151.9619     46.7767   2.0508004725e+01   4.1113262433e+01    0.4790197    0.2591245  53.96  0.001874549    1.900    0.474
       135 -12.6682    158.5143     43.1714   1.8094163933e+01   4.0014087208e+01    0.5832187    0.5011239  49.97  0.003062631    1.254    0.203
       136 -10.8755     38.8334     46.1703   5.7825566687e+01   6.4897665133e+01    0.2023193      0.17957 -52.97 0.0006481923    1.167    0.143
       137 -14.2056    212.5799     41.0891   1.0013291161e+01   2.7214345850e+01     1.976505    0.7010952  76.94  0.006611246    4.220    0.763
       138 -13.7330     20.6752    224.0083   8.9422920000e+01   2.2329819009e+01    0.5901157    0.4971981  51.40  0.003028714    1.254    0.202
       139 -13.2934      6.0399     42.9703   7.4432110877e+01   6.8475044565e+01    0.8641401     0.443301  13.16  0.004418608    2.321    0.569
       140 -11.0619     27.8723    235.4646   8.8572325136e+01   1.9386597216e+01    0.1966347    0.1138851  63.10  0.001276046    1.357    0.263
       141 -11.6836     16.3129    235.5350   9.0724695062e+01   2.0528287669e+01    0.7302078    0.1168429  54.18  0.002851631    4.046    0.753
       142 -12.7803     57.5609    202.5562   8.0353225689e+01   2.2757996435e+01     0.692202    0.3873585 -76.39  0.003695565    1.787    0.440
       143 -13.3680     65.7330    223.3022   8.0332115975e+01   1.7467693854e+01    0.8218122    0.4977551  37.16   0.00485884    1.463    0.317
       144 -10.7328     25.4697     44.0164   6.3993215096e+01   6.6826494128e+01    0.2154648    0.1161087 -57.22  0.001016745    1.599    0.375
       145 -11.7358    135.1004     39.6144   2.1331513206e+01   4.6503956220e+01    0.5069863    0.3311178  76.89  0.001574712    1.823    0.451
       146 -12.1650    109.8649     41.9448   2.8346206880e+01   5.2362667397e+01    0.5024738    0.2253225  54.91  0.001146192    2.300    0.565
       147 -12.9861    113.7993     37.6805   2.5555021291e+01   5.2104741601e+01    0.4361051    0.4103899  -5.44  0.001390242    1.069    0.065
       148 -12.6590    131.4769     33.4275   1.9756482443e+01   4.8335892680e+01    0.5102023    0.4248297   8.79  0.001459743    1.386    0.278
       149 -12.9708     43.6819     32.9574   4.9622603843e+01   6.7058829824e+01    0.9027343    0.5813437  26.55  0.004665178    1.686    0.407
       150 -12.1254     40.4872     40.3243   5.4599850529e+01   6.5976402711e+01    0.5276634    0.3123934  29.30  0.002604633    1.870    0.465
       151 -12.5433     33.0839     40.0704   5.8373923855e+01   6.6931107387e+01    0.3773395    0.2701483 -19.83 0.0006529785    1.435    0.303
       152 -12.4903     76.0022     37.0113   3.7174604947e+01   6.0698382893e+01    0.4504455     0.315074  30.17  0.001283676    1.538    0.350
       153 -11.7961     70.8604     36.1308   3.8766406090e+01   6.1866462474e+01    0.3246503    0.2972937  70.58  0.001070017    1.377    0.274
       154 -12.7794    242.1135     36.0019   5.9333205535e+00   2.1576855341e+01    0.5140881    0.3309247  86.13  0.001931304    1.783    0.439
       155 -10.9906    104.6724     36.8254   2.7662537152e+01   5.4428387455e+01    0.3438964    0.1717477 -36.19  0.001272954    1.926    0.481
       156 -11.0543    249.0062    225.4888   4.5331673010e+01  -7.1723812658e+00    0.1606343   0.09007472  24.81  0.001041528    1.617    0.381
       157 -14.2194     62.9337    214.1655   8.0170584455e+01   1.9645557701e+01    0.9681422    0.4911456  43.24  0.005173078    1.640    0.390
       158 -12.6172    140.2915     21.4746   1.3568957862e+01   4.7650389972e+01    0.7281447    0.3168795  62.85  0.001333175    2.186    0.542
       159 -10.7993      5.6726    219.1900   9.2123664031e+01   2.4711816865e+01     0.182413     0.103993  71.09 0.0008258314    1.352    0.261
       160 -12.2846     94.2733    218.1016   7.3861846584e+01   1.4787150451e+01    0.2808562    0.1911962  36.81  0.001260086    1.306    0.234
       161 -12.7332      4.5122    212.0031   9.2094268585e+01   2.6284180173e+01    0.4616852    0.2291199 -77.06  0.002724009    1.886    0.470
       162 -11.0329    156.6774    214.6721   6.0353680972e+01   6.4569301140e+00    0.1291679   0.09086253  -1.81 0.0007048826    1.692    0.409
       163 -13.6825     26.2243    226.5236   8.8464313517e+01   2.1275742695e+01    0.8090322    0.3704255 -60.96  0.004411396    2.612    0.617
       164 -10.5724    136.6105    210.8134   6.3949781495e+01   1.0097259827e+01    0.1643022    0.1246117 -69.08 0.0008610599    1.683    0.406
       165 -13.3360     57.6654     26.8155   3.9767969631e+01   6.5940298583e+01     1.086334    0.4017648  41.02  0.003747983    2.829    0.647
       166 -11.9905     30.5621     25.4644   5.3137268700e+01   7.0264804850e+01     0.374752    0.2515652  -6.67  0.001594006    1.657    0.397
       167 -12.6603     35.3217     23.3656   4.9296935408e+01   7.0056356101e+01    0.3194614    0.2505254  -6.74  0.000718608    1.219    0.179
       168 -12.6928     72.3077    207.5725   7.7548715649e+01   1.9835548429e+01    0.4490186    0.2631569 -78.11  0.002405007    1.825    0.452
       169 -13.5309     16.0610    197.8864   8.9117205505e+01   2.8258986994e+01     1.044071    0.2576837 -60.91  0.003930631    4.380    0.772
       170 -11.2482     51.2130     20.4106   3.9325530128e+01   6.8127990815e+01    0.3267793    0.1928701  52.35  0.001547012    2.227    0.551
       171 -11.9276     45.9430     20.5159   4.1996903628e+01   6.8987478760e+01    0.3595813     0.236718   3.77  0.001213255    1.822    0.451
       172 -11.5358     70.9483     16.5368   2.8812245688e+01   6.4927061852e+01    0.2602882    0.2177624 -24.01 0.0006933201    1.174    0.148
       173 -14.1850     29.9718    169.2726   8.4044205840e+01   3.3619748270e+01      1.33688     1.191648 -27.68  0.008496336    1.545    0.353
       174 -13.6833     22.1338    180.8005   8.6777486667e+01   3.1596695418e+01    0.8734893    0.3701289 -67.68  0.004187441    2.162    0.537
       175 -15.3170      8.4148    183.3386   9.0063928322e+01   3.2240092060e+01     1.375689     1.039342 -82.16  0.009094316    1.244    0.196
       176 -15.3911     15.2481    174.9332   8.8027345708e+01   3.3628577812e+01     2.347215     0.978402  62.48    0.0108703    2.202    0.546
       177 -13.8905     40.4661    196.0240   8.3646577969e+01   2.6187792790e+01    0.8836066    0.4137934  55.92  0.004375885    1.906    0.475
       178 -12.6991    164.2102    195.7085   5.5810426160e+01   8.6088852060e+00      0.40448    0.2867174  84.30  0.001810463    3.105    0.678
       179 -11.7056     98.1842    187.6205   6.9325352567e+01   2.0562604507e+01    0.1946582    0.1274834  24.77 0.0009561758    1.723    0.420
       180 -11.8514    201.0519    191.2164   4.7713452126e+01   3.7150708366e+00    0.2976697    0.2248922   7.66  0.001290165    1.224    0.183
       181 -11.8758     48.6201    181.6328   8.0546684267e+01   2.8592637628e+01     0.380636    0.2531774 -52.84  0.002057768    1.745    0.427
       182 -12.0673    198.6534    181.4153   4.6339585086e+01   5.6851201335e+00     0.265729    0.2457496  -9.59  0.001482471    1.187    0.158
