#   1 NUMBER                 Running object number                                     
#   2 MAG_AUTO               Kron-like elliptical aperture magnitude                    [mag]
#   3 X_IMAGE                Object position along x                                    [pixel]
#   4 Y_IMAGE                Object position along y                                    [pixel]
#   5 X_WORLD                Barycenter position along world x axis                     [deg]
#   6 Y_WORLD                Barycenter position along world y axis                     [deg]
#   7 A_WORLD                Profile RMS along major axis (world units)                 [deg]
#   8 B_WORLD                Profile RMS along minor axis (world units)                 [deg]
#   9 THETA_WORLD            Position angle (CCW/world-x)                               [deg]
#  10 FWHM_WORLD             FWHM assuming a gaussian core                              [deg]
#  11 ELONGATION             A_IMAGE/B_IMAGE                                           
#  12 ELLIPTICITY            1 - B_IMAGE/A_IMAGE                                       
         1 -14.8046     24.4966     93.0500   7.9042852742e+01   5.5339517866e+01     1.576687     1.104866 -25.48  0.009212126    1.401    0.286
         2 -14.0250     57.2794     63.9062   5.8524072239e+01   5.7730993638e+01     1.863454    0.9640762 -16.65  0.007382047    3.073    0.675
         3 -14.8846      6.3207     70.9523   8.0971684665e+01   6.1308667373e+01     1.103248    0.6552002 -47.74  0.006674077    1.291    0.225
         4 -13.1696      8.8719      2.9187   5.6245022789e+01   7.2345416879e+01    0.5666934    0.3341689  34.32  0.003785051    2.109    0.526
         5 -15.8171     11.2055     23.3688   6.3988078401e+01   6.9448774291e+01     1.733938    0.8547265 -21.70  0.009351874    1.875    0.467
         6 -14.5023     26.9720     11.8596   5.1330955963e+01   6.9351948661e+01    0.8354918    0.4866761  -5.50  0.005201012    1.638    0.390
         7 -13.8439    122.2450     36.8464   2.9371494666e+01   4.9420432604e+01     0.918343    0.4488792  37.13  0.002646584    2.314    0.568
         8 -14.2844    166.6910     29.1979   1.8975547159e+01   3.9954047156e+01     1.029991    0.6444635  65.54  0.004061096    1.378    0.274
         9 -14.2693    147.7510     29.3689   2.2067425374e+01   4.4392635735e+01     1.139113    0.6673506  65.29  0.004436538    1.502    0.334
        10 -13.2835    187.8254     11.0542   1.1925342688e+01   3.7009485662e+01     0.786042    0.4575261 -48.88  0.004524651    1.743    0.426
        11 -13.6048    188.4624     24.8707   1.5001329783e+01   3.5377933656e+01     1.123338    0.5007156 -57.88  0.004987115    2.621    0.619
        12 -12.5715    120.4489     25.8977   2.6319184428e+01   5.1055822765e+01    0.5480791    0.3503505  38.04  0.002968884    1.539    0.350
        13 -14.3280    215.1065     10.0953   9.0855264006e+00   3.1080382597e+01     1.011135    0.7466056 -58.32  0.004406265    1.267    0.210
        14 -12.2857     60.1900     15.1876   3.9153780158e+01   6.4170178359e+01    0.4981324     0.237048  28.90  0.002489618    2.040    0.510
        15 -12.2224     85.5780     13.7396   3.0629871957e+01   5.9633671508e+01    0.3231698    0.3150374  16.73  0.001682947    1.270    0.213
        16 -11.8019     46.8995     12.8615   4.3154319880e+01   6.6533139384e+01    0.2686524    0.2014187  33.22  0.001293227    1.290    0.225
        17 -13.8633     41.8993      4.3778   4.1385995983e+01   6.8119134775e+01    0.6425007    0.4225298  15.11  0.003533657    1.254    0.203
        18 -11.5099    122.9903     10.5668   2.1025195355e+01   5.1937007220e+01    0.2717801    0.1902729 -85.08  0.001398949    1.789    0.441
        19 -11.6492     75.1627      9.3200   3.1917460161e+01   6.2037117485e+01    0.2764505    0.1661272  -9.30  0.001612891    1.877    0.467
        20 -11.7037    152.8397      8.3925   1.5569992217e+01   4.5299966892e+01    0.2533088    0.1533197  48.34  0.001420866    1.625    0.385
        21 -10.9269     80.5100      7.1303   2.9537282243e+01   6.1195261962e+01     0.160058    0.1139686 -12.68  0.001022762    1.560    0.359
        22 -15.1207     99.1765     11.5766   2.6375971618e+01   5.7042569096e+01     1.313454    0.7066382  53.94  0.004213099    1.511    0.338
        23 -11.9930    118.4560      2.2913   1.9303989358e+01   5.3605541149e+01    0.4150316    0.2089515  79.52   0.00195492    2.450    0.592
        24 -11.8566     78.6416      2.0951   2.8117138122e+01   6.1949783274e+01    0.7502247          nan  49.85  0.002233629    5.514    0.819
        25 -11.1872     67.6275      2.7134   3.1549124878e+01   6.3976494691e+01    0.2636389    0.1414763  28.75  0.001502361    1.702    0.413
        26 -11.2777    232.5894      1.7672   6.1272994933e+00   2.8308816405e+01    0.2120296     0.128016  81.90  0.001073518    1.371    0.270
        27 -11.2403     61.2657      1.4526   3.3039139867e+01   6.5214610227e+01    0.3118359   0.09312089  50.89  0.001376012    2.804    0.643
        28 -14.7048     15.0210    174.6832   9.4197346274e+01   3.6379999596e+01     1.288318    0.6336206  60.04  0.006130739    2.275    0.560
        29 -13.2263    107.8410    246.2915   8.1084536948e+01   7.6379030402e+00    0.8270316    0.5594097 -88.46  0.004311922    1.896    0.473
        30 -13.5366     98.6130    238.8054   8.2155616032e+01   1.0621412596e+01    0.8956611    0.5420683  39.28  0.004584556    1.489    0.329
        31 -14.1969     92.4700    230.4984   8.2475609134e+01   1.3355932976e+01    0.6936364    0.6686072  68.53  0.004386035    1.136    0.120
        32 -12.2598     51.1871    248.4662   9.3089145513e+01   1.5376712838e+01    0.4056609    0.3356467 -68.53  0.002715197    1.379    0.275
        33 -12.6036     58.4865    246.4872   9.1456924424e+01   1.4829914338e+01    0.5347482     0.205845  31.42  0.002250534    2.951    0.661
        34 -12.1985      2.9034    249.5658   1.0215709891e+02   2.0667039424e+01    0.3534446    0.2047983  58.46  0.001830884    1.368    0.269
        35 -13.7015      9.7967    245.7650   1.0072724858e+02   2.0741038563e+01    0.7950526    0.3939304  58.53  0.003414364    1.652    0.395
        36 -11.9103    111.8442    156.1292   6.5187724909e+01   2.7928497728e+01    0.5018038    0.3252254  88.80  0.001846448    2.619    0.618
        37 -12.2364     77.0660    156.7619   7.5070320589e+01   3.3659424893e+01    0.4708235    0.3460998  15.74  0.001410667    1.681    0.405
        38 -13.2569     73.5272    153.2069   7.5419509312e+01   3.5095374429e+01    0.7403082     0.531413  23.97  0.002794867    1.598    0.374
        39 -11.6015     85.8964    152.7699   7.1782681795e+01   3.3301445759e+01     0.491012    0.1845652 -45.84  0.001629465    2.801    0.643
        40 -12.1075    211.7475    154.1251   4.1131506906e+01   8.2082122332e+00    0.2861422    0.1965582  12.22  0.001264007    2.137    0.532
        41 -11.5300     61.0790    152.0390   7.8794616038e+01   3.7128618759e+01    0.2171652    0.1954709 -64.22 0.0003185821    1.019    0.018
        42 -11.4885    103.4250    149.8222   6.6179584312e+01   3.1049543786e+01     0.396028    0.2567267 -34.33  0.001433867    1.816    0.449
        43 -12.7037      8.7645    149.2319   9.3061836062e+01   4.3107170030e+01    0.5117689    0.4352649  26.44  0.003388469    1.446    0.308
        44 -12.3500     60.6292    147.1800   7.8058787104e+01   3.8428028050e+01    0.3910162    0.3061037 -21.21  0.002012808    1.547    0.354
        45 -11.7716    244.9924    147.1653   3.3817932380e+01   3.4906753304e+00    0.2128173    0.1592232 -85.70  0.001096977    2.019    0.505
        46 -11.2218     55.1145    156.1923   8.1201856937e+01   3.6832315046e+01    0.3497858    0.1906168   4.17  0.001273657    3.550    0.718
        47 -12.0212    164.4291    195.5828   5.9994350905e+01   8.5478774890e+00    0.3591661    0.2284933 -81.98  0.001240086    3.560    0.719
        48 -12.4318    246.7020    135.0831   3.1077698496e+01   5.4041783390e+00     0.335185    0.2342229 -84.51  0.001657465    2.213    0.548
        49 -12.6006     43.8683    132.8815   8.0508051478e+01   4.4048246390e+01    0.2253318    0.1741388 -40.62 0.0007709304    1.272    0.214
        50 -12.0391    136.5406    132.1714   5.2976082562e+01   2.8783839076e+01    0.5667565    0.2099654  39.81  0.001786715    2.857    0.650
        51 -11.1765      5.4523    128.8100   9.1479061017e+01   4.8285409906e+01    0.2513588    0.1174713 -40.37  0.001207775    2.221    0.550
        52 -14.2396    105.9630    121.1572   5.8728272209e+01   3.7570317144e+01     1.527691     1.185989  30.52  0.007322596    1.351    0.260
        53 -14.6563    105.9677    104.5964   5.4354948808e+01   4.1326097968e+01     1.234928     1.182284  11.44   0.00541174    1.032    0.031
        54 -12.4376     42.3127     90.3326   7.1873875720e+01   5.4270391830e+01    0.2962766    0.2263841 -49.66 0.0002557234    1.197    0.165
        55 -13.1821     28.6681    245.8951   9.7249793067e+01   1.8659458548e+01    0.4677247    0.2891417  74.98  0.002722462    1.384    0.277
        56 -13.5278      2.3540     97.0828   8.7693480763e+01   5.5872321492e+01    0.8098249    0.3140926 -68.27  0.003375618    2.232    0.552
        57 -14.2249     18.1207    111.8166   8.4946604710e+01   5.1501258835e+01    0.7204801    0.5181929 -18.88  0.002882474    1.557    0.358
        58 -11.5531     88.5127    109.5543   6.1065011012e+01   4.3440753428e+01    0.3233838    0.2237238 -61.83  0.001399374    1.649    0.393
        59 -12.9216     84.6630    114.8665   6.3648733992e+01   4.2862785464e+01    0.8821448    0.4014105  32.02  0.002716718    2.397    0.583
        60 -12.2290     78.8484    110.1728   6.4321806772e+01   4.4903849711e+01    0.3194107    0.2948558 -87.45  0.001360038    1.263    0.208
        61 -12.2069    121.7341    112.1331   5.1846118666e+01   3.6468013410e+01    0.2939529    0.2695156  67.00 0.0008226626    1.181    0.153
        62 -11.6168     63.0770    110.9138   6.9698079237e+01   4.7062126053e+01    0.3456414    0.1934574  42.16  0.001533765    2.027    0.507
        63 -14.0536     11.1264    103.0817   8.5742527467e+01   5.4009848668e+01    0.6757708    0.6140363  81.96  0.003944243    1.311    0.237
        64 -11.0949     42.7204    106.5799   7.5596191665e+01   5.0547535517e+01    0.2304268    0.1355365  15.00  0.001067232    2.013    0.503
        65 -12.6264    136.3275    102.9342   4.5446080540e+01   3.5282286888e+01    0.6322753     0.318094  51.09  0.002063757    2.054    0.513
        66 -13.1012     28.8066    121.7459   8.3235069817e+01   4.8267757394e+01    0.4557937    0.2725107 -50.19  0.002340369    1.424    0.298
        67 -12.1997     61.9976     98.1940   6.6876656949e+01   5.0126125997e+01    0.4597027    0.3581723  70.00  0.001896979    1.869    0.465
        68 -11.9979     52.7707     97.4624   6.9918955884e+01   5.1487251354e+01    0.4525511    0.2661459  -4.24  0.001834125    2.458    0.593
        69 -10.7952     48.6015    101.1697   7.2301065331e+01   5.1145227350e+01    0.2588016    0.1940324 -11.19 0.0009775187    1.454    0.312
        70 -11.9476     46.3844     98.8018   7.2509317261e+01   5.1936806653e+01    0.2798003    0.2404646 -35.14  0.001247931    1.021    0.020
        71 -12.2005    163.1166     97.3425   3.7581349025e+01   3.0270823721e+01    0.4183102    0.3582067 -88.65  0.001075985    1.274    0.215
        72 -13.1878    136.9095     94.6892   4.3031916586e+01   3.6821173332e+01    0.5228636    0.4550231  81.72  0.002000879    1.303    0.233
        73 -11.9455    181.0370    120.5183   3.9582734363e+01   2.1522839631e+01    0.2328632    0.1525986  50.41 0.0008325309    1.579    0.367
        74 -13.1523      5.5063    118.0995   8.9981200762e+01   5.0837682155e+01    0.8977317    0.3817771 -41.63  0.004239009    2.260    0.558
        75 -12.1709     49.0298     93.5986   7.0267833114e+01   5.2796243042e+01    0.3372845    0.3010785  87.23  0.001997523    1.456    0.313
        76 -11.4350     35.4043     86.4586   7.3453456784e+01   5.5820799157e+01    0.2525865    0.1888446 -32.37  0.001482277    1.173    0.147
        77 -13.5064    188.2035     83.9941   2.9248492279e+01   2.6882305936e+01    0.6331233    0.3776771  47.28  0.002254659    1.808    0.447
        78 -11.9487    158.7863     64.6912   2.9764349756e+01   3.7032465875e+01    0.6825418    0.2797137 -52.08  0.002368775    3.265    0.694
        79 -13.3676    164.1029     71.5121   3.0550206790e+01   3.4673200299e+01     1.073893    0.4361937  49.48  0.004057764    2.402    0.584
        80 -13.4091    160.9506     80.7078   3.3644295423e+01   3.3854411726e+01    0.8873791     0.555693  23.25  0.003119709    2.772    0.639
        81 -14.4875    169.2910     77.0700   3.1001168268e+01   3.2512164792e+01      1.44022    0.5992417  51.51  0.004032488    2.315    0.568
        82 -10.9196     97.7938     84.2383   5.0994555709e+01   4.7133277373e+01    0.2120411    0.1677487   7.74  0.001067508    1.400    0.286
        83 -14.0754    171.1432    242.2499   6.6785061295e+01  -1.8716477112e+00    0.9232112    0.6536012  25.64   0.00509347    1.290    0.225
        84 -13.5311     92.2695     57.4561   4.4205589547e+01   5.2928343390e+01    0.4994277    0.4382531   5.00  0.001539489    1.082    0.076
        85 -12.5313     69.6346     51.4885   4.9707351883e+01   5.7933413354e+01    0.3702922    0.2611844 -39.15 0.0005036593    1.526    0.345
        86 -12.6998     64.3218     48.4970   5.0570697762e+01   5.9255678488e+01    0.5281012    0.3488328 -27.22  0.001961222    1.480    0.324
        87 -12.9503     54.6969     81.2827   6.4844880749e+01   5.4722864872e+01     0.545544    0.3964525 -25.00  0.002018935    1.311    0.237
        88 -14.0089     61.3451     75.5968   6.0705892984e+01   5.4958276988e+01    0.7081758    0.4885485 -26.40  0.001342716    1.411    0.291
        89 -13.2640     70.9264     75.2932   5.7161479757e+01   5.3580114510e+01    0.5379668    0.3619413  -2.46  0.001044196    1.818    0.450
        90 -12.1746     77.1405     73.1110   5.4308844235e+01   5.2981644481e+01    0.5245477    0.3036257 -22.73  0.001937814    2.133    0.531
        91 -12.9052    216.1407     80.4597   2.3954280122e+01   2.1200859093e+01    0.5236903    0.4174533 -84.84  0.002783942    1.233    0.189
        92 -12.5989    210.2548     76.7194   2.3971820082e+01   2.3113281971e+01    0.4969247    0.2932748 -59.14   0.00235909    1.745    0.427
        93 -11.9490    114.1189     80.0175   4.4885454554e+01   4.4629581464e+01     0.423338    0.3357782 -44.93  0.001720035    1.332    0.249
        94 -12.5187    237.1222     79.9316   2.1012347313e+01   1.6882043807e+01    0.3220512    0.1819803  76.53  0.001561641    2.114    0.527
        95 -12.5669    135.4312     79.2508   3.9034076528e+01   4.0063904321e+01    0.7386526    0.3376713  54.11  0.002818168    2.214    0.548
        96 -13.7386     87.3790     65.2599   4.8346790207e+01   5.2576198321e+01     1.047774    0.5810933  19.36  0.003800982    2.596    0.615
        97 -11.4405     41.6186     75.7633   6.8207540355e+01   5.7415630991e+01    0.2535074     0.188348 -51.36 0.0007003402    1.357    0.263
        98 -12.6778    147.5013    239.0047   7.1397372048e+01   2.6138427031e+00    0.2697579    0.1770052  49.41  0.000954991    1.550    0.355
        99 -14.1914      5.4151     63.3712   7.9507121014e+01   6.2887778049e+01    0.6631386    0.5272899 -26.81  0.004245693    1.102    0.093
       100 -12.4480     36.7738     92.9119   7.4537654206e+01   5.4273021717e+01    0.3919833    0.2613298   0.18  0.001333613    1.718    0.418
       101 -12.1598    214.9422     71.5046   2.2133019741e+01   2.2926574215e+01     0.279699    0.1711306  65.35  0.001414806    1.643    0.391
       102 -13.6884    199.3180     69.8697   2.4029690929e+01   2.6688119479e+01    0.7323708     0.438332  50.41  0.002684833    1.807    0.446
       103 -10.7095    117.7941     72.2183   4.1508656936e+01   4.5234437439e+01    0.1994588     0.166273  15.84 0.0006252103    1.293    0.227
       104 -10.1565     98.2927     75.2763   4.8097502911e+01   4.8728944945e+01    0.1426447    0.1079988   6.52            0    1.524    0.344
       105 -12.5330    134.7610     65.9792   3.5331285488e+01   4.2469618489e+01    0.5908003    0.4102438  33.90  0.002091476    1.578    0.366
       106 -11.9481     39.3909     67.8349   6.6754929565e+01   5.9227260489e+01    0.3861475    0.1921725  31.33  0.001907894    2.133    0.531
       107 -11.5838     99.9275     65.2128   4.4411801547e+01   5.0161689999e+01    0.2108299    0.1957102  59.46 0.0009255271    1.238    0.192
       108 -11.6680    199.8781     61.8253   2.2066668937e+01   2.7815945617e+01    0.2029113    0.1894574  56.87  0.001242172    1.251    0.201
       109 -12.9476     78.9496     60.2206   4.9472778546e+01   5.4943054897e+01    0.5272563    0.4324811 -26.84  0.002827243    1.211    0.174
       110 -13.5820    177.8769     57.4326   2.4405900288e+01   3.3600905802e+01    0.7779059    0.5494482 -55.72  0.002716639    1.451    0.311
       111 -12.8108     38.8134     59.9744   6.4540635511e+01   6.0768426543e+01    0.9857839    0.3440869 -55.85  0.003410109    4.463    0.776
       112 -12.4463     35.5465     57.4979   6.5091411447e+01   6.1574650057e+01    0.5794065     0.224241 -41.48  0.002580272    2.242    0.554
       113 -11.7805     24.7241     59.1737   7.0171522071e+01   6.2318318382e+01    0.3670654    0.1986246 -43.17  0.002031162    1.538    0.350
       114 -11.9351    111.2573     58.4533   3.8995158086e+01   4.8890641186e+01     0.255658    0.2270259  24.34 0.0003420872    1.075    0.070
       115 -14.5037    120.1023     54.8553   3.5537368492e+01   4.7499260363e+01    0.9771449    0.5756651  46.19  0.004663947    1.548    0.354
       116 -11.4079     17.6929     55.3798   7.2047785657e+01   6.3607373771e+01    0.2855668    0.1641167 -50.15  0.001651168    1.576    0.365
       117 -11.6215    248.0228     54.7616   1.4754749502e+01   1.8567957379e+01    0.2818905    0.1092709 -58.35  0.001195055    2.735    0.634
       118 -12.3446    135.7856     50.7755   3.0601899267e+01   4.4513341251e+01    0.4641474    0.4200972  -0.53  0.001843428    1.250    0.200
       119 -13.6859    103.0654     50.2395   3.8593265755e+01   5.1837380897e+01    0.8321678    0.5719343 -57.50   0.00130582    2.095    0.523
       120 -13.0829     97.8248     49.8451   3.9967537478e+01   5.2969661448e+01    0.3980502    0.3819418 -51.31  0.001496033    1.266    0.210
       121 -10.6095     23.5334     49.9798   6.7790267950e+01   6.4096079715e+01    0.1724916    0.1001084 -42.43 0.0004735634    1.490    0.329
       122 -11.2364    249.2122     48.5765   1.3458312331e+01   1.9214165963e+01    0.1599241     0.104276  62.22 0.0009576674    1.701    0.412
       123 -11.8891    151.9937     46.7884   2.6155637458e+01   4.1251017491e+01    0.3209944    0.1835338  55.30 0.0009005262    1.562    0.360
       124 -12.8419    158.6574     43.0749   2.3927243781e+01   4.0160360590e+01    0.6066625    0.4119995  49.95  0.002832198    1.424    0.298
       125 -11.2403     29.4996     46.9186   6.4135593914e+01   6.4054026355e+01    0.2336834    0.1586421 -19.03 0.0007898855    1.267    0.211
       126 -10.7711     25.4905     44.4990   6.5070940704e+01   6.4856806634e+01    0.1668845    0.1035498  30.09  0.000989842    1.794    0.443
       127 -10.7841     38.7356     46.0063   5.9831083327e+01   6.3192223846e+01    0.1751073     0.134991 -19.68 0.0005419026    1.098    0.089
       128 -13.2236      6.3818     43.0678   7.3356674701e+01   6.6627525690e+01    0.8133805    0.3351128  16.49  0.004325096    2.511    0.602
       129 -12.6780     23.4536    216.2661   9.6047978431e+01   2.5700483069e+01    0.7294004    0.3647957  54.49  0.003823262    1.841    0.457
       130 -13.8203     26.2366    226.5223   9.6291256187e+01   2.3095145330e+01    0.7705898    0.3651519 -56.60  0.003869704    2.351    0.575
       131 -13.8860     20.7214    223.9421   9.7205993520e+01   2.4263322956e+01    0.6239455    0.5309412  68.35    0.0036061    1.157    0.136
       132 -13.2841    204.5563     39.8900   1.6455764527e+01   2.9863073586e+01     1.113886    0.4687881  88.28  0.003652486    4.571    0.781
       133 -12.7803    212.7927     42.9951   1.6158439213e+01   2.7610795036e+01     0.484181    0.2403944  59.41  0.002258751    1.971    0.493
       134 -13.6403    219.5394     41.4752   1.5072483154e+01   2.6337672400e+01    0.6116524    0.3704747  88.24  0.002100354    1.633    0.388
       135 -11.9186    135.0306     39.2577   2.7339633934e+01   4.6202292282e+01      0.43822    0.2562234  70.29  0.001438867    1.855    0.461
       136 -12.3367    109.8582     41.9530   3.4016419360e+01   5.1521187069e+01    0.4135903    0.1870344  51.48   0.00064564    1.957    0.489
       137 -12.7894    131.4988     33.1923   2.6250052307e+01   4.7741902977e+01    0.4566374    0.3499413  35.67  0.001407731    1.342    0.255
       138 -12.4023     57.6003    203.2135   8.7140119839e+01   2.4718058926e+01    0.7850426    0.3643176  89.07  0.002822432    3.365    0.703
       139 -12.9619    113.7827     37.8615   3.1691157304e+01   5.1180104797e+01    0.3644303    0.3239776  44.67  0.001374819    1.028    0.028
       140 -12.0870     40.5385     40.3611   5.6998749576e+01   6.3865423735e+01    0.4666874    0.2319653  28.43  0.002462554    1.928    0.481
       141 -12.5726     32.9516     40.0512   6.0161147805e+01   6.4806383596e+01    0.3191305    0.2166618  -0.20 0.0006249255    1.336    0.252
       142 -12.5529     75.8600     36.9678   4.2282683366e+01   5.8933059864e+01    0.4278155    0.2543962  34.85  0.001331602    1.501    0.334
       143 -11.7738     71.1306     36.3527   4.3659671699e+01   5.9849810172e+01    0.2851375    0.2356941  41.48  0.001123062    1.307    0.235
       144 -12.8360    242.1545     35.9724   1.1721487970e+01   2.2331426809e+01    0.5037078    0.2490509  74.33   0.00201152    1.941    0.485
       145 -11.0870    104.4935     36.9735   3.3758889738e+01   5.3293021521e+01    0.1891832    0.1308257 -27.69  0.001035575    1.599    0.375
       146 -13.0299     44.1508     33.5710   5.2872944605e+01   6.4394504717e+01    0.8022469    0.3740372  31.68  0.004151174    2.002    0.500
       147 -14.0051     65.4894    223.3133   8.7644841730e+01   1.8933381101e+01     1.139322    0.7166441  55.05  0.006023054    1.469    0.319
       148 -13.2245     59.6685    212.4633   8.7737869729e+01   2.2238978396e+01    0.4720693    0.3134577 -41.86  0.001727934    2.005    0.501
       149 -12.6183    139.9795     21.4217   2.1174360660e+01   4.7050139109e+01    0.6842541    0.2278736  60.32   0.00132008    2.405    0.584
       150 -11.2492    248.6699    225.3283   4.8381569224e+01  -1.0572112421e+01    0.1068299    0.1007386 -61.65  0.000705136    1.711    0.416
       151 -13.9259     64.3876    214.2185   8.6859789668e+01   2.1185023493e+01    0.5442123    0.4157872  74.75  0.002862317    1.226    0.184
       152 -11.5634    194.6992     23.2412   1.3899646026e+01   3.4139892529e+01    0.3036075    0.2122497  62.78  0.001807185    1.365    0.267
       153 -13.3416    217.7854     28.8454   1.2634462719e+01   2.8343918024e+01    0.4775397    0.2842595 -78.81  0.002651332    1.631    0.387
       154 -13.5548     57.5572     26.7327   4.4822380361e+01   6.3319638914e+01    0.9696206    0.3012706  39.05  0.003437155    2.864    0.651
       155 -12.7265     94.1559    218.1732   8.0469535989e+01   1.5846577045e+01    0.3113573    0.2186522  45.63   0.00141613    1.317    0.240
       156 -12.1229     30.5596     25.4711   5.5541327661e+01   6.7213416920e+01     0.304739    0.1674308  11.28  0.001721343    1.838    0.456
       157 -12.3714     35.5817     23.4402   5.2446049684e+01   6.6872707507e+01    0.2945431    0.1962419   9.57  0.001075548    1.289    0.224
       158 -10.8452    136.6120    210.8323   6.9313902896e+01   1.0307389328e+01    0.2025308    0.1419177 -67.54 0.0009464996    1.716    0.417
       159 -12.7803    223.8076     20.7056   1.0420562918e+01   2.8032436764e+01    0.2618998    0.1901668  67.87  0.001104489    1.397    0.284
       160 -11.9668     49.2606     20.1889   4.5343909131e+01   6.5374865817e+01    0.5633778    0.1398338  43.23  0.002134914    3.916    0.745
       161 -11.6092     70.9375     16.5135   3.6059331699e+01   6.2156533226e+01     0.217081    0.1867399   6.18 0.0007386854    1.165    0.142
       162 -12.8407     72.2660    206.9564   8.4130065208e+01   2.1792563824e+01    0.3725077     0.290589  85.27  0.002052709    1.246    0.198
       163 -13.4263     16.1460    197.8668   9.6082834854e+01   3.0706206350e+01    0.9709607    0.1912543 -58.69  0.003342839    4.178    0.761
       164 -11.6410    175.9783     13.9011   1.3937630152e+01   3.9430878927e+01    0.1856506    0.1512305  85.02 0.0003054073    1.025    0.024
       165 -13.7915     39.6037    195.1121   9.0462273402e+01   2.8905779753e+01    0.8248577    0.3657373  50.68  0.003653075    2.292    0.564
       166 -13.9405     29.9475    169.2785   8.9871008255e+01   3.6328262218e+01    0.9616951    0.8216054  -5.97   0.00586964    1.536    0.349
       167 -13.4622     22.1390    180.8125   9.3102734761e+01   3.4235355947e+01    0.6559985    0.3565596 -62.67  0.002701841    1.602    0.376
       168 -15.5753      7.7256    181.8076   9.6587600004e+01   3.5275549994e+01     2.385568     1.108359 -75.31   0.01202345    1.750    0.428
       169 -11.2952    200.8635    191.4919   5.1162840545e+01   2.7233384985e+00    0.2790532    0.2451415  17.74  0.001227667    1.125    0.111
       170 -10.7924     81.0535    193.0000   8.0041681320e+01   2.3883455072e+01    0.2325835   0.08095266  34.23 0.0007988323    2.918    0.657
       171 -12.2333     98.0010    187.5135   7.4858417726e+01   2.2532990789e+01    0.2334265    0.1453058  37.20  0.001038642    1.608    0.378
       172 -11.3446    155.6700    184.6729   5.9890054337e+01   1.2624056680e+01    0.1597749    0.1206831  -7.39 0.0007051058    1.708    0.414
       173 -11.9585     48.7443    181.4796   8.6601751651e+01   3.1195322594e+01    0.4208266    0.1908599 -53.03  0.001794605    2.160    0.537
       174 -12.1006    198.6490    181.4079   4.9567853431e+01   5.1434120029e+00    0.2956819    0.2896163 -52.91  0.001492595    1.160    0.138
       175 -12.5968    124.2152    166.8353   6.4116908511e+01   2.2939509914e+01    0.6849472    0.4241556 -71.83  0.002650884    2.203    0.546
