#   1 NUMBER                 Running object number                                     
#   2 MAG_AUTO               Kron-like elliptical aperture magnitude                    [mag]
#   3 X_IMAGE                Object position along x                                    [pixel]
#   4 Y_IMAGE                Object position along y                                    [pixel]
#   5 X_WORLD                Barycenter position along world x axis                     [deg]
#   6 Y_WORLD                Barycenter position along world y axis                     [deg]
#   7 A_WORLD                Profile RMS along major axis (world units)                 [deg]
#   8 B_WORLD                Profile RMS along minor axis (world units)                 [deg]
#   9 THETA_WORLD            Position angle (CCW/world-x)                               [deg]
#  10 FWHM_WORLD             FWHM assuming a gaussian core                              [deg]
#  11 ELONGATION             A_IMAGE/B_IMAGE                                           
#  12 ELLIPTICITY            1 - B_IMAGE/A_IMAGE                                       
         1 -12.5493    168.8201     62.6065   2.4559843632e+01   3.4652719193e+01     1.507848     1.020705  31.00  0.004546766    1.889    0.471
         2 -13.1257    184.7182     48.8829   1.8225220873e+01   3.2850008515e+01     1.030892    0.8741055  47.13   0.00381066    1.269    0.212
         3 -13.2927    204.7527     23.1960   9.3295322686e+00   3.1388044634e+01     1.590274    0.8000283 -34.87  0.008062786    2.012    0.503
         4 -13.5848    208.8300     18.0498   7.7322925575e+00   3.1041093152e+01     1.442349     1.172612 -59.71  0.005645358    1.150    0.130
         5 -10.5705      3.5698      6.7117   5.8270630813e+01   7.2646140131e+01    0.2073125   0.08032672 -38.02  0.001141646    2.118    0.528
         6 -11.1344    119.2354     10.0540   1.7963187405e+01   5.2765499262e+01    0.6252717    0.3360842  42.21  0.002839031    1.732    0.423
         7  -9.2901     97.9997      2.0366   1.9558206870e+01   5.8132231405e+01    0.1868456    0.1550781  42.73  0.001230348    1.011    0.011
         8 -11.6606     67.1687    187.0455   7.8782285169e+01   2.7609895904e+01    0.3605652    0.3178337 -53.09  0.002189613    1.244    0.196
         9 -13.4945    245.3557    235.7264   4.8538444193e+01  -9.4902394519e+00     2.338006    0.8050585 -32.78   0.01076906    2.803    0.643
        10 -16.7320     16.5361    134.9406   8.5174217594e+01   4.5532259070e+01     9.756303     4.020035  32.01     0.046282    2.628    0.619
        11  -9.0784     69.3201    197.1789   7.9564232778e+01   2.4995496442e+01    0.2277108    0.1839702  47.71  0.001347819    1.190    0.160
        12  -9.6710    191.7213    192.8509   5.0917751757e+01   5.3674765374e+00    0.5470636    0.2951623 -61.98  0.001886438    4.172    0.760
        13  -8.5591    181.5084    193.4726   5.3169168846e+01   7.0557212687e+00    0.1423519    0.1277009   6.56 8.394789e-05    1.029    0.028
        14 -10.4103      2.5141    193.1431   9.4010641636e+01   3.3159982333e+01     0.131679    0.1183623 -73.98 0.0002795258    1.286    0.223
        15  -8.3692    202.4402    188.5196   4.7899881443e+01   4.2779085329e+00    0.1388627    0.1237185  -3.22 3.258137e-05    1.007    0.007
        16 -10.3467    162.1236    219.1474   6.1873028191e+01   5.6612373727e+00    0.2888487    0.2187498 -49.45 0.0006515078    1.507    0.336
        17  -9.9650    181.8144    181.1435   5.0687365054e+01   9.3459650453e+00    0.6238554    0.2295562 -39.42  0.002228195    2.828    0.646
        18 -10.5645    180.3454    175.2722   4.9809211542e+01   1.0762743916e+01    0.4650777    0.2186484 -49.76  0.001769897    2.389    0.581
        19  -9.8753     20.1153    184.0000   8.9488401258e+01   3.3668078946e+01    0.1582387   0.06819601  28.43 0.0007516635    2.602    0.616
        20  -9.6432     25.5315    177.6071   8.7643521372e+01   3.4628132081e+01    0.1809242    0.1407566  25.10 0.0006865719    1.563    0.360
        21 -10.7478     20.6515    174.5305   8.8492936863e+01   3.5800725251e+01    0.3825532    0.1708121  30.62  0.001834002    2.418    0.586
        22 -10.8542     73.9757    206.9093   7.9683852213e+01   2.2187761970e+01    0.3827921    0.2286607  89.68  0.001121841    2.033    0.508
        23 -11.8072    230.1097    171.2567   3.9185189087e+01   2.5463440578e+00    0.4712142    0.2956481  -0.01  0.002178321    2.223    0.550
        24  -9.0825    188.0575    171.0530   4.7297982963e+01   1.0130387108e+01     0.272254    0.1938764 -66.89  0.001234894    2.100    0.524
        25 -10.5979    242.0093    206.1151   4.3858611742e+01  -4.8800289266e+00    0.2298082    0.1727083  -0.27            0    1.179    0.152
        26  -9.1543      2.3273    164.8322   9.1934976899e+01   3.9546531644e+01    0.1922544    0.1295439 -26.78 0.0006952631    2.147    0.534
        27 -10.2454    153.0741    162.9803   5.3378475413e+01   1.8557536414e+01    0.3573117    0.2398266 -61.92   0.00078712    1.844    0.458
        28 -11.1582    131.8732    155.4952   5.6950577782e+01   2.4341550223e+01    0.3797854    0.3304122  18.89  0.001176531    1.226    0.184
        29 -11.0044    136.2066    155.0967   5.5779950689e+01   2.3592984104e+01    0.5357628    0.3261807 -68.99  0.001661917    2.460    0.594
        30 -11.9897    133.8973    146.2607   5.4418989089e+01   2.6036745090e+01     1.280793    0.4283147 -55.59  0.003536263    4.199    0.762
        31  -9.8421    147.0418    156.2627   5.3375031105e+01   2.1205058913e+01    0.3535992    0.2146291 -65.62  0.001216773    2.372    0.578
        32 -10.3419    140.6754    147.3573   5.2964464966e+01   2.4441901040e+01    0.3838897    0.2692524 -81.14  0.001571385    2.241    0.554
        33 -10.4693    146.4934    148.9815   5.1899823330e+01   2.2913180951e+01     0.369973    0.2485873 -62.57  0.001236866    1.829    0.453
        34 -10.4508    143.6210    145.8006   5.1884220589e+01   2.4194361234e+01    0.4650661    0.2282706 -51.34  0.001530931    2.150    0.535
        35  -9.4014    147.2874    143.9027   5.0552559812e+01   2.3866452731e+01    0.3475452    0.2342884 -87.76  0.001285416    2.823    0.646
        36 -10.6460    136.2601    128.7190   4.9702156215e+01   2.9481333963e+01    0.6576075    0.2240367 -47.18  0.002080635    2.941    0.660
        37  -8.7058    235.3625    125.1875   2.8539114348e+01   9.5427020951e+00    0.1971941    0.1120544 -45.66 0.0004632664    1.641    0.391
        38  -9.0854    111.4519    117.4943   5.3570082262e+01   3.6968128523e+01    0.2465871    0.2151228 -31.27 0.0001237765    1.152    0.132
        39 -10.5966    104.3254    122.9243   5.6942865026e+01   3.7069997850e+01    0.3293037    0.3128215  20.16 0.0005580378    1.079    0.073
        40 -10.3709    108.4982    120.5033   5.5159923694e+01   3.6849313454e+01    0.3997909    0.3227375  88.90  0.001087557    1.613    0.380
        41  -9.0607     65.3047    207.0976   8.1649876351e+01   2.3321719889e+01     0.164525    0.1332209  70.62 0.0002433458    1.120    0.107
        42  -9.7769    121.4370    122.4328   5.2049771104e+01   3.3898655612e+01    0.3158049    0.2142666 -15.71  0.001282073    2.140    0.533
        43  -8.2094    167.6575    113.3110   3.8343994872e+01   2.5915551817e+01    0.1564214    0.1223321 -83.25 0.0003892645    1.699    0.411
        44 -11.0067    118.3708    110.9125   4.9933003931e+01   3.7062128950e+01    0.5346749    0.3761048  64.84  0.002032174    1.880    0.468
        45  -7.9699    187.2609    102.2603   3.1522076228e+01   2.3625699681e+01    0.1372823    0.1152135   8.07  0.000680916    1.445    0.308
        46 -17.9439     32.4337    226.8259   9.0365755344e+01   2.3094397289e+01     6.991948     3.266433  30.71   0.02404676    2.358    0.576
        47  -8.6840    113.9753     95.4901   4.6940397052e+01   4.1226200034e+01    0.2212936    0.1481774  43.11 0.0004054327    1.504    0.335
        48 -10.3167     81.9283    196.0473   7.6465423861e+01   2.3475143163e+01    0.3833072    0.2320594  69.69  0.001774524    2.052    0.513
        49 -11.3308     63.6560    202.7511   8.1527174324e+01   2.4500938196e+01    0.2108254    0.2045851  72.99 0.0004011643    1.180    0.152
        50 -13.9003     54.9134    235.4860   8.6631751062e+01   1.8704940977e+01    0.6717963    0.3374107 -73.21    0.0036287    2.033    0.508
        51  -8.3820     86.4019     80.1931   5.0790762347e+01   4.9592516367e+01    0.1820109    0.1345918 -51.23 0.0001861187    1.458    0.314
        52 -12.2239     74.1501    189.5572   7.7437145053e+01   2.6069057645e+01    0.4608011    0.2984706  79.34  0.001405232    1.836    0.455
        53 -11.0525     60.5693    245.0311   8.6339046669e+01   1.6130242569e+01    0.1553587    0.1362832  59.72 0.0003575188    1.144    0.126
        54  -8.2341    137.2292     61.6246   3.0783149873e+01   4.2287971284e+01     0.143041    0.1086676 -61.89 0.0004814894    1.607    0.378
        55  -9.4248     69.3820    239.9276   8.4155570631e+01   1.5969979540e+01    0.1440369    0.1030164 -51.93 0.0008743801    1.735    0.424
        56 -11.8377    189.6220     42.8701   1.5969451059e+01   3.2496525947e+01    0.4191798       0.3599  38.30 0.0009573561    1.364    0.267
        57  -9.8195    141.7411     41.9938   2.3781468897e+01   4.4046197440e+01    0.1877538    0.1789439  52.66 0.0003627236    1.033    0.032
        58 -10.6072     62.1950    240.1889   8.5603391199e+01   1.6857120628e+01    0.1578528    0.1434013  67.61 0.0005617821    1.166    0.142
        59  -9.6162     70.9459    232.4736   8.3122099391e+01   1.7232613621e+01    0.2493192    0.1700061 -88.60 0.0007370095    1.533    0.348
        60 -10.9616     76.1862    228.5842   8.1639440125e+01   1.7304049350e+01    0.3040928      0.18668 -74.19  0.001143855    1.740    0.425
        61 -10.2015      2.4865    198.8352   9.4390006671e+01   3.1923846134e+01    0.1041706   0.07306866  49.98  0.000688658    1.379    0.275
