#   1 NUMBER                 Running object number                                     
#   2 MAG_AUTO               Kron-like elliptical aperture magnitude                    [mag]
#   3 X_IMAGE                Object position along x                                    [pixel]
#   4 Y_IMAGE                Object position along y                                    [pixel]
#   5 X_WORLD                Barycenter position along world x axis                     [deg]
#   6 Y_WORLD                Barycenter position along world y axis                     [deg]
#   7 A_WORLD                Profile RMS along major axis (world units)                 [deg]
#   8 B_WORLD                Profile RMS along minor axis (world units)                 [deg]
#   9 THETA_WORLD            Position angle (CCW/world-x)                               [deg]
#  10 FWHM_WORLD             FWHM assuming a gaussian core                              [deg]
#  11 ELONGATION             A_IMAGE/B_IMAGE                                           
#  12 ELLIPTICITY            1 - B_IMAGE/A_IMAGE                                       
         1 -11.5251     75.7318      4.2619   8.7593047150e+01   6.5199206858e+01    0.7755538    0.5493204  53.82  0.004143568    1.487    0.328
         2 -12.0365     68.4089     18.4722   9.8161714937e+01   6.4763428155e+01     1.116472    0.7158722  36.12  0.005642778    1.595    0.373
         3 -10.6638     65.3464      8.8339   9.4090799564e+01   6.6761250502e+01    0.6599586      0.58745  71.86  0.003703628    1.532    0.347
         4 -12.8585     43.0884     46.7095   1.2188605358e+02   6.3222834278e+01    0.8360845    0.6153467  81.74  0.001118534    2.078    0.519
         5 -12.3773     60.4510     44.9882   1.1359328001e+02   6.1251029404e+01     1.269245     0.553136 -46.69  0.005275011    2.066    0.516
         6 -12.1900    130.8892     13.7704   7.8173518733e+01   5.0959294457e+01     1.815667    0.7610204  70.67  0.006569651    2.784    0.641
         7 -12.5823    105.0748     13.2247   8.3624919699e+01   5.7457549648e+01      0.76203    0.5000916 -27.69   0.00356528    1.499    0.333
         8 -11.0700    116.4438     57.6528   9.8981935085e+01   4.8132687249e+01     1.285105    0.7721512  -0.67   0.00453682    3.099    0.677
         9 -12.5677    124.2121     27.1013   8.5114301889e+01   5.1082327287e+01     1.103204    0.8083897 -18.82   0.00312519    1.356    0.262
        10 -13.0091    112.6505     24.8824   8.6983110311e+01   5.4191573116e+01       1.5368     0.661037  47.59  0.005957091    2.237    0.553
        11 -11.9064    145.6708     46.0374   8.7611530933e+01   4.3153996969e+01    0.8913329    0.5484509 -26.47  0.003533255    1.595    0.373
        12 -11.7922    178.2971     21.0889   7.3430947918e+01   3.8007501641e+01    0.6532483    0.3635629  34.20  0.002793398    2.133    0.531
        13 -10.7935    187.3632     14.4541   7.0194559942e+01   3.6381324878e+01    0.5887601    0.2706461  43.55  0.001713816    2.434    0.589
        14 -11.7835    192.1031      7.5299   6.7530537889e+01   3.5828530285e+01     1.027573    0.5036989  55.97  0.004314507    2.019    0.505
        15 -11.4929    163.2942     28.7457   7.8203485390e+01   4.0985388580e+01    0.6947565    0.4971749  10.99   0.00131425    1.597    0.374
        16 -10.8431    153.3944     25.7911   7.8789119007e+01   4.3858382299e+01    0.6254865     0.428462  11.08  0.002897778    1.706    0.414
        17 -11.9884     26.6476     28.0056   1.2328459420e+02   6.9068839594e+01     0.771373     0.586331  46.86  0.004411079    1.725    0.420
        18 -11.4342     19.6169     22.4612   1.2511088484e+02   7.0891165166e+01    0.4868851    0.2895109 -33.96  0.001746563    1.549    0.354
        19 -11.7992     14.8766     22.0332   1.2782493521e+02   7.1361484959e+01    0.8688621    0.6409324  81.15  0.003714863    2.022    0.506
        20 -11.5758     22.8852     10.9648   1.1765768773e+02   7.2919711470e+01     0.530084    0.3328062  -8.10  0.002841258    1.864    0.463
        21 -11.8271     16.7990     13.5724   1.2295515913e+02   7.2984432601e+01    0.3874558    0.2032905 -45.10 0.0003022605    1.517    0.341
        22 -11.2666     14.7376      9.2330   1.2220589140e+02   7.4036292827e+01    0.4038625     0.236233  14.06  0.002116899    1.949    0.487
        23  -9.5093     83.1431      5.8225   8.6044752836e+01   6.3396548153e+01    0.2658069    0.1930027  43.21 0.0006652718    1.316    0.240
        24 -10.3123     88.3617      7.2661   8.5231591088e+01   6.2056204172e+01    0.5025408     0.287014  37.23  0.001528801    1.735    0.424
        25 -11.4313     90.5860     20.6821   9.1338190969e+01   5.9861315546e+01    0.6391541    0.4690417 -20.12  0.002311568    1.309    0.236
        26 -11.2409     86.0631     14.4472   8.9678169528e+01   6.1700414718e+01    0.6368698    0.3481134  -9.68  0.002045103    2.225    0.550
        27 -10.7664     42.1618      4.1376   1.0205026650e+02   7.1556940758e+01    0.6340362    0.3229048 -15.76  0.002681459    2.664    0.625
        28 -10.8173     47.6031     18.9389   1.0780639458e+02   6.8258242309e+01    0.3893674    0.3590367 -45.06  0.001584099    1.296    0.228
        29 -12.5599     37.6645     19.0088   1.1306243717e+02   6.9644902222e+01    0.5009988    0.4333879 -10.14  0.001227813    1.102    0.093
        30 -12.1812     49.3451     13.0059   1.0369399182e+02   6.9003096785e+01    0.6674272    0.3603104  43.57  0.003244977    2.082    0.520
        31 -11.1781     40.6174     14.1641   1.0887791716e+02   7.0132834366e+01     0.565222    0.2269966  37.72  0.002443905    2.733    0.634
        32 -12.3970    239.0962     15.9501   6.5932717408e+01   2.4189217877e+01    0.9098026    0.6234615  81.20  0.003754304    1.652    0.395
        33 -11.7966    239.3436      7.4911   6.3751308937e+01   2.4888519285e+01     0.511001    0.3201538 -80.82  0.002389775    1.817    0.450
        34 -11.8609    245.5908      8.3424   6.3561250145e+01   2.3496679889e+01    0.5127099    0.3570972 -22.44  0.001875207    1.289    0.224
        35 -11.2225    241.6589      4.2715   6.2789047246e+01   2.4670259249e+01    0.3688017    0.2158235 -86.38  0.001956995    1.959    0.490
        36 -10.2076    206.5699     18.9497   6.9552602668e+01   3.1261917935e+01     0.479523    0.2405318 -43.03  0.002169114    1.909    0.476
        37 -11.0905    165.1232     17.3152   7.3924372107e+01   4.1755659294e+01     0.472203    0.2663017  38.48  0.001191666    1.943    0.485
        38 -10.0134    149.1564     15.1081   7.5511865553e+01   4.6107800923e+01    0.3851727    0.2591099  28.79  0.001210896    1.621    0.383
        39  -9.9791    225.2048     16.4152   6.7145753348e+01   2.7189123314e+01    0.3077106    0.2567779  -0.26  0.001187093    1.264    0.209
        40  -9.9569    219.0774     13.0060   6.6719943946e+01   2.8893870823e+01    0.3335751    0.2382623  53.44   0.00176429    1.512    0.339
        41 -11.6859    211.5862      9.9074   6.6476891600e+01   3.0912446392e+01    0.4930897    0.3244225  12.66  0.001371796    1.853    0.460
        42 -10.0088     31.5514     11.9478   1.1280922340e+02   7.1741673797e+01    0.2085835    0.1738022  45.19 0.0006488032    1.608    0.378
        43  -9.7802      3.9716     10.7956   1.3054159866e+02   7.4481691324e+01     0.350063    0.1646921 -32.70  0.001355112    2.013    0.503
        44  -9.6691    157.5914      2.3942   6.9576459789e+01   4.5067702343e+01    0.3320546    0.2491816  52.15  0.001449789    1.292    0.226
        45  -9.1365    162.5383     10.5099   7.1870294235e+01   4.3079295629e+01     0.245572    0.1905328  30.53 0.0008272292    1.350    0.260
        46 -10.9267    163.0008      4.3230   6.9608935888e+01   4.3502662922e+01    0.5503538    0.2838474 -18.76  0.002416414    1.941    0.485
        47 -10.3870    169.4927      9.5593   7.0652490824e+01   4.1370028092e+01    0.4120176    0.1998988  52.34  0.001446457    1.995    0.499
        48 -10.3553    151.0853      7.2118   7.2231572213e+01   4.6354826118e+01    0.4671679    0.3045637  72.26  0.001227529    1.559    0.358
        49  -9.7759      1.2569      7.3506   1.3107952673e+02   7.5356944493e+01    0.1890801   0.08541103 -61.20 0.0001820451    1.833    0.455
        50 -10.6629    218.7664      2.9978   6.3978215760e+01   2.9834610037e+01    0.2966203    0.2480968 -25.94  0.001070439    1.123    0.109
        51 -10.5175    228.3851      4.1834   6.3625318243e+01   2.7559986107e+01    0.3237739    0.2236389 -19.91  0.001247057    1.364    0.267
        52 -11.0132    223.9901      2.0123   6.3344564166e+01   2.8725688831e+01    0.4100538    0.2780831  87.38  0.001529463    1.584    0.369
        53  -9.1060      5.2185      5.0383   1.2701734424e+02   7.5602485571e+01    0.1644313   0.07980416 -55.07 0.0007333509    1.662    0.398
        54  -9.1889    170.7059      4.1233   6.8643190217e+01   4.1528486323e+01    0.2380287    0.1827625 -83.82  0.001011835    1.396    0.284
        55 -10.4291    141.5947      3.5589   7.2199903446e+01   4.9146454976e+01    0.3948349    0.2643587  69.24  0.001545314    1.479    0.324
        56 -12.0357    133.6068      2.7399   7.3107680218e+01   5.1294825398e+01    0.4353595    0.2994859  63.82 0.0008872569    1.401    0.286
        57  -9.3954    123.1257      1.1139   7.4188354440e+01   5.4138525843e+01    0.5113984    0.1400813  68.20  0.001602871    3.645    0.726
        58 -11.0014    106.7898      1.9906   7.7831536602e+01   5.8189282449e+01     1.022152    0.2651268  64.95  0.003171569    3.853    0.740
        59  -9.7747    117.0069      2.5028   7.5952847088e+01   5.5581631921e+01    0.3715952    0.2478041  73.51  0.001804166    1.620    0.383
        60  -9.2345     55.6843      4.1643   9.5402917105e+01   6.9230969735e+01    0.2032506    0.1778734  44.67  0.001169418    1.349    0.259
        61 -10.1605     22.8865      2.5624   1.1275796635e+02   7.4470995958e+01    0.2938263    0.1992356 -16.95  0.001230884    1.413    0.292
        62 -10.2892    206.2935      2.5236   6.4786003194e+01   3.2797106861e+01     0.425366    0.2242652 -84.54  0.001936416    2.243    0.554
        63 -10.9665      2.8180      1.8017   1.2726557043e+02   7.6411072843e+01    0.3782526    0.1941173  -0.76  0.002021654    2.348    0.574
        64  -8.9981     16.4751      1.0000   1.1629424714e+02   7.5447066312e+01    0.2266814   0.06797643  28.18 0.0009099512    3.737    0.732
        65  -9.3153     86.0065    150.0123   1.3021502422e+02   3.4094077412e+01    0.2025971    0.1587314 -18.04  0.001146149    1.709    0.415
        66  -9.7424     60.5410    147.5120   1.3636336529e+02   3.7863499472e+01    0.2214281    0.1973851  66.51 0.0007114286    1.030    0.029
        67 -11.3587     62.9268    150.6454   1.3613415029e+02   3.6911156700e+01     0.473763    0.3451923   0.67   0.00238829    1.981    0.495
        68 -10.6936    249.5683    142.5548   9.5121420359e+01   7.7868375081e+00    0.5296397    0.2017697 -28.50  0.002468158    2.300    0.565
        69  -8.6653     74.2904    145.6632   1.3257453565e+02   3.6578851476e+01    0.1326509   0.09067275  69.35 0.0007022628    1.639    0.390
        70 -10.3808    133.8147    139.8242   1.1667578342e+02   2.8604081746e+01    0.3544973    0.2995009  -3.36  0.001247541    1.294    0.227
        71  -9.2892     69.4774    140.5071   1.3310871157e+02   3.8309438697e+01    0.1246623    0.1188795  86.45 9.305521e-05    1.056    0.053
        72 -11.4030     81.8089    135.0395   1.2898274747e+02   3.7875757202e+01    0.6842979    0.4158649  19.29  0.003274224    2.138    0.532
        73 -11.2923     92.5454    129.5846   1.2514203446e+02   3.7506917125e+01    0.6834061    0.3109748 -57.93  0.002914771    2.247    0.555
        74 -10.8298     93.4300    123.7934   1.2380475304e+02   3.8633304233e+01    0.2623435    0.2339548  88.61 0.0003037938    1.190    0.159
        75 -10.7683     47.8443    134.6753   1.3817771689e+02   4.2101281487e+01    0.3453106      0.18794 -62.04  0.001037962    1.721    0.419
        76 -10.8091     70.9827    134.3189   1.3179855960e+02   3.9482487195e+01    0.5458047     0.351309  13.01  0.002715774    2.153    0.535
        77 -10.5126     78.8746    128.1843   1.2863824639e+02   3.9794931129e+01    0.5636737    0.3015456 -25.98  0.001968002    4.285    0.767
        78  -9.6297     62.5515    132.0421   1.3377764168e+02   4.1040208676e+01    0.4651477    0.1461135 -53.90  0.001797083    3.020    0.669
        79  -8.9436    106.9770    131.0264   1.2158815287e+02   3.4928627519e+01    0.1567736    0.1560166  78.19  0.000354194    1.021    0.020
        80  -9.9568     18.7557    124.3608   1.4520394690e+02   4.7052463971e+01    0.3240443    0.1328259 -69.90  0.001418415    2.055    0.513
        81 -10.7391     45.6978    120.4431   1.3696601751e+02   4.5580581870e+01    0.5760027    0.2616692  51.72  0.002583777    2.445    0.591
        82  -9.0892     53.4787    124.9799   1.3532955724e+02   4.3697709702e+01    0.3520665    0.2195211  78.19  0.001790439    1.878    0.467
        83 -10.5380     56.5357    122.2085   1.3403988791e+02   4.3988709637e+01     0.364731    0.2619533  48.13  0.001278308    1.403    0.287
        84 -10.6653      3.4411    123.6213   1.4942436415e+02   4.8238866480e+01    0.3895845    0.2999465 -48.17  0.002676237    1.509    0.337
        85  -8.6265     65.6772    125.3235   1.3188355078e+02   4.2177022581e+01    0.1381185   0.09391811  68.67 0.0004999524    1.681    0.405
        86 -11.9567    105.0999    120.7403   1.1999702477e+02   3.7416244745e+01    0.5706748    0.5253453  58.33  0.003350218    1.121    0.108
        87  -9.2359    221.2109    120.4311   9.4704081268e+01   1.5405869961e+01    0.1656824    0.1306753  54.15 0.0004551095    1.605    0.377
        88  -9.5206    148.8528    119.5045   1.0869771972e+02   2.9649709971e+01    0.2422183     0.196304  -5.45  0.001273105    1.339    0.253
        89  -9.3763    239.7594    146.6161   9.7445907837e+01   8.8631095682e+00    0.1535776    0.1143511  43.35 0.0007918718    1.602    0.376
        90  -9.8451     81.8439    117.5959   1.2587290660e+02   4.1748233311e+01    0.2263318    0.1845704 -57.02  0.000359636    1.192    0.161
        91 -11.9621     22.3961    149.7285   1.4625039042e+02   4.1142465915e+01    0.5240645    0.3659304 -52.83  0.003390831    1.646    0.392
        92 -11.9181     45.5679     85.9106   1.3124690301e+02   5.3788374090e+01     1.911867      0.92081  89.85  0.006291023    4.443    0.775
        93 -12.0002     33.9525     92.9583   1.3663780045e+02   5.3230314092e+01     1.951205     0.762759 -79.47  0.007392549    3.108    0.678
        94 -11.7316     37.9897     86.3850   1.3406898059e+02   5.4440383504e+01    0.8722117      0.44812  85.12  0.002924234    3.043    0.671
        95 -12.2548     10.0998     97.5191   1.4531679098e+02   5.3895677647e+01    0.8603815    0.5262912  56.86  0.004986071    1.692    0.409
        96 -12.2054      7.3846     88.4771   1.4529381331e+02   5.6201483957e+01    0.5753368    0.4199259 -64.99  0.001127762    1.188    0.158
        97 -11.5378     23.8131     98.8809   1.4093882084e+02   5.2645200239e+01    0.5453818    0.3009093 -81.51  0.001785046    1.670    0.401
        98 -12.3826     19.3414     92.2735   1.4159609898e+02   5.4554260274e+01     1.242294    0.4359918 -77.99  0.005065156    2.708    0.631
        99 -11.8606      3.0660    111.5720   1.4871825790e+02   5.1007264513e+01    0.5037431    0.3841161 -64.04  0.001955502    1.269    0.212
       100 -11.6708      3.4193    104.9014   1.4810902979e+02   5.2534819978e+01    0.3697809    0.3188393 -24.47  0.001319313    1.460    0.315
       101 -11.0417     21.5231    114.2027   1.4343193811e+02   4.9193683073e+01    0.2732858    0.2388136 -31.73  0.001113769    1.391    0.281
       102 -11.7950     28.7295    113.0958   1.4112547517e+02   4.8881570569e+01    0.5228645    0.3723074  23.18  0.002504922    1.627    0.385
       103 -12.4873     25.7971    107.2463   1.4133929358e+02   5.0500061707e+01     1.051857    0.5278428 -30.39  0.004657291    3.155    0.683
       104 -10.8221     34.7636    119.9487   1.4012725787e+02   4.6754400372e+01    0.2775037    0.2662642 -87.87  0.001035149    1.132    0.117
       105 -10.5984    108.0303    112.7650   1.1744403642e+02   3.8620258005e+01    0.4609001    0.2900443 -65.33  0.001684947    1.995    0.499
       106 -11.2436    103.9958    109.7567   1.1787192117e+02   3.9965103843e+01     0.661714    0.4924008  30.22  0.002791874    1.418    0.295
       107 -10.6145     67.0375    112.2964   1.2926272766e+02   4.4997534382e+01     0.442572    0.3339187 -82.77  0.002221193    1.402    0.287
       108  -9.4116    126.9451    114.0479   1.1272959440e+02   3.4918203830e+01    0.2195785    0.2109057  -2.40 0.0006779155    1.012    0.012
       109  -9.8041     49.0409    112.2805   1.3477225009e+02   4.7136861356e+01    0.2416908    0.2263974 -73.37  0.001222781    1.068    0.064
       110  -9.0151     52.0413    109.9884   1.3347725922e+02   4.7347386815e+01    0.1948204    0.1781005 -80.29 0.0004511478    1.009    0.009
       111 -11.1399    170.7918    110.1541   1.0155795325e+02   2.6900605612e+01    0.4883406    0.3949256  22.49  0.001819283    1.227    0.185
       112 -10.9290     80.3586    108.6197   1.2450921279e+02   4.4000691456e+01    0.6231723    0.4183347  56.69   0.00308805    1.721    0.419
       113 -10.8593     86.0076    105.4927   1.2213394291e+02   4.3857122330e+01    0.3521916    0.2995479   4.53  0.001242598    1.375    0.273
       114  -9.2960     60.8107    110.8510   1.3090648814e+02   4.6118828597e+01    0.1819175    0.1460003  72.70  0.000334047    1.322    0.244
       115 -10.2849     14.8686    109.0814   1.4494423809e+02   5.0866409357e+01    0.3297714    0.1549906  53.00  0.001652005    2.218    0.549
       116 -10.2352     88.4028    114.6749   1.2339475115e+02   4.1424432450e+01    0.3045134    0.2064724  48.44 0.0005764922    1.544    0.352
       117 -10.7534    158.2746    104.7844   1.0288526061e+02   3.0427023282e+01    0.5405725    0.3306994 -12.55   0.00152063    2.308    0.567
       118 -10.7176    143.6134    105.6675   1.0650769921e+02   3.3287052760e+01     0.376146    0.3492562  78.84  0.001416722    1.287    0.223
       119 -11.4866    146.4614    100.2284   1.0439725862e+02   3.3720858014e+01    0.5301879     0.403073 -23.03  0.002643448    1.362    0.266
       120  -9.9483    247.2357    103.8414   8.6962098853e+01   1.2797579863e+01    0.2090684    0.1283129 -56.02   0.00095918    2.885    0.653
       121  -9.7026     47.5074    103.4023   1.3382420882e+02   4.9400975106e+01    0.2781865    0.1591033 -49.09 0.0007123288    1.728    0.421
       122 -10.4794     57.7294     97.3841   1.2936412213e+02   4.9664419482e+01    0.4267294     0.266739 -66.17  0.001575505    1.513    0.339
       123  -9.2185    193.7932    101.6034   9.4862374557e+01   2.3503242289e+01    0.1882565    0.1394613  59.58 0.0009467108    1.652    0.395
       124 -11.2708     67.4313     97.1780   1.2612917056e+02   4.8468738844e+01    0.5710988    0.3553134 -52.28   0.00119845    1.493    0.330
       125  -9.8848    137.4109    100.0006   1.0653263967e+02   3.5633827216e+01    0.3542985    0.2200996  23.69 0.0004227196    2.082    0.520
       126  -9.5233    140.5663     96.1979   1.0472460316e+02   3.5707863911e+01     0.319912    0.2116414 -19.62  0.001295312    1.820    0.451
       127  -9.8369    138.2070     93.2840   1.0449887185e+02   3.6754864474e+01    0.3841446    0.2543041  23.44  0.001686724    1.856    0.461
       128 -10.2180    211.4244     97.2449   9.0699261535e+01   2.0507183410e+01    0.4298291    0.2764178  16.71  0.002049494    1.840    0.457
       129 -10.0489     98.6070     62.3721   1.0599139691e+02   5.0979095708e+01    0.2793931     0.249554  -4.53  0.001039693    1.136    0.120
       130 -12.2914     89.9410     59.5269   1.0783784079e+02   5.3222502218e+01    0.9273128    0.8683642 -62.66  0.005236188    1.194    0.163
       131 -12.3938     74.9988     49.9430   1.0967379639e+02   5.7867009961e+01     1.067931    0.8773264 -50.15  0.005827291    1.242    0.195
       132 -10.0604     77.9633     96.9289   1.2267783085e+02   4.7030964095e+01    0.2299389    0.1879717 -54.32 0.0003145258    1.155    0.134
       133 -10.9117     93.9054     76.0552   1.1195315827e+02   4.9047602027e+01    0.5698475    0.4027203  17.66  0.001640238    1.774    0.436
       134 -11.2305     81.9320     92.7351   1.2040620526e+02   4.7382920119e+01    0.5955515    0.4422439  64.89  0.001926962    1.675    0.403
       135 -10.2130     76.8661     92.9541   1.2209225925e+02   4.8107026915e+01     0.240378    0.1994037  44.64  0.000515081    1.279    0.218
       136 -11.3393     80.4163     82.5888   1.1826616145e+02   4.9917584999e+01    0.6036754    0.5365009 -71.45  0.002371517    1.195    0.163
       137 -12.2442     69.7991     80.1447   1.2124278296e+02   5.2093722986e+01     1.191236    0.8810176  -9.76  0.005995259    1.768    0.434
       138 -11.9349     85.4401     73.1328   1.1384249626e+02   5.1176413622e+01    0.6701731    0.6247617  75.52  0.002748118    1.230    0.187
       139 -11.7278     78.7705     67.0816   1.1425603222e+02   5.3620828431e+01     0.804621    0.5960356  89.67  0.003528494    2.099    0.524
       140 -11.0908     25.7282     86.6054   1.3853252167e+02   5.5448697438e+01    0.6299277    0.3704101  33.77  0.003346631    1.869    0.465
       141 -10.5953    127.3666     83.4494   1.0443463750e+02   4.0924440967e+01    0.4098148    0.2841129  48.47  0.001369706    1.507    0.336
       142 -10.7066    124.8968     93.6610   1.0802438463e+02   3.9420132622e+01    0.6012514    0.3525856  34.64  0.002563622    1.848    0.459
       143 -10.6147    117.8924     92.4393   1.0958332325e+02   4.1059938114e+01    0.5631614    0.3752779  13.13  0.002387573    2.185    0.542
       144 -10.9935    120.7853     85.6143   1.0684474624e+02   4.1861780716e+01    0.5781794    0.4186473  59.93  0.001848064    1.670    0.401
       145  -9.7517    160.3232     93.4381   9.9380852643e+01   3.1989162164e+01    0.3847824    0.2507589  70.99  0.001578681    2.455    0.593
       146 -10.9788    102.3720     90.4251   1.1347942404e+02   4.4426339481e+01    0.7119401    0.5468035  24.81  0.003603067    1.440    0.305
       147 -10.4989    153.1094     91.7510   1.0052171572e+02   3.3852379922e+01    0.4144298    0.3508246  27.10  0.001894319    1.184    0.156
       148 -10.3630    183.8885     85.5799   9.2410451505e+01   2.8091305439e+01    0.6472714    0.2410007 -40.01  0.002305133    2.679    0.627
       149 -11.5878    108.5439     80.7699   1.0888334615e+02   4.5291818659e+01    0.9351349    0.7005953 -80.12  0.004275339    1.988    0.497
       150 -10.7068    113.8065     87.1927   1.0924757231e+02   4.2938441619e+01    0.3991437    0.3045019  13.09 0.0008292582    1.587    0.370
       151 -10.6266    113.3649     83.1973   1.0820901976e+02   4.3843478485e+01    0.5669305    0.3286108 -26.60  0.002282328    2.184    0.542
       152  -9.7224    212.2420     87.0789   8.7953508264e+01   2.1750087763e+01    0.2136402    0.1706331  -1.11 0.0003998916    1.208    0.172
       153 -10.7425    164.3638     83.1524   9.5591727995e+01   3.2847243363e+01    0.4514507    0.4089489 -57.58   0.00178793    1.275    0.216
       154 -11.3647    143.1537     84.1702   1.0066726607e+02   3.7392630935e+01    0.3942687    0.3562269   4.28  0.001184118    1.099    0.090
       155 -10.7625    144.1374     80.3836   9.9300209749e+01   3.7860864419e+01    0.3600791    0.2789607  70.55 0.0007421184    1.663    0.399
       156 -11.1670     58.2819     78.1331   1.2485261267e+02   5.4139807094e+01    0.5320733    0.3950266 -82.76  0.001458062    1.586    0.370
       157 -10.1736     53.6931     80.3629   1.2707765113e+02   5.4186814418e+01    0.2507429    0.1955083 -75.51 0.0007135225    1.315    0.240
       158 -11.4693     52.8164     76.1720   1.2639109237e+02   5.5282184551e+01    0.7228208     0.324613 -53.07  0.003147899    1.927    0.481
       159 -11.0454    120.4922     79.8974   1.0521670993e+02   4.3055578140e+01    0.5123664    0.2492791  49.26  0.002001243    2.202    0.546
       160  -9.6230      2.4152     56.1232   1.4307534757e+02   6.4184606738e+01    0.2093787    0.1961812  48.85  0.000605176    1.290    0.225
       161 -10.3806     23.3425     72.1187   1.3698129954e+02   5.9127830311e+01    0.3259947    0.2171012  37.32  0.001248371    1.704    0.413
       162 -10.4859      6.0790     75.4443   1.4425976475e+02   5.9390616512e+01    0.5526631    0.1105034 -55.62  0.001497931    3.430    0.708
       163 -10.4562     13.7682     54.1198   1.3756357051e+02   6.4087528943e+01    0.2330826    0.1893227 -63.75 0.0002963674    1.021    0.021
       164 -11.9688     13.5546     74.7177   1.4127428989e+02   5.9157077472e+01    0.4768307    0.3976035 -54.06  0.001970139    1.153    0.133
       165 -10.8037     14.4366     67.2886   1.3974041175e+02   6.0893882789e+01    0.3997081    0.2631769 -74.07  0.001339819    1.292    0.226
       166 -12.2676      2.2540     70.4432   1.4512626140e+02   6.0767331982e+01    0.7461104     0.193233 -71.04  0.003007675    2.763    0.638
       167 -12.3568      8.9243     61.0536   1.4101584129e+02   6.2702092747e+01    0.7370223    0.5462861 -56.52  0.004676353    1.153    0.132
       168  -8.6553    156.6781     78.3203   9.5812427277e+01   3.5397538514e+01    0.1504622    0.1197263 -68.59  0.000704476    1.672    0.402
       169 -10.0989    134.5728     77.3536   1.0071811745e+02   4.0527470774e+01    0.3165241    0.2699481  63.19   0.00106386    1.350    0.259
       170  -9.8941    242.2061     76.1803   8.0984057472e+01   1.7077190716e+01    0.1811345    0.1462249 -43.78 0.0009998555    1.340    0.254
       171  -9.5548    184.3113     61.0038   8.5198200973e+01   3.1625023301e+01    0.2328382    0.2203057  -3.45  0.000852105    1.025    0.024
       172 -12.1769    186.3810     70.4749   8.7652260404e+01   2.9792639967e+01    0.9431183    0.6674194 -25.03  0.003528999    1.332    0.249
       173  -9.5476    192.1676     65.6920   8.5280622802e+01   2.9137974058e+01     0.278042    0.2210055 -74.60  0.001044318    1.656    0.396
       174  -9.0924    197.2989     74.3470   8.6911810599e+01   2.6760235915e+01    0.1516336    0.1056178  12.52  0.000426892    1.681    0.405
       175  -9.8861     46.3016     72.6650   1.2801949007e+02   5.6867065902e+01    0.3173292    0.1969755 -76.40  0.001534112    1.828    0.453
       176 -11.4740     40.7187     71.1222   1.2984196171e+02   5.7830876212e+01    0.6456856    0.3837275 -38.91  0.003224266    1.756    0.430
       177 -11.1100     33.1758     71.9679   1.3302923375e+02   5.8355421201e+01    0.4342603    0.3016544  25.54  0.002457805    1.652    0.395
       178  -9.2461    230.5562     73.3752   8.1760121494e+01   1.9743609395e+01    0.2454052    0.1623562 -71.58  0.001138957    2.531    0.605
       179  -8.7100    151.3053     73.3490   9.5483325542e+01   3.7468363283e+01    0.1594938    0.1152484   9.45 0.0007041877    1.701    0.412
       180  -9.8033     61.3515     73.0200   1.2237532800e+02   5.4923352318e+01    0.2514766    0.1928158  44.10 0.0006243766    1.452    0.311
       181 -11.5876    122.8430     67.9233   1.0075896206e+02   4.4847730175e+01    0.7005955    0.4458121  41.41  0.002140594    1.613    0.380
       182 -10.1947    162.0144     70.1801   9.2191875350e+01   3.5506893011e+01     0.374056    0.3142488  87.19  0.001888318    1.528    0.346
       183 -11.6774    219.4765     66.0784   8.1320175674e+01   2.2980468393e+01    0.6332512    0.4313987  52.34  0.002359231    1.587    0.370
       184 -10.6396    172.1467     67.7764   8.9441494751e+01   3.3505969717e+01    0.4535614    0.3312158 -38.94  0.001411312    1.361    0.265
       185  -9.3242    167.8940     63.1513   8.8826773916e+01   3.5211419513e+01    0.2236792    0.2162156  10.64 0.0008928968    1.052    0.049
       186 -10.3163    129.2976     65.4619   9.8231854277e+01   4.3864115001e+01    0.6024797    0.3565592 -55.26  0.002398254    2.261    0.558
       187 -10.4936     22.3780     36.1978   1.2858247933e+02   6.7649830542e+01    0.5682048    0.3066463  46.07  0.002765923    2.548    0.608
       188 -10.5454     23.3146     48.0644   1.3163082066e+02   6.4854335389e+01    0.7138243    0.3626946  17.38  0.003533804    2.362    0.577
       189 -10.2719    143.4160    248.5831   1.3027546215e+02   1.0205560836e+01    0.2344891    0.1406733   6.63  0.001418265    2.517    0.603
       190 -11.3460     25.7354     56.3193   1.3261753525e+02   6.2722816106e+01     1.026307    0.7444685   5.40  0.006011613    1.657    0.397
       191  -9.6071    174.4649    246.8899   1.2480540961e+02   6.5071480101e+00    0.2305278    0.1082138  24.14  0.001348325    2.003    0.501
       192 -11.0775    127.6981    243.0437   1.3247047574e+02   1.2843053998e+01    0.2869666    0.2016861 -71.06  0.002100334    2.142    0.533
       193  -9.5368    199.0108    244.5051   1.2045380966e+02   3.6760264486e+00    0.1645548   0.07701311  34.00  0.001035229    1.600    0.375
       194 -11.2525     51.2747     45.8162   1.1787632110e+02   6.2387863935e+01    0.4266273    0.2536388 -57.23  0.001055953    1.695    0.410
       195 -11.2774     58.0297     30.4636   1.0852594994e+02   6.4516327563e+01    0.6398047    0.4040121 -18.50  0.002795042    1.874    0.466
       196 -11.7994     47.7368     30.7564   1.1344968201e+02   6.6002218074e+01    0.6640801    0.3450992  27.14  0.002494104    2.238    0.553
       197 -10.9311     57.9946     61.5455   1.2033322888e+02   5.8001701445e+01    0.8955851     0.455686 -68.87  0.003415181    2.930    0.659
       198 -11.6436     51.7816     61.5472   1.2284041152e+02   5.8813924875e+01    0.5234975    0.3820588 -82.32  0.001100625    1.753    0.430
       199 -11.3307     45.9681     58.2353   1.2427815313e+02   6.0277676971e+01    0.5011967    0.4161428 -57.12  0.002218243    1.106    0.096
       200 -11.2842     40.2854     56.0357   1.2608051209e+02   6.1421315861e+01    0.5554165    0.3838512  81.12  0.002362878    2.129    0.530
       201 -10.0077    150.7513    237.6730   1.2784197037e+02   1.0600849354e+01    0.2455427     0.123183 -37.72  0.001498678    2.630    0.620
       202 -10.8768     60.8433     36.4562   1.0995205605e+02   6.2913744262e+01    0.3911794    0.2128633 -44.02  0.001247785    1.682    0.405
       203 -10.6263     21.0981     65.1710   1.3657670459e+02   6.0963490121e+01    0.2143921    0.2046678 -36.15 0.0006897666    1.174    0.148
       204  -9.5473    204.9299     63.5894   8.2693035810e+01   2.6508710574e+01    0.3276994    0.1942406  32.27  0.001130446    1.991    0.498
       205 -10.8496    159.6237     61.6103   8.9977641389e+01   3.7420108276e+01    0.4871108    0.3080161  32.68  0.001994124    1.792    0.442
       206 -11.5911    156.7896     53.6942   8.7953522746e+01   3.9303408942e+01    0.9971671    0.4443398 -35.64  0.003819722    2.124    0.529
       207  -9.9652    162.0636     43.5097   8.3505367996e+01   3.9444579494e+01    0.3901804    0.2572287  52.96  0.001336206    1.519    0.342
       208 -11.7872    156.2071     41.7658   8.3992162234e+01   4.1140682883e+01    0.4281301    0.3832793  42.73 0.0007639945    1.120    0.107
       209 -11.0689    153.3619     36.1790   8.2554905718e+01   4.2594483387e+01    0.3530973    0.3198293 -23.71 0.0004577038    1.080    0.074
       210  -9.3825     15.4402    233.3103   1.5169841355e+02   2.6262017426e+01    0.1548097    0.0796719 -78.54  0.001128325    2.061    0.515
       211 -10.5469    197.9917    231.7963   1.1897071742e+02   5.1138023090e+00    0.1874024   0.09657051  17.25   0.00108705    2.001    0.500
       212  -9.1572     23.2405    231.6033   1.5029547328e+02   2.5858494552e+01    0.1234169   0.08031309  28.71 0.0006358284    1.603    0.376
       213  -9.1341    189.9589    229.7708   1.2005620755e+02   6.3861206929e+00    0.1548332    0.1087924  24.60 0.0006147373    1.059    0.055
       214 -11.7659    105.7706     32.7727   9.2265556769e+01   5.4683781339e+01    0.6241588    0.3831486   2.36  0.001652624    2.329    0.571
       215  -9.4939    247.4716    227.4886   1.1047601049e+02  -6.8875795604e-01    0.1064213   0.07245692  12.03 0.0008098874    1.006    0.006
       216 -12.6062    117.2864     42.9590   9.3242470319e+01   5.0442922660e+01    0.9317762    0.6485947  88.62  0.003278992    2.409    0.585
       217 -12.9632    120.5292     38.8569   9.0775181255e+01   5.0319864420e+01    0.8480681      0.61475 -68.20  0.003006416    1.979    0.495
       218 -10.5193    105.6490     62.1791   1.0373426640e+02   4.9594432940e+01    0.4169007     0.290263 -59.78  0.001882926    1.828    0.453
       219  -8.5873     46.3411     63.2649   1.2556178678e+02   5.9070985335e+01    0.1363911   0.09556119 -27.48 0.0006977618    1.597    0.374
       220  -9.8115    148.1195     60.4591   9.2046538279e+01   4.0345467990e+01    0.4398942     0.181982  54.44   0.00158226    2.499    0.600
       221  -9.2425    234.8989     59.1484   7.7549984190e+01   2.0558073178e+01     0.203761    0.1408072 -67.17 0.0008087007    1.978    0.494
       222 -10.2347    206.9992     68.5208   8.3764048705e+01   2.5394720261e+01    0.4219628    0.2094839  44.81  0.001373087    2.131    0.531
       223 -10.5303    139.0707     43.7114   8.8204885020e+01   4.5114731436e+01     0.505786    0.2418862  39.91  0.001734086    2.338    0.572
       224 -10.5081    145.2789     52.1697   8.9853390164e+01   4.2330568892e+01    0.4253294    0.3580507   0.86  0.001771755    1.228    0.185
       225 -10.5136    242.4251    231.1122   1.1177093991e+02  -4.0296373375e-01    0.1976016    0.1187165  40.35  0.001348626    1.984    0.496
       226  -9.2215    219.8904     57.1318   7.8845922710e+01   2.3995021301e+01    0.2090308    0.1745703 -46.98 0.0006490386    1.255    0.203
       227 -11.1496     89.7586     89.3303   1.1704871536e+02   4.6878335527e+01    0.7015324     0.406924 -32.48   0.00297525    2.111    0.526
       228  -9.8145     67.0114     54.8660   1.1455582367e+02   5.8155460632e+01    0.2391641    0.1937221 -46.24 0.0005897299    1.144    0.126
       229 -10.0248    249.3295     52.9944   7.4420256279e+01   1.8329227636e+01    0.3170926    0.2314458 -61.65  0.001488479    1.664    0.399
       230 -10.5594    231.9452     39.9492   7.2839673819e+01   2.3336142102e+01     0.364099    0.2152385 -60.52  0.001615101    2.121    0.529
       231 -10.5808    233.6285     45.0874   7.4021365923e+01   2.2417390310e+01    0.6433646    0.3418464  39.21  0.003001531    2.264    0.558
       232 -11.1482    240.0650     50.3232   7.4702111058e+01   2.0492478224e+01    0.3965225    0.3483898 -67.35  0.001204736    1.319    0.242
       233 -10.2647    244.4915     50.5073   7.4289284553e+01   1.9568466948e+01     0.253199    0.2384272  -7.27 0.0009700837    1.113    0.101
       234 -11.2889    202.6488     49.7710   7.9057164919e+01   2.8790693391e+01    0.7208494    0.4635901 -53.56   0.00303941    1.810    0.447
       235  -9.9943    216.1439     52.0733   7.7932375786e+01   2.5432160882e+01    0.2142791    0.1777285   8.97 0.0007796389    1.251    0.201
       236 -10.7782    176.9412     37.5823   7.9039143091e+01   3.6493532629e+01    0.4504819    0.2903613 -13.39  0.001342746    1.629    0.386
       237 -11.2143    173.8025     48.1464   8.2973446008e+01   3.5918959741e+01    0.6965973    0.3748474  62.57  0.002455002    2.003    0.501
       238 -10.5040    177.1440     43.4982   8.0923280198e+01   3.5705173015e+01    0.4365188    0.3476987 -50.49  0.002255551    1.345    0.256
       239  -9.2018    101.2209     48.3566   1.0001067773e+02   5.3099643722e+01    0.2602925    0.1061666 -34.35 0.0007062378    2.440    0.590
       240 -10.1682    100.7594     43.7194   9.8319910770e+01   5.4016024449e+01    0.4955549    0.3481183 -77.80  0.001827724    2.592    0.614
       241 -11.3356     93.7867     41.2665   9.9544239043e+01   5.5917216765e+01    0.5058911    0.3515383  41.45  0.001627596    1.478    0.323
       242  -9.7342     90.8650     48.2405   1.0332714177e+02   5.5246192558e+01    0.2634892    0.2290771 -39.38    0.0014298    1.140    0.123
       243  -9.8608      3.8664     49.0034   1.4120143929e+02   6.5815095056e+01     0.197888     0.168549 -24.81 0.0008030793    1.317    0.241
       244  -9.3942     14.4630     46.3517   1.3549980431e+02   6.5880613159e+01    0.2754582     0.129089 -50.75  0.001375918    1.716    0.417
       245  -9.5712    187.5321     55.2456   8.2927556545e+01   3.1649288164e+01     0.309406    0.1814808  47.96  0.001392926    1.747    0.428
       246  -9.7931    193.4152     45.9758   7.9227472010e+01   3.1438280802e+01    0.2656475    0.2030728 -84.29 0.0009939106    1.640    0.390
       247 -11.3183    136.3903     56.1731   9.3286378782e+01   4.3820601072e+01    0.7021736    0.5547284  -2.71  0.002791698    1.380    0.275
       248  -9.9327      4.2653     44.4720   1.4013684137e+02   6.6867324421e+01    0.3340507    0.1771963 -22.05  0.001379922    2.242    0.554
       249 -10.4864    189.1533     40.3946   7.8127958042e+01   3.3147029620e+01    0.5382174    0.2344135 -22.28   0.00209037    2.265    0.558
       250  -9.4622     18.1595     41.5570   1.3240310928e+02   6.6750170815e+01     0.285503    0.1856263 -17.93  0.001237861    1.778    0.438
       251 -11.6006     70.0080     32.7252   1.0447895771e+02   6.2062086672e+01    0.5737092    0.3303773  35.56  0.002673105    1.860    0.462
       252 -11.2108     81.6222     39.4646   1.0299367899e+02   5.8676264015e+01    0.4365825    0.3539343  70.51 0.0009519107    1.704    0.413
       253 -10.6719     77.8056     34.4459   1.0222286395e+02   6.0309411779e+01    0.4183151    0.2544206  36.14  0.001195728    1.739    0.425
       254 -10.4867     81.9974     31.5672   9.9384791147e+01   5.9988475617e+01    0.3940327    0.2971753 -55.35  0.001984827    1.662    0.398
       255  -9.3851    218.1406     38.8341   7.4011066780e+01   2.6505590724e+01    0.2097143    0.1751711 -45.38  0.000786605    1.182    0.154
       256 -10.2514    134.6839     36.9203   8.6638486590e+01   4.7167991573e+01    0.6533067    0.3735727  54.64  0.002827468    1.739    0.425
       257 -10.2197    140.2201     30.4478   8.2987497969e+01   4.6649426787e+01    0.6074976    0.3433768 -18.06  0.002569177    1.866    0.464
       258  -9.7111    133.4936     24.4922   8.2029942042e+01   4.9088893544e+01    0.4053915    0.2599201 -60.96  0.001737214    2.126    0.530
       259 -10.2576    143.6897     24.9013   8.0191509301e+01   4.6446993056e+01    0.4156759    0.3409077  79.98  0.001580733    1.367    0.268
       260 -11.0655    140.7544     20.3775   7.8986407707e+01   4.7716978874e+01    0.7099844    0.3280354  47.65  0.002828032    2.102    0.524
       261 -10.9474      5.1328     36.2349   1.3787274095e+02   6.8751480512e+01    0.5460272    0.3492861 -34.10  0.003265179    1.529    0.346
       262 -10.4551    206.8073     37.2184   7.4864750580e+01   2.9295279260e+01    0.3123909    0.2567867 -41.20 0.0006671292    1.176    0.150
       263  99.0000      6.4926     30.7402   1.3569509472e+02   6.9947466189e+01    0.4019555    0.1704163   7.09   0.00189589    2.994    0.666
       264  -9.5650    248.5818     33.2750   6.9569722724e+01   2.0545592615e+01    0.2602096   0.09614844 -28.60  0.001137297    2.138    0.532
       265 -10.5730    189.4769     32.5219   7.5634566568e+01   3.3984827928e+01    0.3571219    0.3065317  74.42  0.001131656    1.253    0.202
       266 -10.2995    189.1487     27.9497   7.4245807784e+01   3.4570376862e+01    0.4618939    0.3223045   6.88  0.002260464    1.653    0.395
       267 -11.1077    171.8145     33.8367   7.8595861023e+01   3.8227965941e+01    0.5086704    0.2719074  54.58  0.002200126    1.839    0.456
       268 -10.5403    175.7787     29.4375   7.6537042105e+01   3.7741363759e+01    0.3822222    0.3183459   1.64  0.001157632    1.244    0.196
       269 -11.1987    183.5020     24.6623   7.3922849077e+01   3.6325180246e+01    0.5248896     0.321309  61.59  0.002118949    1.644    0.392
       270  -9.6614      9.0557    227.3090   1.5261320283e+02   2.7734199593e+01    0.1349969   0.09143735  48.97 0.0003806171    1.127    0.113
       271 -10.1527    191.8320     16.7970   7.0439533641e+01   3.5047442261e+01    0.3027712     0.262348  45.88  0.001140428    1.200    0.167
       272  -9.3761    234.6580    222.7123   1.1173217899e+02   1.3211740714e+00    0.1128979   0.06155139  12.59 0.0002219853    1.644    0.392
       273  -9.0300    167.6498    221.6711   1.2289624236e+02   1.0344323245e+01    0.1166203   0.07399739  10.40 0.0007048359    1.765    0.434
       274  -9.9268      9.9784    217.7525   1.5216195414e+02   2.9213378185e+01    0.1639069    0.1147407  74.99  0.000626963    1.216    0.178
       275  -9.7043    166.8502    213.7274   1.2198273428e+02   1.1471021151e+01    0.1953687    0.1576057  86.91  0.001255209    2.318    0.569
       276 -10.2095    156.7683     25.3534   7.8062433756e+01   4.3043469641e+01    0.3031238    0.2402525  58.67 0.0005565292    1.263    0.208
       277 -10.9358    240.5647     30.9789   6.9679400752e+01   2.2433309973e+01    0.5205274    0.3210165 -15.64  0.002069233    1.548    0.354
       278 -10.5034    217.0605     32.0674   7.2235992003e+01   2.7482141051e+01    0.2482309    0.2034094  35.51 0.0004679321    1.331    0.249
       279 -10.2903    199.5415     24.9632   7.2083261303e+01   3.2346915691e+01     0.286139    0.2440577  -4.61 0.0007339261    1.189    0.159
       280  -9.1728    182.4220     32.2163   7.6498212557e+01   3.5762736900e+01    0.2007795    0.1240419 -35.52 0.0003477543    1.538    0.350
       281  -9.5370    152.9687    207.9770   1.2379923651e+02   1.4215347108e+01     0.176873    0.1297319  55.57 0.0009174785    1.683    0.406
       282 -10.7532      4.1299    204.9030   1.5283332274e+02   3.1858546699e+01    0.3945476     0.131187 -70.86  0.001995729    3.017    0.669
       283 -10.4209     10.4989    187.0061   1.5095987521e+02   3.4598591634e+01    0.2871782    0.1219223 -73.06  0.001202607    2.264    0.558
       284 -12.3889      4.2137    184.5777   1.5214554305e+02   3.5531943682e+01    0.8535544    0.3856028  80.82  0.005175604    1.966    0.491
       285  -9.6580    221.8155    205.5919   1.1115164695e+02   4.7398795242e+00    0.1560244   0.09185337  39.87 0.0008648346    1.730    0.422
       286 -10.5003    245.3094    200.9497   1.0664668317e+02   2.0663751765e+00    0.1583298    0.1118478   1.55 0.0005246241    1.099    0.090
       287 -10.7298    230.5161     29.9155   7.0310169022e+01   2.4695839309e+01    0.4268671    0.2585513 -31.74  0.001397633    1.426    0.299
       288 -11.2909    112.8445     51.0742   9.7587086292e+01   5.0095308177e+01     1.382834    0.6141694 -41.56  0.005230357    2.239    0.553
       289 -11.1453    197.9854     28.9375   7.3463630670e+01   3.2305036425e+01    0.4498791    0.3734219   0.71  0.001545163    1.250    0.200
       290 -10.1138    250.3133     25.4269   6.7475425526e+01   2.0963403890e+01    0.2379722    0.1569356 -14.94 0.0007022357    1.437    0.304
       291 -10.4021    234.3081    196.8577   1.0769313498e+02   3.9612176308e+00    0.3414323    0.2146777  13.37  0.001678459    1.323    0.244
       292 -10.3635     16.8277    192.6481   1.4991958641e+02   3.3042202244e+01    0.1830965    0.1415772  66.95 0.0003655287    1.031    0.030
       293  -9.9647     80.7751     19.3870   9.3974143711e+01   6.2153577591e+01    0.3068768    0.2155931  29.25  0.000998256    1.457    0.313
       294  -9.7067    169.9357    191.1642   1.1809628038e+02   1.4094498337e+01    0.3344005    0.1373959  28.02  0.001432586    2.721    0.633
       295  -9.1856    168.4614    188.4677   1.1795360002e+02   1.4706095504e+01    0.1237886    0.1015916  20.10 0.0003258981    1.023    0.023
       296  -9.8532    212.9994    181.7043   1.0862272032e+02   8.7636544012e+00    0.2541952    0.1324874  -5.54  0.001184919    2.688    0.628
       297  -9.1734    250.5582    179.7168   1.0216595287e+02   3.5252411851e+00    0.2215269   0.09514625 -21.48  0.001156455    2.194    0.544
       298  -9.0220    169.2975    179.3300   1.1629250322e+02   1.5916008661e+01    0.1276964   0.08823927   4.89 0.0007028182    1.639    0.390
       299 -10.0631    239.1927    205.0151   1.0826484126e+02   2.4650682118e+00    0.1499351    0.1289533 -39.89  0.001088335    2.068    0.516
       300  -9.1313     57.2972    175.1011   1.4006783525e+02   3.2522311753e+01    0.1577879    0.1338986  75.14 0.0005480628    1.079    0.073
       301  -9.7453    222.9585     22.5095   6.9003413855e+01   2.7113839201e+01    0.2359688    0.2324373  20.63 0.0008284376    1.108    0.097
       302 -10.1833    221.0063     19.0868   6.8236903551e+01   2.7886725988e+01     0.214541    0.1744805 -22.00            0    1.144    0.126
       303 -10.2983    214.8513     21.8584   6.9580455183e+01   2.9032511021e+01    0.3642258    0.2464984  25.91  0.001866203    1.771    0.435
       304 -10.0890    158.0552     20.2425   7.6010202377e+01   4.3274310086e+01    0.5305294    0.2332814  65.36  0.002075247    2.269    0.559
       305 -10.2349     51.7668    174.1018   1.4123383940e+02   3.3317712809e+01    0.2914681    0.1524595  88.04  0.001545309    2.197    0.545
       306  -9.8639    247.6270    173.7181   1.0151736970e+02   4.5756489171e+00    0.2942822    0.1221317  25.72  0.001391993    2.603    0.616
       307  -9.9702     39.4043    172.8112   1.4393169023e+02   3.4829905290e+01    0.1997396    0.1325896 -69.66  0.001294135    1.520    0.342
       308 -11.3158     35.0151    170.3843   1.4474799334e+02   3.5734662290e+01    0.2548352    0.2360319 -24.86  0.001134755    1.443    0.307
       309 -10.0578     18.4602    165.0078   1.4817149989e+02   3.8266946917e+01    0.3035629    0.2382724 -11.29  0.002106393    1.881    0.469
       310  -9.2515      1.6276     20.4365   1.3560961650e+02   7.2502612295e+01    0.1488117    0.1027927 -23.12 0.0006798973    1.482    0.325
       311 -11.3134      9.1507    166.9114   1.5036841291e+02   3.8601699242e+01    0.4212609    0.3036456  66.77  0.002280804    1.117    0.105
       312 -11.8871     13.4549    159.2340   1.4899759721e+02   3.9843761029e+01    0.5927998    0.3388127  80.57   0.00216586    1.541    0.351
       313  -8.6740    145.6542     16.3104   7.6545358077e+01   4.6891766519e+01    0.3039702    0.1744391 -43.18 0.0008936626    1.861    0.463
       314  -8.9046    197.6553    167.8339   1.0882672329e+02   1.2982643802e+01    0.1644071    0.1118056 -38.96 0.0009349757    1.700    0.412
       315  -9.0450     27.8957     15.4538   1.1687481973e+02   7.1509106331e+01    0.1677342    0.1227175  23.29 0.0009985163    1.512    0.339
       316  -8.9177    149.2953    168.3497   1.1850532802e+02   2.0875730558e+01     0.131167   0.09509239  -0.43 0.0007032888    1.679    0.404
       317  -9.9208    188.8664    164.3905   1.0981930611e+02   1.4918890299e+01    0.2515805     0.155129 -14.59  0.001046473    1.861    0.463
       318  -8.9706     94.5558     12.4652   8.6094522938e+01   6.0030482467e+01    0.1428678    0.1296985   9.87 0.0001832177    1.008    0.008
       319 -11.0818     32.5401     42.1680   1.2536345146e+02   6.5384227673e+01    0.5648708    0.4017195  68.00  0.002061069    2.104    0.525
       320  -9.8989     28.2127    162.9265   1.4578617926e+02   3.7872177319e+01    0.2865091    0.1283464 -64.71  0.001546429    2.161    0.537
       321  -9.7578    205.0850    163.1471   1.0658333866e+02   1.2404501042e+01    0.2490919    0.1599872  24.89 0.0006787007    1.424    0.298
       322 -10.5051    246.5450    158.6689   9.8818696937e+01   6.4019229810e+00    0.3456057     0.103884 -27.32  0.001433355    3.100    0.677
       323 -10.0036     82.5152    159.5310   1.3240423787e+02   3.2602388391e+01    0.2410367    0.1547928  31.72  0.000832565    1.546    0.353
       324  -9.1526    224.4823    156.4992   1.0191322336e+02   1.0106548137e+01    0.1287459    0.1013355   4.80 0.0002174895    1.028    0.027
       325 -10.6959    104.6225    153.6412   1.2618147174e+02   3.0664670727e+01    0.3806314    0.2763647 -57.59  0.002161725    1.465    0.317
       326  -8.5421      1.2935    156.6604   1.5168487128e+02   4.1238944627e+01    0.1182859   0.06048818  62.31 0.0007028196    1.652    0.395
       327 -10.8448     14.1935    132.5694   1.4711581924e+02   4.5529387289e+01    0.3691394    0.2593903 -77.57   0.00241304    1.248    0.199
       328 -10.7998     10.7610    127.1085   1.4764818243e+02   4.6991874519e+01     1.025882    0.1718184 -71.07  0.003700515    4.041    0.753
       329 -11.1364     15.5885    147.9305   1.4781147140e+02   4.2063191910e+01    0.5829214    0.2690734  88.64  0.002994588    2.030    0.507
       330 -12.3780     23.3108    136.3953   1.4498406888e+02   4.3983624786e+01       1.2384    0.8933626  61.61  0.008060399    1.271    0.213
       331 -11.4452     29.8731    132.8590   1.4289861014e+02   4.4228660515e+01    0.5256602    0.3226151  87.72  0.001966895    1.545    0.353
       332 -11.3083     30.3535    148.9047   1.4420276644e+02   4.0643220360e+01    0.7183536     0.262872 -81.08  0.002817523    2.769    0.639
       333 -10.7682     33.3150    144.3393   1.4305515980e+02   4.1370703377e+01    0.3283528    0.2448003  86.46  0.001520566    1.200    0.167
       334 -12.0457      5.2505    147.1205   1.5029985328e+02   4.2972607390e+01    0.6553332    0.3783297 -73.54  0.004132287    1.564    0.360
       335 -10.6444      1.8567    141.2459   1.5083527365e+02   4.4450239363e+01    0.2824837    0.1956354 -89.69  0.001164951    1.197    0.164
       336 -11.8006      3.5685    136.4183   1.5014760992e+02   4.5390332125e+01     0.239817    0.1996254  81.34 0.0002844198    1.046    0.044
       337 -10.0199    214.0695    151.6654   1.0271196446e+02   1.2451419592e+01    0.2148642    0.1821575 -43.04  0.001044076    1.591    0.372
       338 -10.1017     47.1710    151.7225   1.4023368498e+02   3.8422304170e+01    0.6271186     0.228846  55.78  0.002536461    3.287    0.696
       339 -10.4414     48.1735    148.0682   1.3960172912e+02   3.9106268583e+01    0.2820732    0.2118533  31.20  0.001133028    1.407    0.289
       340 -10.1273     46.3767    144.7997   1.3971746369e+02   4.0005044919e+01    0.2752602    0.1670244 -50.62 0.0008049766    1.833    0.454
       341  -9.8566     71.3130    151.2271   1.3408542477e+02   3.5769694041e+01    0.2720579    0.1647091  38.24   0.00147978    1.562    0.360
