#   1 NUMBER                 Running object number                                     
#   2 MAG_AUTO               Kron-like elliptical aperture magnitude                    [mag]
#   3 X_IMAGE                Object position along x                                    [pixel]
#   4 Y_IMAGE                Object position along y                                    [pixel]
#   5 X_WORLD                Barycenter position along world x axis                     [deg]
#   6 Y_WORLD                Barycenter position along world y axis                     [deg]
#   7 A_WORLD                Profile RMS along major axis (world units)                 [deg]
#   8 B_WORLD                Profile RMS along minor axis (world units)                 [deg]
#   9 THETA_WORLD            Position angle (CCW/world-x)                               [deg]
#  10 FWHM_WORLD             FWHM assuming a gaussian core                              [deg]
#  11 ELONGATION             A_IMAGE/B_IMAGE                                           
#  12 ELLIPTICITY            1 - B_IMAGE/A_IMAGE                                       
         1 -14.2291    187.8516     31.5671   6.3672922842e+01   3.4292125812e+01     1.095009     1.002414  17.22  0.005147373    1.222    0.181
         2 -14.6579    196.2578     19.9506   5.9190042815e+01   3.3533380223e+01     1.274765     0.987241  -1.64   0.00174502    1.635    0.388
         3 -12.5991     39.4955      9.0004   9.4017143061e+01   6.6885283423e+01    0.3028269    0.1608748 -13.55  0.001696326    2.032    0.508
         4 -15.9672     73.3201    151.4937   1.2060491140e+02   3.5263603863e+01      5.36556     2.702724  83.89   0.01939251    4.061    0.754
         5 -12.3882     78.0202    218.2003   1.2785724865e+02   2.1050433177e+01    0.5997868    0.3126989  66.59  0.001982052    1.881    0.468
         6 -15.0224    116.1025    228.8572   1.2224113667e+02   1.3349220756e+01      5.37469    0.8073997  45.04    0.0165901    5.104    0.804
         7 -11.3628     63.3609    250.1595   1.3300155075e+02   1.7487596439e+01    0.4331588    0.1874155  58.77  0.002583903    1.845    0.458
         8 -10.9038     69.4399    244.4758   1.3162018376e+02   1.7622081074e+01    0.2259179    0.1733192  81.15 0.0007762567    1.149    0.129
         9 -11.9471     69.3146    248.9976   1.3199319875e+02   1.6890801733e+01    0.2537362    0.1678112  70.24 0.0007659423    1.151    0.131
        10 -12.1804     72.8455    247.8595   1.3135109710e+02   1.6601381739e+01    0.3049749    0.1894847  63.91 0.0006095204    1.221    0.181
        11 -19.3344     11.6175    128.9011   1.3161384663e+02   4.6612413073e+01     16.60237     1.617068 -70.63   0.03786587   10.754    0.907
        12 -13.2315    100.1731    249.2228   1.2708137282e+02   1.2472165941e+01     1.020865    0.3759467  51.01  0.005241531    2.115    0.527
        13 -11.7496    101.1658    232.8573   1.2530110056e+02   1.5024225227e+01    0.3568141    0.2155917  83.69 0.0005636629    1.868    0.465
        14 -15.0022    126.4379    247.7359   1.2255855683e+02   8.6156419780e+00     3.306891    0.8213866  41.78   0.01244297    3.752    0.733
        15  -9.7054     47.8679    217.6578   1.3299496772e+02   2.5104274488e+01    0.2226105    0.1588818  33.29  0.001517169    1.983    0.496
        16 -10.0871     51.5586    208.4901   1.3159728502e+02   2.6369128066e+01    0.3610164      0.16501 -68.66  0.001501297    2.012    0.503
        17 -12.4151     64.9630    210.8749   1.2945618295e+02   2.4205963705e+01    0.5246774    0.3216734 -77.18   0.00177318    1.510    0.338
        18 -13.3394     58.5979    210.4004   1.3053526434e+02   2.5124460908e+01    0.4924312    0.3742675  86.33   0.00131657    1.091    0.084
        19 -12.4419     40.3301    213.4245   1.3392338853e+02   2.6778844451e+01    0.2447431    0.1379748  62.09  0.001175491    1.467    0.318
        20 -10.6637    115.1635    210.8864   1.2023274520e+02   1.6683523094e+01    0.1929124    0.1462143  73.79 0.0005464579    1.230    0.187
        21 -10.9351     78.6841    210.0158   1.2690606365e+02   2.2483930821e+01    0.2551096    0.1927339 -74.35  0.001111547    1.316    0.240
        22 -10.6504     82.5777    243.6784   1.2944751175e+02   1.5942028274e+01    0.2343668    0.1589627  80.93   0.00127148    1.310    0.237
        23  -9.7059     37.8427    206.6870   1.3381597123e+02   2.8327926541e+01    0.1481689   0.07481812  53.97 0.0004288166    1.710    0.415
        24 -11.9826    106.9759    202.4711   1.2071413365e+02   1.9606181537e+01    0.4116244    0.2107565  44.57  0.001470319    1.783    0.439
        25 -13.2408     67.8389    196.8295   1.2751973389e+02   2.6537583148e+01    0.6417758     0.474186 -78.26  0.002787584    1.236    0.191
        26 -12.8848    196.1758    196.5467   1.0233798846e+02   4.2086199801e+00    0.9493194    0.6589047  73.72  0.004570608    2.254    0.556
        27 -10.6876     28.2167    193.7816   1.3445774349e+02   3.1853099266e+01    0.2348036    0.1197302  68.51  0.001415143    1.802    0.445
        28 -11.4304    207.8387    185.5821   9.8059645386e+01   3.6773534669e+00    0.2977784    0.2380631  25.43  0.001226813    1.205    0.170
        29 -11.6895    212.3431    181.7328   9.6453003296e+01   3.4006800206e+00    0.4179892    0.2779423  12.74  0.001317136    1.976    0.494
        30 -11.9385     79.3916    181.1625   1.2343484922e+02   2.8098702728e+01    0.3508903    0.2474072 -41.37  0.001982382    2.027    0.507
        31 -12.3174     83.0097    175.6016   1.2196044457e+02   2.8728155322e+01    0.4922993    0.2366416 -53.52 0.0008677113    2.173    0.540
        32 -13.7361     48.4544    231.5858   1.3396741580e+02   2.2526852016e+01    0.7439132    0.3516279  75.23  0.004312592    2.087    0.521
        33 -10.6021    197.6762    175.9692   9.8148327828e+01   7.3221600390e+00    0.3259608    0.2194352 -60.82  0.001526253    2.074    0.518
        34 -11.3727    137.8709    170.8727   1.0953630548e+02   2.0369047303e+01    0.2103852    0.1975234  12.49 0.0008506684    1.278    0.218
        35 -11.7039    125.7328    173.1332   1.1253002761e+02   2.2181884328e+01    0.3685712    0.1874552  50.19  0.001648995    1.869    0.465
        36 -11.1928    185.0569    168.2068   9.9117876341e+01   1.1311965408e+01    0.3237521    0.2641459 -86.89  0.001165822    1.596    0.374
        37 -12.1584     95.6761    158.7190   1.1671002265e+02   3.0377563488e+01    0.5213231    0.3662118 -34.52   0.00160943    2.015    0.504
        38 -12.3116     54.7348    228.9901   1.3275932849e+02   2.2206796042e+01    0.3511793    0.1871002  75.46 0.0009090359    1.724    0.420
        39 -13.1957     58.9746    225.3994   1.3177268070e+02   2.2308830529e+01    0.5162973    0.2577642  69.33  0.002312945    1.892    0.472
        40 -10.7187    174.5116    149.0283   9.7289963299e+01   1.7177942759e+01    0.2243502    0.1488121 -43.70 0.0005874244    1.581    0.367
        41 -11.2326    133.3483    142.2140   1.0499569833e+02   2.7195359868e+01    0.6759955    0.2082872 -55.06  0.001979237    4.152    0.759
        42 -11.2517    107.4174    142.0679   1.1104851825e+02   3.2040641717e+01    0.5322586    0.3074361 -32.23  0.002165229    2.783    0.641
        43 -12.2653     95.4745    142.8468   1.1402185764e+02   3.3862240765e+01    0.2543868    0.2307381 -52.08 0.0005114631    1.183    0.154
        44 -11.2656     81.1289    138.2738   1.1662345638e+02   3.7060704562e+01    0.3856549    0.2432928 -37.49  0.001209921    2.070    0.517
        45 -11.2676    114.6665    132.0250   1.0728526904e+02   3.2938718349e+01    0.3063739    0.2440052 -34.56 0.0008074057    1.435    0.303
        46 -10.5722    105.6133    130.7944   1.0923870541e+02   3.4815052991e+01    0.3063074    0.2454686 -62.95  0.001181459    1.203    0.169
        47 -11.0541    102.4413    128.2572   1.0949687852e+02   3.5913495376e+01    0.2744641    0.2436777 -26.66  0.001124851    1.317    0.240
        48 -10.4499    136.0000    128.9558   1.0148292026e+02   2.9472353209e+01    0.2469735   0.08378153 -47.23 0.0008049372    2.960    0.662
        49 -11.0922    119.6914    125.3063   1.0459976958e+02   3.3459242380e+01    0.2899976    0.1674556 -31.56  0.001161038    2.434    0.589
        50 -11.0416    160.7465    126.7864   9.5244193446e+01   2.4633147676e+01    0.3373734    0.2551897 -50.58  0.001322078    1.370    0.270
        51 -10.2392    110.1153    120.2066   1.0584070275e+02   3.6327407234e+01     0.200607    0.1899882 -24.89 0.0003585907    1.157    0.135
        52 -11.5884     64.0492    113.9932   1.1645121549e+02   4.4712075555e+01    0.2007263    0.1737107 -64.61 0.0005743343    1.007    0.007
        53 -10.2361    167.7130    112.6800   9.0215874913e+01   2.5865093447e+01    0.3165473    0.2255243 -81.32  0.001317828    2.097    0.523
        54  -9.7684    205.6053    110.2254   8.1746380019e+01   1.7360347511e+01    0.2062532    0.1465919 -25.01 0.0006289131    1.547    0.353
        55 -11.5027     71.8952    102.4912   1.1197149866e+02   4.6190582816e+01    0.3687547    0.2255835  18.84  0.001389612    2.330    0.571
        56 -13.7548    177.8207     40.1392   6.7836648214e+01   3.5735643455e+01    0.9717525    0.6362323 -18.06 0.0009796604    1.811    0.448
        57 -11.4212     80.7191    249.5307   1.3024256159e+02   1.5242201447e+01    0.5898676    0.2874756  83.82  0.003171568    2.626    0.619
        58 -11.6663     87.3851    239.9533   1.2832683209e+02   1.5876202415e+01    0.2406594    0.1820313  75.66 0.0006305019    1.102    0.092
        59 -10.2787     42.4338    228.4620   1.3469884747e+02   2.3801040343e+01     0.153137   0.08798584  76.95 7.492821e-05    1.433    0.302
