#   1 NUMBER                 Running object number                                     
#   2 MAG_AUTO               Kron-like elliptical aperture magnitude                    [mag]
#   3 X_IMAGE                Object position along x                                    [pixel]
#   4 Y_IMAGE                Object position along y                                    [pixel]
#   5 X_WORLD                Barycenter position along world x axis                     [deg]
#   6 Y_WORLD                Barycenter position along world y axis                     [deg]
#   7 A_WORLD                Profile RMS along major axis (world units)                 [deg]
#   8 B_WORLD                Profile RMS along minor axis (world units)                 [deg]
#   9 THETA_WORLD            Position angle (CCW/world-x)                               [deg]
#  10 FWHM_WORLD             FWHM assuming a gaussian core                              [deg]
#  11 ELONGATION             A_IMAGE/B_IMAGE                                           
#  12 ELLIPTICITY            1 - B_IMAGE/A_IMAGE                                       
         1 -15.2362    192.4735    156.2030   4.7488689991e+01   1.4143251303e+01      9.84415     6.609713 -68.58   0.05005242    2.141    0.533
         2 -15.9506    247.8658     77.6953   2.6326572343e+01   1.8635719462e+01     5.226666     2.255821 -65.78   0.01725715    3.132    0.681
         3 -16.7312    243.7966    108.8161   3.1832292265e+01   1.4733606540e+01     3.686943     2.964146  79.24    0.0139765    1.498    0.332
         4 -14.3938    243.9594     59.8112   2.3748211638e+01   2.1599892513e+01     2.358473     1.498393  42.83   0.01497162    3.039    0.671
         5 -11.1086    142.2044     37.5288   3.0407999558e+01   4.3606010725e+01    0.6877891    0.3524648 -24.68  0.001855762    3.029    0.670
         6 -10.3320    164.7937     40.6561   2.7996909383e+01   3.8390959797e+01    0.6320869    0.3706623 -12.28 0.0006292126    4.650    0.785
         7 -10.9290    204.1302     18.2985   1.9656347483e+01   3.3280058681e+01    0.4534405    0.2743125  85.81  0.003163213    1.422    0.297
         8  -9.2161    212.6572     13.6713   1.8245691314e+01   3.2239587434e+01      0.37107    0.1330373  56.30  0.001838877    3.957    0.747
         9  -9.9411    221.2282      9.2829   1.6972493759e+01   3.1204696777e+01     0.444658    0.1735932  56.22  0.002354883    3.868    0.741
        10  -7.8854    237.8305      6.1012   1.5574605640e+01   2.8780156825e+01    0.1411146    0.1024508  85.99 0.0006283256    1.373    0.272
        11  -9.5470    224.8100     12.3655   1.7277039114e+01   3.0276110736e+01    0.3101755    0.1357424  61.29  0.001908539    2.719    0.632
        12  -9.7032    229.5689      9.8532   1.6597887703e+01   2.9741776423e+01    0.3385105    0.1207902  59.91  0.001861923    3.606    0.723
        13  -8.5591    227.7550      6.4823   1.6150279470e+01   3.0388374280e+01    0.1373881    0.1005138  82.63  0.001142362    1.389    0.280
        14 -11.0318    119.1943      9.6515   2.6599527976e+01   5.1697052118e+01    0.5672738    0.3603829  55.38  0.002596298    1.460    0.315
        15  -9.2891    173.5241      7.6135   1.9987420822e+01   4.0261169060e+01    0.2004216    0.1821568  38.42 0.0007070062    1.681    0.405
        16 -10.1518     98.7383      5.5980   2.8802326854e+01   5.6637939957e+01    0.3148565    0.1480918  46.35 0.0006678833    2.131    0.531
        17  -9.3875    233.5071      3.0306   1.5305939134e+01   2.9787530175e+01    0.1675539    0.1115122  78.40 0.0004378269    1.527    0.345
        18 -10.0223    217.1844    156.1460   4.3398993008e+01   1.0673992343e+01    0.3682749    0.2575338 -64.37  0.001657786    1.795    0.443
        19 -10.2067    249.2478    248.8048   5.3076486094e+01  -7.2895767216e+00    0.3098691    0.1767321 -32.95  0.002201048    1.298    0.230
        20 -11.6694    237.0078    247.1491   5.4770768652e+01  -6.1329364645e+00     0.513963    0.3382535 -21.72  0.003757158    1.082    0.075
        21  -8.6049     90.0824    250.6620   8.6446761816e+01   8.4648150498e+00    0.1981587    0.1104368  23.83 0.0003262244    1.529    0.346
        22 -10.1948    182.0130    244.9584   6.4444068253e+01  -8.3324104893e-01     0.266435    0.1997875  37.50 0.0008829226    1.792    0.442
        23  -9.6536    124.2948    140.6945   5.9231775310e+01   2.8850837755e+01    0.2707739    0.1877292 -52.68 0.0008286008    1.468    0.319
        24  -9.1175     28.1733    134.3376   9.0137100745e+01   4.4982691636e+01    0.2676456    0.2127203 -71.91 0.0006026815    1.300    0.231
        25 -13.1940     12.1259    121.3458   9.4542193482e+01   4.9766741089e+01     1.928726     1.732512  71.55  0.008929084    1.254    0.202
        26 -12.5308     50.9474    120.2881   7.8669918135e+01   4.6094144073e+01     1.011972    0.7134006 -20.03  0.004620994    1.591    0.372
        27  -8.6513    160.8234    175.6151   5.7410798840e+01   1.5065829227e+01    0.2565397    0.1857506 -51.90 0.0007108397    1.413    0.292
        28 -10.4607    146.5412    111.1283   4.7276501561e+01   3.0863459783e+01     0.300611    0.2873409 -45.14 0.0007660231    1.071    0.066
        29 -15.1097    236.7441     85.8631   2.8711285757e+01   1.9131945363e+01     1.121171    0.8528719 -46.86  0.008357899    1.208    0.172
        30 -10.1198    213.7512    242.4579   5.8034860913e+01  -3.4779781585e+00    0.2964554    0.1391384  35.42  0.001572949    2.783    0.641
        31 -10.5774    193.1047    194.8053   5.4244603003e+01   6.8412454130e+00    0.8961256    0.4954101 -66.22  0.003295009    4.585    0.782
        32  -8.7441    115.0983    241.4982   7.9070136439e+01   7.3913222628e+00    0.2095002     0.181227 -36.20 -0.0004406503    1.242    0.195
        33  -9.4267    140.0568    102.9056   4.6803531367e+01   3.3746530313e+01    0.3168351    0.2456082  85.12 0.0008675499    1.553    0.356
        34  -9.5310    129.0295    190.4174   6.7681907107e+01   1.6641506617e+01    0.2485103     0.201904 -43.61 0.0001706513    1.228    0.186
        35  -7.6821     22.7174    210.7049   1.0055556995e+02   2.5029346849e+01    0.1360675     0.100869 -34.91 0.0002429507    1.539    0.350
        36  -8.0869    110.5010    167.4445   6.8457404474e+01   2.4924759130e+01     0.152102    0.1462896  16.13 6.843005e-05    1.052    0.050
        37  -9.1519    134.2334     82.6440   4.3186926124e+01   3.8661668166e+01    0.4957308    0.1498638 -39.79   0.00152237    3.701    0.730
        38  -8.2014    122.6742     86.3430   4.6774998006e+01   4.0458658608e+01    0.1956009    0.1250257  43.83 0.0009261211    1.553    0.356
        39  -8.5273    120.9740    202.8049   7.1856897527e+01   1.5000435280e+01    0.2101925    0.1863274  46.65 0.0005015176    1.300    0.231
        40  -8.0423    106.3043     80.3582   4.9414662992e+01   4.5021939841e+01    0.1440945    0.1130238   8.32 0.0007039406    1.721    0.419
        41  -7.8946     48.3172    212.3315   9.3436606253e+01   2.2069322899e+01    0.1504087    0.1041744 -28.44 0.0007047249    1.687    0.407
        42  -8.4852     93.9635     72.5600   5.0755702954e+01   4.9020572207e+01    0.1920527    0.1887898 -50.40 0.0002699628    1.119    0.106
        43  -9.2450    235.8061    187.1919   4.5790188026e+01   3.2265099752e+00    0.3099745     0.172434 -40.05  0.001663792    1.389    0.280
        44  -8.1475    162.4990     67.5434   3.4355849274e+01   3.5160235218e+01    0.1275103    0.1116532 -84.76 1.721452e-05    1.004    0.004
        45 -10.6401    164.2928     51.0745   3.0388660039e+01   3.7139973550e+01    0.3224327    0.2409426  22.23  0.001786447    2.411    0.585
        46  -9.9391    166.6533     65.5225   3.3268739125e+01   3.4610166830e+01    0.2470628    0.1785752 -33.73  0.001054192    1.642    0.391
        47 -10.7192    161.5132     62.5378   3.3376879851e+01   3.6106568087e+01    0.3703844    0.3172595  -8.58  0.002289826    1.715    0.417
        48 -11.8424    167.7764     57.9199   3.1424555807e+01   3.5477925862e+01    0.4777555      0.40533  88.32  0.003186828    1.050    0.048
        49 -10.6101    172.3051     64.7610   3.2280484896e+01   3.3577852187e+01    0.3391967    0.2992862  85.07  0.001624428    1.100    0.091
        50 -10.4445    173.7906     59.1185   3.0858430742e+01   3.4089333327e+01    0.2808267     0.215826 -29.97  0.001735052    1.666    0.400
        51  -7.5954     37.7184    160.2702   9.0480166644e+01   3.6977402962e+01    0.1496168    0.1103828  55.49 0.0006897234    1.494    0.331
        52  -9.8429    136.9708     51.3217   3.4741631378e+01   4.2956471910e+01    0.5828477    0.2783086 -19.97  0.001837229    6.192    0.839
        53  -9.9791    191.3829    239.9809   6.1837958865e+01  -9.4709208887e-01    0.2960836    0.1890749  36.28  0.001722734    1.995    0.499
        54  -9.1486    145.4753     30.0603   2.8096042852e+01   4.3779217217e+01    0.2342167    0.1830125 -19.49  0.001108283    1.822    0.451
        55 -11.0823    151.2881     49.6906   3.1965622060e+01   4.0070904808e+01    0.4497243    0.2416277  69.71  0.002301353    1.773    0.436
        56  -9.2414    143.1901     51.1586   3.3623725285e+01   4.1619860457e+01    0.1774755      0.16267  68.51 0.0006531868    1.163    0.140
        57 -10.0310    171.7742    237.0237   6.5368335773e+01   1.6291051834e+00    0.2947324    0.2264175  49.47  0.001195857    2.033    0.508
        58 -10.3312    133.5749     41.7412   3.2879139119e+01   4.4978905315e+01    0.3081075     0.244014 -13.15  0.001823434    1.829    0.453
        59  -9.9320    147.7998     42.0873   3.0674845588e+01   4.1818796013e+01    0.2051088     0.183259  -1.69  0.001341138    1.613    0.380
        60  -9.0109    157.3849     33.8159   2.7394925291e+01   4.0782023791e+01     0.321358    0.2272649   8.46  0.001685414    3.026    0.670
        61  -9.7953    173.3816     46.3119   2.8160740833e+01   3.5906181677e+01    0.2500837    0.1529929  47.88 0.0009692786    2.100    0.524
        62  -8.4772    181.2607     31.8085   2.4239433356e+01   3.6117913762e+01     0.254865    0.1345572 -75.64  0.001394328    1.998    0.499
        63  -9.5220    132.7066     32.8127   3.0705960490e+01   4.6266169937e+01     0.217886    0.1450311  59.06 0.0006025921    1.358    0.264
        64  -9.5956    134.8537     23.6994   2.8021714782e+01   4.6816666761e+01    0.3080117    0.2202179  -6.29  0.001780559    2.328    0.570
        65  -9.0016    236.0129     21.4544   1.8098755651e+01   2.7450105212e+01     0.222646    0.1647971  47.46  0.001664595    2.433    0.589
        66  -8.4817     40.9768    238.1943   9.7852562932e+01   1.6632467741e+01    0.1925863    0.1667005 -11.47 0.0004261733    1.276    0.216
        67  -9.7912    163.1779    229.9139   6.6123285920e+01   3.9031742964e+00     0.238205    0.1951844  54.15  0.001380811    1.864    0.463
        68  -8.8683    156.6807    223.3420   6.6535257889e+01   5.9349424343e+00    0.2669917    0.1741962 -76.54    0.0011098    3.498    0.714
        69  -8.9202    248.9791     16.8251   1.6660772092e+01   2.5914686269e+01    0.2084606   0.09820152  66.32  0.000991868    2.416    0.586
        70  -8.3964    142.5122     15.9855   2.5056074260e+01   4.5938896220e+01    0.1601668    0.1138137 -40.53  0.001035702    1.599    0.375
        71  -7.9259     42.2185    214.5601   9.5395157622e+01   2.2164325625e+01    0.1920228    0.1324483   4.73 0.0009291521    1.580    0.367
        72 -11.6989    221.9688    244.8398   5.6946767913e+01  -4.5630395619e+00    0.5314032    0.2542129   8.71  0.002941717    2.291    0.563
        73 -14.8141    243.7405    135.3583   3.6234668195e+01   1.0650530381e+01      1.82749    0.7903129 -44.42  0.006318119    1.772    0.436
        74  -8.6762     72.4827    176.9857   8.1527422221e+01   2.8239644470e+01    0.2257946    0.1957327  19.02  0.001145026    1.112    0.101
        75 -12.1384     67.3380    140.6660   7.6794207024e+01   3.8518913750e+01     5.666585     1.878543 -63.77   0.01636827    3.775    0.735
        76 -12.0681     44.2860    119.7255   8.1174649749e+01   4.7095467260e+01    0.7231441    0.5391803 -48.25 0.0008233308    1.311    0.237
        77  -8.3612     47.9413    147.1179   8.4861353605e+01   3.9402894399e+01    0.2278065    0.2047428  60.04 0.0005538925    1.213    0.176
        78 -11.8087     60.9917    120.8572   7.4955117525e+01   4.4532664808e+01    0.7605082    0.6063769 -25.60  0.001853852    1.312    0.238
