#   1 NUMBER                 Running object number                                     
#   2 MAG_AUTO               Kron-like elliptical aperture magnitude                    [mag]
#   3 X_IMAGE                Object position along x                                    [pixel]
#   4 Y_IMAGE                Object position along y                                    [pixel]
#   5 X_WORLD                Barycenter position along world x axis                     [deg]
#   6 Y_WORLD                Barycenter position along world y axis                     [deg]
#   7 A_WORLD                Profile RMS along major axis (world units)                 [deg]
#   8 B_WORLD                Profile RMS along minor axis (world units)                 [deg]
#   9 THETA_WORLD            Position angle (CCW/world-x)                               [deg]
#  10 FWHM_WORLD             FWHM assuming a gaussian core                              [deg]
#  11 ELONGATION             A_IMAGE/B_IMAGE                                           
#  12 ELLIPTICITY            1 - B_IMAGE/A_IMAGE                                       
         1 -10.1744     86.9453     17.3507   6.5899745064e+01   6.0351535870e+01    0.3408711    0.2870492 -56.89  0.002006472    1.640    0.390
         2 -10.8360     21.3431     15.6805   9.2019175806e+01   7.0450176333e+01    0.8784528    0.3456961 -32.44  0.004289892    2.327    0.570
         3 -10.9880      9.6241     14.0480   9.7450099031e+01   7.1697193111e+01    0.4519188    0.3164021 -56.32  0.003026763    1.729    0.422
         4 -10.3173      7.0140      3.4992   9.3996803400e+01   7.3580987561e+01    0.2153781    0.1743913 -10.43 0.0009040029    1.211    0.174
         5 -11.2302     11.4701      6.8570   9.3121053540e+01   7.2709749798e+01    0.6943225    0.3967337   0.71  0.004339645    1.837    0.456
         6 -10.0314    155.3199     16.5113   5.0069410350e+01   4.4401534709e+01    0.3751949    0.2389881   7.17  0.001296301    2.134    0.531
         7 -10.4411    102.3262     14.9002   6.0473304940e+01   5.7381388243e+01    0.4645992    0.2838972 -20.31    0.0018768    1.694    0.410
         8 -10.9308    183.3499     12.6278   4.4875045458e+01   3.7602075210e+01    0.7420709    0.3514844  51.50  0.003216678    2.098    0.523
         9  -9.6740     34.4137     14.5876   8.5046452365e+01   6.9228036315e+01    0.2426555    0.1629849 -13.29 0.0006890123    1.317    0.241
        10 -10.4208    121.6077     12.1850   5.4815666925e+01   5.3224007688e+01    0.5144001    0.2476806  45.55   0.00228937    1.885    0.470
        11  -9.8043    210.0194      9.9108   4.1193093737e+01   3.1173796287e+01    0.3813641    0.2182771 -51.05  0.001541377    1.673    0.402
        12 -10.3340     57.5158     13.9687   7.4648376048e+01   6.6090007737e+01    0.3759869    0.2444835  32.64    0.0017987    1.473    0.321
        13  -9.5769     41.2082      8.9393   7.9067721566e+01   6.9153146096e+01    0.2813869    0.2285362 -64.13  0.001688706    2.491    0.598
        14  -9.3343     37.5721      4.5659   7.8456988540e+01   7.0205956963e+01    0.2432834    0.1642136  53.05  0.001266926    2.605    0.616
        15 -10.6496     19.1808     10.8462   9.0875132283e+01   7.1414190698e+01    0.2165248    0.1557603   3.86 0.0003037804    1.316    0.240
        16 -10.3483     16.2609      8.6282   9.1357063551e+01   7.2023654505e+01    0.1924434     0.148626 -14.79 0.0005853152    1.077    0.072
        17  -9.6414     79.0138      6.7806   6.3550338052e+01   6.3080874483e+01    0.2962553    0.1963301   6.98  0.001647627    1.528    0.346
        18  -8.3722    227.2989      7.7006   3.9077836164e+01   2.7244349865e+01    0.1371705   0.08206524 -62.88 0.0002599274    1.578    0.366
        19  -9.3730     93.4149     10.7572   6.1104963272e+01   5.9741377149e+01    0.2196329    0.1942638 -54.10  0.001345197    1.468    0.319
        20  -8.3984    127.4123      5.5053   5.1110433177e+01   5.2446355688e+01    0.1349462    0.1196776  44.23 7.351401e-05    1.023    0.023
        21  -9.2499     90.4289      3.8253   5.8850292250e+01   6.1042013672e+01    0.3183199    0.1491821  61.39  0.001433473    2.309    0.567
        22  -8.9120     51.4351      3.0192   7.1563130115e+01   6.8368549698e+01    0.2965307    0.1621988  19.70  0.001570139    1.937    0.484
        23  -9.6828    190.2573      2.4137   4.1194007605e+01   3.6855724987e+01    0.3590198     0.198554 -72.51  0.001654625    2.029    0.507
        24  -8.8559     30.5332      3.0074   8.1010769667e+01   7.1303870911e+01    0.1736403   0.09515024 -30.47 0.0003634022    1.584    0.369
        25  -8.8973     22.1061      3.4009   8.5549662274e+01   7.2212855805e+01    0.1478552    0.1151627  -5.82 0.0005198616    1.099    0.090
        26  -8.6557    103.9616      1.7808   5.4553734058e+01   5.8266463990e+01    0.2108798    0.1496655 -75.96  0.001081061    2.137    0.532
        27  -8.6481     42.2274      1.9912   7.4945395024e+01   6.9874153055e+01    0.1422217   0.08388843 -24.48 0.0003084293    1.516    0.341
        28  -9.0343    241.9746      1.4672   3.6508046656e+01   2.4526312426e+01    0.1781906    0.1102379  79.87 0.0004055747    1.517    0.341
        29  -8.5031    137.0503      1.2026   4.7832426691e+01   5.0441375953e+01    0.1790558   0.09552304  64.68 0.0003383165    1.649    0.394
        30  -8.9762      3.2627    122.5755   1.2364521518e+02   4.8991975187e+01    0.2430383    0.1254709 -41.08  0.001305037    2.398    0.583
        31  -8.3904     89.9835    121.9734   9.9280731339e+01   3.9484332611e+01    0.1677013    0.1596563 -78.63 0.0009472929    1.035    0.034
        32 -10.0892     69.6267    117.9662   1.0426918439e+02   4.3544352831e+01    0.3422941    0.2547993 -80.21 0.0009211274    1.404    0.288
        33  -8.9751     20.8273    118.9663   1.1847651833e+02   4.8588178338e+01    0.1722885    0.1304519 -72.90  0.001096799    1.052    0.049
        34 -10.5398     26.1512    116.6490   1.1665828754e+02   4.8699364857e+01    0.3382038    0.2730325  10.66  0.001569529    1.637    0.389
        35  -9.9733     98.3528    117.5913   9.5931448425e+01   3.9095455888e+01    0.2521832    0.2387344 -25.84 0.0005686932    1.148    0.129
        36  -9.9007     58.2702    116.7117   1.0734242363e+02   4.5342749146e+01    0.3606044    0.1555509 -50.67  0.001521068    2.117    0.528
        37  -9.7963     39.7661    114.0956   1.1231563135e+02   4.8049213568e+01    0.2691652    0.1811076   4.96  0.001429644    2.165    0.538
        38  -9.6317      2.1291    113.4514   1.2298954480e+02   5.1160794931e+01    0.3307981    0.2093358  82.78  0.002037117    1.497    0.332
        39  -8.7998     90.7110    111.5867   9.6704022175e+01   4.1827716011e+01    0.2416881    0.1695011 -74.97 4.784605e-05    1.688    0.408
        40  -9.4620     50.0984    112.1739   1.0890714379e+02   4.7405310150e+01    0.2359306    0.1728521  59.64 0.0007380011    1.557    0.358
        41 -10.8736     15.1069    109.6180   1.1885459416e+02   5.1213376300e+01    0.4911629    0.3051908  22.22  0.002171352    2.049    0.512
        42  -9.7555     16.7366    104.7830   1.1769634574e+02   5.2228421294e+01    0.2372465    0.1819097  75.32  0.001240022    1.387    0.279
        43 -10.1977     11.6604    114.9420   1.2052164485e+02   5.0209744761e+01    0.2680824    0.1831889 -46.64 0.0009500876    1.532    0.347
        44  -9.8192     27.3515    108.6019   1.1510100813e+02   5.0503972711e+01    0.3103613    0.1777541 -72.71  0.001663354    1.489    0.328
        45  -8.5543    127.9735    109.5463   8.5789428573e+01   3.5172296731e+01    0.2246646    0.1540758  42.67 0.0004426277    1.499    0.333
        46 -10.0309     71.6709    107.4925   1.0142059244e+02   4.5763169607e+01    0.3111872    0.2185019 -76.99 0.0001638662    1.601    0.375
        47  -8.9447     34.9831    107.4602   1.1261680942e+02   5.0095647894e+01    0.2041067    0.1474276 -63.26   0.00080144    1.140    0.123
        48  -9.5264      7.1916    107.9099   1.2091947096e+02   5.2135311242e+01    0.1883205     0.166375 -44.94 0.0003688282    1.308    0.236
        49  -8.8181     41.4875    106.4938   1.1046125692e+02   4.9690099691e+01     0.132943    0.1117027 -67.04 -4.193804e-05    1.012    0.012
        50 -10.4965     80.3191    103.4961   9.7852111947e+01   4.5415288602e+01    0.3889702    0.3324043   7.52  0.001991362    1.396    0.284
        51  -9.8621      8.8155    103.8149   1.1991932107e+02   5.2982762899e+01    0.2859029    0.1630426 -49.10  0.001406468    1.642    0.391
        52  -8.6649      7.6957    100.2821   1.1977880890e+02   5.3868124796e+01    0.1738544    0.1373412  89.10 0.0002083883    1.218    0.179
        53  -9.5372    108.8604    103.0589   8.9304995048e+01   4.0512507841e+01    0.3338187    0.2163602  36.64 0.0008971969    1.666    0.400
        54  -8.5050     89.7930    102.3953   9.4711529311e+01   4.4131860855e+01    0.1798281    0.1430304  20.58 0.0001592249    1.482    0.325
        55  -9.0771     57.3221    102.6887   1.0478634630e+02   4.8815472879e+01      0.13667    0.1017382  79.20 0.0005507164    1.652    0.395
        56  -9.5071     52.9901     99.5631   1.0547914924e+02   5.0076350560e+01     0.365143     0.169263 -60.33  0.001615455    1.877    0.467
        57 -10.1296     59.5323     99.8639   1.0346778982e+02   4.9207399323e+01     0.217935    0.1611627  38.12  0.001188653    1.523    0.343
        58  -9.0177     44.4919    101.0000   1.0847312438e+02   5.0683186477e+01    0.2703234   0.07741138  27.95 0.0009589343    4.133    0.758
        59  -9.7456     16.3025     96.1155   1.1651307193e+02   5.4277796738e+01    0.3567046    0.1955926  85.53  0.001212308    2.257    0.557
        60  -9.7955     69.0429     96.2171   9.9585404062e+01   4.8790429681e+01    0.2570922    0.1897026 -61.21 0.0003732394    1.276    0.216
        61  -9.4585     63.5143     96.9983   1.0153886134e+02   4.9364424206e+01    0.2095324    0.1250978 -59.22 0.0003828307    1.519    0.342
        62  -9.0355    147.8590     96.0734   7.6998883931e+01   3.3611083971e+01    0.2473427    0.2100859 -68.97 0.0008224196    1.324    0.245
        63  -8.6334     97.2126     96.3541   9.0891013955e+01   4.4213833443e+01    0.2001733    0.1389138  49.81 0.0005666242    1.587    0.370
        64  -9.8849     79.5337     95.1710   9.6000215870e+01   4.7472157719e+01    0.3180432     0.288839  62.90   0.00152939    1.232    0.189
        65  -9.0777     82.7398     92.0039   9.4151746476e+01   4.7684869121e+01    0.2523379    0.2139855  23.67   0.00064472    1.310    0.237
        66  -9.4623     37.4708     94.2387   1.0937167633e+02   5.2980755009e+01    0.2456126    0.1530313 -39.45  0.001308651    1.648    0.393
        67  -9.9014    132.3267     93.8822   8.0297844553e+01   3.7613708429e+01     0.291658    0.2257498  36.63 0.0003936914    1.361    0.265
        68  -8.9345    153.2693     93.2260   7.4882748161e+01   3.2911907981e+01     0.206926    0.1824554 -82.00 0.0004105237    1.284    0.221
        69  -8.2958      9.4604     93.4809   1.1826230227e+02   5.5328470833e+01     0.121989   0.09513538 -71.05 4.920023e-05    1.041    0.040
        70  -9.1631     89.1689     92.1801   9.2192770060e+01   4.6573208769e+01    0.2227438    0.1971958 -15.62 0.0006947066    1.218    0.179
        71  -9.9360     52.0523     91.0123   1.0386463842e+02   5.2187901234e+01    0.4024836    0.1667857 -52.23  0.001145276    2.001    0.500
        72  -9.7951     56.8166     89.9379   1.0202731151e+02   5.1864297108e+01    0.2366652    0.1951192  34.75 0.0004498568    1.383    0.277
        73  -9.4222     43.9863     91.6472   1.0668343360e+02   5.2932638333e+01    0.1731307    0.1667347 -52.75 0.0006809257    1.138    0.121
        74  -7.9410     19.2936     92.2862   1.1492571482e+02   5.4954639722e+01    0.1245585   0.07609632 -44.88 0.0002524654    1.543    0.352
        75 -11.1414    120.0235     87.0189   8.1596221296e+01   4.1737302932e+01    0.5569547     0.398841 -59.87  0.002521025    1.611    0.379
        76 -10.1845    124.7206     85.6617   7.9896458057e+01   4.1003617844e+01    0.2985912    0.2755033   6.05 0.0006096368    1.143    0.125
        77 -10.2937    110.1959     88.8804   8.4938532484e+01   4.3379270668e+01    0.3371058    0.3104689  12.72  0.001801459    1.150    0.131
        78  -9.0611     15.6903     90.0842   1.1572211830e+02   5.5712973345e+01    0.2008223    0.1419193 -32.45  0.001220558    1.572    0.364
        79  -9.3540      2.7977     90.0512   1.1986767714e+02   5.6487775636e+01     0.214405   0.08618359 -51.72  0.001089295    2.005    0.501
        80  -9.0750     47.7392     88.9794   1.0483163783e+02   5.3147854273e+01    0.1954246     0.144855 -57.27 0.0003235738    1.151    0.132
        81  -8.7518     21.5233     89.4294   1.1369182472e+02   5.5451942419e+01    0.1248408    0.1010521 -63.81 8.216062e-05    1.021    0.020
        82  -9.9745    131.6684     87.2586   7.8519729649e+01   3.9133374367e+01    0.3024967    0.2585418 -16.28  0.000560617    1.275    0.216
        83 -10.9236    135.1581     83.0600   7.6342087419e+01   3.9185920630e+01    0.3675327    0.3139881  64.58            0    1.275    0.216
        84  -8.2240      9.4823     88.6022   1.1750160351e+02   5.6445274567e+01    0.1199224   0.09460564 -65.25 0.0001267233    1.021    0.021
        85  -8.4127     84.9726     87.0000   9.2059493031e+01   4.8441461336e+01    0.2223714   0.08396521  38.29 0.0007910809    2.864    0.651
        86  -9.8413     27.2068     85.0031   1.1093201867e+02   5.6028659910e+01    0.2270585    0.2044794 -57.65  0.001124959    1.109    0.098
        87  -8.9248     66.2283     85.0391   9.7634561555e+01   5.1747958560e+01    0.2432507    0.1747178  66.72 0.0009609193    1.969    0.492
        88 -10.3049     46.5085     84.4190   1.0417540465e+02   5.4330851363e+01    0.3051955     0.249245  44.69  0.000882915    1.449    0.310
        89  -8.8079    173.7133     84.6416   6.7860200188e+01   2.9584739180e+01    0.1605457    0.1242898   8.26  0.000400461    1.680    0.405
        90  -8.7977     81.5155     84.4978   9.2453441371e+01   4.9565191927e+01    0.2144291    0.1268568 -42.02  0.000533807    1.590    0.371
        91  -9.1815     80.8794     80.9057   9.1617200643e+01   5.0457021871e+01    0.2704475    0.1993849 -47.52  0.001024918    1.249    0.199
        92 -10.3814     75.8288     82.9768   9.3874633978e+01   5.0802153993e+01    0.3455947    0.2786546 -83.07  0.001119847    1.583    0.368
        93  -8.2456     33.7191     84.3090   1.0855293948e+02   5.5629097231e+01    0.1214989   0.09327532  85.10 0.0002655817    1.562    0.360
        94  -9.6889    110.1035     71.9271   7.9703944931e+01   4.6893150955e+01    0.3698139    0.2392982  21.06  0.001119472    2.096    0.523
        95  -9.3420    101.0749     82.5479   8.5745836406e+01   4.6522471254e+01    0.2897487    0.2330107  39.01 0.0008821212    1.305    0.233
        96 -11.6617    105.0228     78.9260   8.3442565096e+01   4.6512298354e+01    0.5017046    0.4915827  39.49  0.001719495    1.087    0.080
        97  -8.4136      1.4783     83.4748   1.1932798789e+02   5.8043048256e+01    0.1187978   0.09135056 -69.65 3.205012e-05    1.049    0.047
        98  -9.9956    144.0733     81.3333   7.3575865849e+01   3.7439767850e+01    0.3023529    0.2546841 -89.82  0.001454739    1.427    0.299
        99  -9.0693     55.6347     80.3417   9.9990345179e+01   5.4194407764e+01    0.3635666   0.09682015 -50.98   0.00125886    3.008    0.668
       100  -9.5343     51.0041     81.1317   1.0180544926e+02   5.4571506801e+01    0.1986003    0.1709957 -48.49 0.0005702139    1.007    0.007
       101 -10.8729      6.3185     80.0653   1.1715845796e+02   5.8560626386e+01      0.34181    0.2285592  83.49  0.002079756    1.710    0.415
       102  -9.8695    153.7488     79.8385   7.0820425507e+01   3.5395000171e+01    0.3104001    0.1973599  65.29  0.001269126    1.864    0.463
       103  -9.2858     21.8415     80.1861   1.1181046916e+02   5.7543129183e+01    0.2493484    0.1429801 -60.69 0.0008914519    1.372    0.271
       104 -10.5532     20.8179     75.1824   1.1113566676e+02   5.8745308519e+01     0.297221    0.2008043 -66.23 0.0006834622    1.272    0.214
       105  -9.2537     43.8223     78.7717   1.0372919636e+02   5.5899176164e+01    0.1982562    0.1523051 -38.44 0.0009178314    1.208    0.172
       106  -9.8286     28.2830     78.1031   1.0909570407e+02   5.7510415973e+01    0.2132671    0.1658693 -41.47 0.0003543897    1.185    0.156
       107 -10.9597     76.8247     75.4440   9.1326316256e+01   5.2286339950e+01    0.5472228    0.2798462  26.88  0.001653198    2.494    0.599
       108  -9.3876     49.1587     76.9580   1.0136926954e+02   5.5719429125e+01    0.1962633    0.1691497 -68.76 0.0004844163    1.225    0.184
       109 -10.5023     56.4312     72.6476   9.7583378022e+01   5.5793774672e+01    0.7038212    0.3525017 -22.34  0.002471345    3.947    0.747
       110 -11.3554    158.0470     73.3375   6.7871170571e+01   3.5531962359e+01    0.7623949    0.2886827 -31.87  0.002436419    2.948    0.661
       111 -11.0708    162.2473     68.0772   6.5349097378e+01   3.5408314532e+01    0.6188781    0.3806756  34.56  0.002519145    1.981    0.495
       112  -8.9163    129.7664     75.3925   7.5360792667e+01   4.1922780397e+01    0.2219612    0.1424125  38.71 0.0009484891    1.649    0.394
       113 -10.8151    151.8002     73.5519   6.9347589896e+01   3.7034333202e+01    0.4120844    0.3053378  45.80  0.001285973    1.357    0.263
       114  -8.7860     10.4776     73.9730   1.1460804095e+02   5.9690900004e+01    0.2439294    0.1194162  59.97  0.001065716    3.687    0.729
       115  -8.5693    177.5152     72.4975   6.3569912034e+01   3.0798342106e+01    0.1519316    0.1514775  -9.91 -3.23682e-05    1.034    0.033
       116  -9.6736     84.1797     73.5536   8.8295625761e+01   5.1477884066e+01    0.4141144    0.2688147  33.51  0.001996451    1.671    0.402
       117  -8.8508     38.9801     71.5117   1.0362538744e+02   5.8010101504e+01    0.1684149    0.1286944  15.82 0.0005160383    1.531    0.347
       118 -10.9532    142.4411     69.1788   7.0179095360e+01   4.0103707575e+01    0.3944492    0.2999559 -10.65  0.001487667    1.578    0.366
       119 -10.5543     97.1198     69.5378   8.2845474825e+01   4.9957292471e+01    0.2873859    0.2503099 -38.01 0.0002836642    1.100    0.091
       120  -9.1887     27.8371     68.8345   1.0709840439e+02   5.9610827790e+01    0.3046373    0.1404068 -42.51  0.001490296    1.921    0.479
       121  -8.8073    197.5115     68.9472   5.8923068366e+01   2.6365255668e+01    0.2329212    0.1454166 -34.64 0.0005654548    1.564    0.361
       122  -8.8413    120.4673     69.4377   7.5942446261e+01   4.5149890402e+01    0.1506023    0.1447754  -2.26 0.0001557418    1.013    0.013
       123 -10.4387     88.8213     66.5887   8.4514912818e+01   5.2084733632e+01    0.4011408    0.2974178 -62.94  0.001333454    1.705    0.413
       124  -9.5947     88.8185     60.3532   8.2387009477e+01   5.3297681702e+01    0.3478833    0.2245191 -43.20  0.001452674    1.496    0.332
       125 -11.1434    151.9383     65.4881   6.6791008404e+01   3.8430542878e+01    0.4839977    0.3538802 -78.94  0.002117787    1.874    0.466
       126 -10.7281    109.5557     63.2012   7.6946770143e+01   4.8674183758e+01    0.5133129    0.4386719 -17.57  0.002723563    1.173    0.147
       127  -9.4119    111.9831     55.9685   7.3726146504e+01   4.9453906065e+01    0.2911114    0.2245932  -3.43 0.0004291133    1.482    0.325
       128  -8.7290     70.2632     67.6204   9.1142530835e+01   5.4946998826e+01    0.1861954    0.1302439  19.11 0.0009449074    1.660    0.398
       129  -9.6531     64.0083     70.7583   9.4324980329e+01   5.5193502904e+01    0.3850716    0.1837212  42.87  0.001306684    2.479    0.597
       130  -8.3610     21.9594     66.8149   1.0883161642e+02   6.0513748274e+01    0.1319335   0.09511197  13.01            0    1.675    0.403
       131 -10.6146     44.7950     63.7380   9.9282698797e+01   5.9081766187e+01    0.3404168     0.300211   0.54  0.001442036    1.230    0.187
       132 -10.9495      2.1987     62.6890   1.1546477184e+02   6.2604497582e+01    0.2712382    0.1614841 -62.60 0.0003904608    1.272    0.214
       133 -10.7090      5.7049     58.9924   1.1333525057e+02   6.3226627686e+01    0.2164364    0.1808745 -42.70 0.0007135046    1.145    0.126
       134 -10.1487    172.3513     62.8405   6.1704479549e+01   3.3729253087e+01    0.3906136    0.2760372 -14.18  0.001360427    1.739    0.425
       135  -9.8980     32.4802     63.4704   1.0393960197e+02   6.0373490587e+01    0.2810411    0.2249167 -67.83 0.0009305736    1.324    0.245
       136 -10.0205    105.0393     67.0037   7.9574706386e+01   4.8891023767e+01    0.2414527    0.2146381  50.31            0    1.217    0.178
       137  -8.2512     75.2825     62.7137   8.7778264666e+01   5.5164293433e+01    0.1271377    0.1109305 -80.66 0.0002014858    1.523    0.343
       138  -8.7879    219.9526     61.7723   5.3533151529e+01   2.1988666135e+01    0.1870361      0.11858  62.79 0.0004954684    1.636    0.389
       139  -9.5517    162.5612     60.6878   6.2997995873e+01   3.6570931114e+01    0.2844494    0.1542925 -27.38 0.0007218544    2.033    0.508
       140  -8.4499     54.4075     61.4300   9.4932222804e+01   5.8425968814e+01    0.1632237    0.1242659  40.89 1.594582e-05    1.566    0.362
       141  -9.5065     50.2160     59.9392   9.6049348801e+01   5.9250749838e+01    0.1926423      0.17336 -15.23  0.000315135    1.117    0.105
       142  -8.5024    120.6781     60.6668   7.2939875774e+01   4.6710028214e+01    0.1573903    0.1159508  10.34 0.0007049991    1.703    0.413
       143 -10.6103    159.3821     57.2613   6.2577545995e+01   3.7932079168e+01    0.4423563    0.3264476  -4.54     0.001171    1.720    0.419
       144  -9.8173    162.5782     52.4751   6.0417970845e+01   3.7869859532e+01    0.5035595    0.2157738 -37.66  0.001870347    2.290    0.563
       145 -10.6814     96.0027     56.7034   7.8786146084e+01   5.2618047050e+01    0.5634609    0.3409294 -12.10   0.00208654    2.481    0.597
       146  -9.4761     81.8858     59.2944   8.4331495238e+01   5.4732551241e+01     0.268294    0.1915874  16.52  0.001347162    1.623    0.384
       147 -10.0334    199.8604     57.0241   5.5222046969e+01   2.7653074413e+01    0.4776541    0.3097553  17.54  0.001929298    2.550    0.608
       148  -9.1512    206.4817     54.4693   5.3518334996e+01   2.6380103370e+01    0.2696914    0.2475411  40.93 0.0009688866    1.212    0.175
       149 -10.7057    204.7297     50.9834   5.2821479777e+01   2.7329394311e+01    0.6479526    0.3718577  52.88   0.00271231    1.791    0.442
       150 -10.0168    150.7611     57.8177   6.4596149144e+01   4.0012194906e+01    0.2850997    0.2492465  38.60 0.0002447967    1.154    0.134
       151  -8.8372    144.4505     58.4259   6.6217137665e+01   4.1476750215e+01     0.149242    0.1471372  52.07   6.7033e-05    1.024    0.024
       152 -10.3419     69.6553     55.9695   8.7455424172e+01   5.7372886761e+01    0.4061964    0.1910466 -35.31  0.001726033    2.121    0.529
       153 -10.1766     60.1994     57.3834   9.1427402344e+01   5.8478893297e+01    0.3681311     0.221685  13.24  0.001598344    2.209    0.547
       154  -8.9302    126.0286     57.2329   7.0335930843e+01   4.6085464184e+01    0.2058385    0.1843669  44.34 0.0002595751    1.110    0.099
       155  -9.2676     35.5077     52.5224   9.9522127041e+01   6.2374220042e+01    0.2992574    0.1049139 -52.83 0.0008934158    2.380    0.580
       156  -9.4706    105.2618     56.1470   7.5749093091e+01   5.0850244430e+01    0.2566453    0.2018454  49.14 0.0005897728    1.341    0.254
       157  -9.2690     78.9434     55.6152   8.4039970989e+01   5.5934709901e+01    0.3219227    0.1989917 -10.69  0.001381033    2.359    0.576
       158  -8.0179     26.3198     56.2895   1.0439156499e+02   6.2427180858e+01    0.1282777    0.0762968 -32.76 0.0004529784    1.600    0.375
       159  -9.6804     86.5750     54.9051   8.1192917376e+01   5.4724308211e+01    0.2358853     0.200926  43.38 5.514562e-05    1.290    0.225
       160 -10.2535    145.6961     53.3018   6.4241421774e+01   4.2000223435e+01    0.4435172    0.2778657  78.32 0.0005171812    2.271    0.560
       161  -8.8549    135.2785     54.5921   6.7105168952e+01   4.4340712344e+01    0.2188742    0.1352447  43.72 0.0006818816    1.616    0.381
       162  -9.8911     48.4917     49.7471   9.3334551779e+01   6.1498550936e+01    0.3279214    0.2688767  44.83  0.001404375    1.571    0.363
       163  -9.7869     43.4596     49.0563   9.5128432497e+01   6.2223721427e+01    0.2689602    0.1977945 -47.95  0.001104538    1.258    0.205
       164 -10.7045    179.2839     51.9833   5.7161239950e+01   3.3656509960e+01    0.4246205    0.2338197 -40.67  0.001103934    1.791    0.442
       165 -10.0114    174.0918     52.3879   5.8208450621e+01   3.4930352540e+01    0.3114517    0.2131762 -39.84  0.001449961    1.457    0.314
       166  -8.7280     29.2098     52.7658   1.0218408536e+02   6.2911245695e+01    0.1659165    0.1444859 -50.66 0.0003273879    1.169    0.145
       167  -9.9349    106.6995     51.4170   7.3619131450e+01   5.1365787608e+01    0.2501163    0.2335044   2.84 0.0003601484    1.004    0.004
       168 -10.7552     18.5313     50.7881   1.0605628740e+02   6.4168117488e+01    0.5483689    0.2655372  -5.35  0.002598907    3.084    0.676
       169 -10.0914    233.6122     51.0634   4.9042936349e+01   2.0333009685e+01    0.2429956    0.1978153  75.12 0.0003328533    1.269    0.212
       170  -9.1207    134.4708     51.4675   6.6232558411e+01   4.5038876626e+01    0.1478724    0.1442806  27.21 5.941694e-05    1.018    0.018
       171  -9.4260    126.0856     50.5110   6.7981549020e+01   4.7183137756e+01    0.3146364    0.2585912 -12.18  0.001348944    1.285    0.222
       172  -8.5817    122.0308     49.0000   6.8493963841e+01   4.8365913542e+01    0.3408681   0.08243182  52.95 0.0009537954    4.090    0.756
       173 -10.2735     82.7168     48.3594   8.0073045830e+01   5.6593659088e+01    0.5454379    0.3718854   0.95  0.002638428    1.848    0.459
       174  -9.2585     63.4500     41.4179   8.4353576304e+01   6.0993354652e+01    0.2788842    0.1865888  18.17  0.001108405    1.640    0.390
       175  -9.7194     55.3985     50.5258   9.0881872474e+01   6.0469286327e+01    0.2239763    0.1734712 -28.33 -2.361135e-05    1.132    0.117
       176 -11.5960     59.0708     47.8440   8.8486458871e+01   6.0474161417e+01    0.5208433     0.348159  25.65  0.001653685    1.609    0.379
       177  -9.0656    213.5132     49.4953   5.1190953374e+01   2.5365193449e+01    0.1440828    0.1324495 -66.18 -1.575256e-05    1.004    0.004
       178  -9.4192     97.1230     48.0895   7.5278889914e+01   5.3901642532e+01    0.3819795    0.1913661 -26.45 0.0001354327    2.270    0.559
       179  -9.4235     34.9844     47.8114   9.8212702689e+01   6.3368819724e+01    0.1826954    0.1698066  43.55  0.001251256    1.421    0.296
       180  -8.7028     10.8105     48.3430   1.0865523836e+02   6.5178501673e+01    0.1473158   0.09937035 -11.33 0.0004201613    1.649    0.394
       181  -8.8161    144.1413     46.8957   6.2441957871e+01   4.3374705761e+01    0.2360016    0.1741566  21.93  0.000267448    1.607    0.378
       182 -10.3652    143.1110     42.8140   6.1281030575e+01   4.4231200001e+01    0.5377366    0.3635775  10.52  0.002353883    2.020    0.505
       183  -8.5144     67.4949     46.4915   8.4786729060e+01   5.9474427405e+01    0.1355741    0.1179692 -17.64 8.377132e-05    1.008    0.008
       184 -10.8359    167.2590     43.3451   5.6655142535e+01   3.8013590772e+01    0.3801433    0.3330046  24.35 0.0009617302    1.261    0.207
       185  -9.5351    108.6894     44.1355   7.0351716492e+01   5.2122745653e+01    0.2820541    0.2270231  35.04   0.00150354    1.208    0.172
       186  -9.3199      7.2657     43.5799   1.0889778479e+02   6.6353973224e+01    0.2903537    0.1537208 -19.37   0.00164157    2.137    0.532
       187 -10.2062     78.5464     30.9524   7.4544904198e+01   6.0157908087e+01    0.2427353    0.2065368  11.09 0.0004735339    1.067    0.063
       188  -9.0601     75.2107     37.9584   7.8619050387e+01   5.9666207124e+01    0.1854329    0.1680541 -24.17 0.0003446197    1.157    0.136
       189  -9.0238     20.8956     45.3544   1.0344389229e+02   6.5096408503e+01    0.2689569    0.1113219 -55.76  0.001264277    2.001    0.500
       190  -9.5737    204.4778     41.4798   5.0254253622e+01   2.8732444386e+01    0.2974082    0.1947829 -47.32  0.001251508    1.476    0.323
       191  -9.7517     56.0227     41.4866   8.7278029788e+01   6.2059261072e+01    0.3005026     0.245179  48.24   0.00103974    1.624    0.384
       192  -9.4032     44.6852     39.7428   9.1246087987e+01   6.3840645395e+01    0.3413583    0.2006465 -57.46  0.001608147    2.196    0.545
       193  -9.5196     48.1424     37.4289   8.8899145866e+01   6.3828258556e+01    0.3204217    0.1591759 -34.77  0.001574724    1.816    0.449
       194  -8.8181    196.5781     41.1990   5.1279297084e+01   3.0767933096e+01    0.1937479    0.1420641 -12.47 0.0009105858    1.675    0.403
       195  -8.2702     92.7125     41.2635   7.4048844160e+01   5.5892703419e+01    0.1246821    0.1122031 -75.55 0.0001591339    1.493    0.330
       196 -10.0440     31.6766     39.7853   9.6864013515e+01   6.5245264327e+01    0.4415658    0.1447978 -46.60  0.001406487    2.398    0.583
       197  -9.1186     33.1836     34.4343   9.4207866024e+01   6.6084982848e+01    0.2550622    0.1710876  45.85  0.001341851    2.210    0.548
       198  -8.7954    187.2712     43.5696   5.3353214258e+01   3.2820823768e+01    0.2020255    0.1321419  54.24 0.0009367464    1.511    0.338
       199  -9.6387    227.1970     38.1763   4.6573663718e+01   2.3611456399e+01    0.5057632    0.1953937 -39.12  0.002054943    2.257    0.557
       200 -10.7602    127.3339     37.1613   6.2888043994e+01   4.8885399435e+01    0.3865425     0.294746 -38.62 0.0005783208    1.381    0.276
       201  -9.1436    162.2219     37.5896   5.5743245039e+01   4.0103896207e+01    0.2107898    0.1887421  84.22 0.0007043363    1.130    0.115
       202  -9.0039    149.4448     38.7497   5.8574326559e+01   4.3211572515e+01    0.2730501    0.1361873 -35.23  0.001115173    2.023    0.506
       203  -9.9692    156.7672     38.2694   5.6977754794e+01   4.1412722286e+01    0.4739585     0.239059  46.31  0.001927458    1.996    0.499
       204  -9.3599    248.0249     36.2489   4.3935083852e+01   1.9069762258e+01    0.4103996    0.1951408 -72.50  0.001638154    2.979    0.664
       205  -8.6777    102.1969     36.7865   6.9405009215e+01   5.4630175998e+01    0.1943273    0.1526794  10.74 0.0004849922    1.318    0.241
       206  -9.4980     62.5565     36.3115   8.2648307434e+01   6.1998430288e+01    0.2613458    0.1840109  13.09  0.001115685    1.504    0.335
       207  -9.0060     27.5962     36.7318   9.7581346119e+01   6.6204804490e+01    0.1630564    0.1031257 -55.21 0.0009402678    1.609    0.378
       208  -9.2930     94.1206     35.7797   7.1435493541e+01   5.6452059333e+01    0.1903422     0.180844  13.40 0.0003560176    1.114    0.103
       209 -10.5202     82.0529     37.0315   7.5860732390e+01   5.8592738057e+01    0.3875299    0.2245976 -32.43 0.0009297619    1.651    0.394
       210  -9.1445    150.0607     34.0031   5.6855071720e+01   4.3689673172e+01    0.2141121    0.2089043  72.38 0.0003440963    1.039    0.038
       211  -8.9020     77.7836     35.2050   7.6584800763e+01   5.9651093224e+01    0.2667457    0.2083285  81.84 0.0007941937    2.322    0.569
       212 -10.8414    237.3210     31.5515   4.3875110204e+01   2.2099104111e+01    0.4385209    0.3745696  74.06  0.002047218    1.220    0.180
       213 -10.2543    238.9440     22.8710   4.1658604045e+01   2.2801961319e+01    0.3804417    0.2543795  65.95  0.001294086    1.536    0.349
       214  -8.8188    184.8566     33.3284   5.0721474614e+01   3.4813811662e+01    0.2070077    0.1724634 -54.34  0.001112786    1.199    0.166
       215  -9.4900    142.1419     32.1668   5.7815404128e+01   4.5923784936e+01    0.3443857    0.2614029  58.84  0.001769073    1.254    0.203
       216  -9.0386    114.3206     32.9753   6.4575354524e+01   5.2497466110e+01    0.2001159     0.181234 -19.14  0.001144636    1.126    0.112
       217  -9.9434    109.8826     29.8050   6.4515438897e+01   5.3922646281e+01    0.4555221    0.2286971  62.58   0.00146359    2.412    0.585
       218  -9.4819    224.4009     32.0091   4.5333939677e+01   2.5081927809e+01    0.2278187    0.1794198  59.42  0.000737742    1.353    0.261
       219 -10.2781    202.3004     30.3832   4.7502445267e+01   3.0733917586e+01     0.508379    0.2612064 -67.23   0.00199796    2.594    0.614
       220  -8.7139    120.4587     32.4246   6.2807535183e+01   5.1154439486e+01     0.142941    0.1307179  29.13 8.352908e-05    1.018    0.018
       221  -9.0113     20.6721     30.8883   9.8635782101e+01   6.7889571630e+01    0.1923078    0.1403202  -9.00  0.001281467    1.344    0.256
       222  -9.7097    125.3864     30.2119   6.0794275759e+01   5.0277905884e+01    0.3082453    0.1750794  46.50 0.0006662761    1.647    0.393
       223  -8.6384     51.6399     33.1887   8.5727828014e+01   6.4098022510e+01    0.1888844    0.1005444 -31.41 0.0009438656    1.727    0.421
       224  -9.3444     70.7163     30.1127   7.6971909459e+01   6.1661723625e+01    0.2279366    0.1535171  55.57 0.0009844857    2.052    0.513
       225  -9.9381    237.4195     26.7868   4.2727032535e+01   2.2674072388e+01    0.2510171    0.2180283 -32.26 0.0008321821    1.257    0.204
       226 -10.1003    180.8039     28.5218   4.9895717404e+01   3.6461238133e+01    0.4081787    0.2345112  42.32  0.001792813    1.985    0.496
       227  -8.7048    116.5505     28.5548   6.2306937155e+01   5.2566662501e+01     0.196742    0.1701338  30.41 7.936193e-05    1.081    0.075
       228 -10.1661    120.8655     26.2263   6.0363224132e+01   5.1849563651e+01    0.4465524    0.3451206  89.16  0.001799155    1.704    0.413
       229 -10.3651     48.0408     28.1656   8.5112493710e+01   6.5409978225e+01    0.3477615    0.2304419   2.15  0.001184687    1.638    0.389
       230  -8.9058    215.2889     27.9912   4.5316577249e+01   2.7798663891e+01    0.1865032    0.1694833 -50.56  0.000378953    1.107    0.097
       231 -10.2690     16.8074     27.1420   9.9084659306e+01   6.8880453013e+01    0.2633829     0.160809 -33.17 0.0007822299    1.310    0.237
       232  -9.0514    221.9556     26.8028   4.4284490216e+01   2.6322667383e+01    0.1888676    0.1769357  59.78 0.0003519666    1.216    0.178
       233  -9.8259     80.8406     25.8995   7.1603115409e+01   6.0451870533e+01    0.3451755    0.2340211 -50.94  0.001753279    2.057    0.514
       234  -9.9475     30.1106     24.5284   9.1612627559e+01   6.8131594487e+01    0.3704726    0.2099627 -55.48  0.001944476    2.332    0.571
       235  -8.6854    206.3089     26.3045   4.5907197133e+01   3.0230810997e+01    0.1363526    0.1040898  36.73 0.0003026875    1.608    0.378
       236  -8.5802    194.4058     32.2608   4.9060020420e+01   3.2500058038e+01    0.1898962    0.1258057 -43.60 0.0004467635    1.480    0.324
       237  -9.2998     68.7106     25.5192   7.5709123844e+01   6.2677287715e+01    0.2369127    0.1168483  37.41  0.001122965    2.019    0.505
       238  -8.7186     34.9475     24.7187   8.9432969638e+01   6.7578626917e+01    0.1662314    0.1323549 -16.21  0.001115447    1.035    0.034
       239  -9.5746    228.2625     23.9318   4.2924512856e+01   2.5164432162e+01    0.3242002    0.1756656 -83.31  0.001229077    2.139    0.532
       240  -9.5482    179.1615     23.3243   4.8582006554e+01   3.7504423149e+01     0.250193    0.2008039 -42.45 0.0005683366    1.274    0.215
       241 -10.5631    163.9197     22.2319   5.0537761593e+01   4.1566361774e+01    0.4079929    0.2674488  46.78  0.001177242    1.520    0.342
       242  -9.2457     62.6774     23.4483   7.7061943005e+01   6.3972769383e+01    0.2005151    0.1210136  43.28 0.0005658562    1.799    0.444
       243  -9.9314      1.9375     22.1711   1.0473186971e+02   7.0765771687e+01    0.2319269    0.2172774 -36.56  0.001656933    1.355    0.262
       244  -9.5048      8.0051     22.2964   1.0165158015e+02   7.0380323379e+01     0.234495     0.145558 -34.51 0.0006115214    1.233    0.189
       245  -9.2762    131.7515     20.9254   5.5957678313e+01   4.9849273206e+01     0.408793    0.2113765 -52.10  0.001635304    2.706    0.630
       246  -8.6980    142.3090     21.3775   5.4017463297e+01   4.7177326942e+01    0.2302723    0.1469703  33.04 0.0007151191    1.733    0.423
       247  -9.0835     89.2455     20.9763   6.6775674096e+01   5.9450513800e+01    0.2305552    0.1693457 -31.79 0.0007436558    1.425    0.298
       248 -10.0148    107.1126    248.0748   1.1397742373e+02   1.0213354798e+01    0.2216493    0.1733015   2.12  0.001368241    2.295    0.564
       249  -9.3131    223.0828     20.1018   4.2489425731e+01   2.6856299377e+01    0.2033049     0.174199  45.50   0.00113224    1.400    0.286
       250  -9.0868    119.7512     19.4171   5.8014684842e+01   5.2906940808e+01    0.2348132    0.1594641  16.12  0.001157779    1.687    0.407
       251 -10.3257    110.9533     19.1546   6.0013048450e+01   5.4979367574e+01      0.29703    0.2394128  45.71 0.0007130158    1.143    0.125
       252  -9.2144     53.6059     19.8357   7.9026093535e+01   6.5895632394e+01    0.3605854    0.1729216  19.11  0.001508648    3.106    0.678
       253 -10.1874    149.7586     18.3200   5.1609856578e+01   4.5628528883e+01     0.282264    0.2452985 -36.27 0.0004856615    1.233    0.189
       254  -9.7853     28.9240     18.3218   8.9445034110e+01   6.9271221767e+01    0.2172989    0.1637267 -27.63 0.0006547309    1.104    0.094
       255  -9.7631    100.0000    246.9901   1.1515353200e+02   1.1439956092e+01    0.1704731    0.1128486  78.41  0.001071524    1.627    0.385
       256 -12.4234     76.5602    219.0333   1.1685209882e+02   1.9831939882e+01    0.8821278    0.5074118  47.22  0.002821923    1.474    0.322
       257 -11.6776     69.1206    218.1398   1.1820433084e+02   2.1028870869e+01    0.5304662    0.3326173  75.71  0.002104548    1.504    0.335
       258  -9.1420    124.0300    205.9936   1.0571951132e+02   1.4990310222e+01    0.1844304    0.1602703  53.36            0    1.025    0.025
       259  -9.5823      1.3944    185.6526   1.2884706833e+02   3.5157123120e+01    0.3141223   0.08518393 -80.22  0.001353611    3.021    0.669
       260  -9.4597     38.8065     17.8455   8.4545919806e+01   6.8207958584e+01    0.1958512    0.1398336   7.02 0.0006647003    1.328    0.247
       261  -9.2682     13.2165    174.5601   1.2577595147e+02   3.6503104599e+01     0.127669    0.1147582  15.96 0.0009432071    1.649    0.394
       262 -10.9045      6.7303    168.5616   1.2670107372e+02   3.8364130512e+01    0.2415551    0.1506007  38.50   0.00157818    1.769    0.435
       263 -10.0949     18.6936    160.0012   1.2342964790e+02   3.9243501913e+01     0.202161    0.1572268 -44.52  0.001336007    1.693    0.409
       264 -10.5577      6.4583    157.1786   1.2592558166e+02   4.0898536674e+01    0.2380119    0.1550472 -32.83  0.001412245    2.479    0.597
       265  -9.2250     67.3647     12.8147   7.0353542334e+01   6.4581687708e+01     0.268327    0.1447634  35.92  0.001386199    1.749    0.428
       266 -11.2437      2.7711    153.1009   1.2643394449e+02   4.2087547657e+01    0.3645862     0.219265 -59.13  0.001290063    1.659    0.397
       267 -10.7601     11.2112    152.9305   1.2451459480e+02   4.1476046699e+01    0.3252904   0.09688581 -68.99  0.001457983    2.509    0.601
       268  -8.6723     21.3250    148.3247   1.2172328957e+02   4.1676442683e+01    0.1202853   0.08007439 -50.63 0.0007048624    1.690    0.408
       269 -10.0861     21.2925    142.0190   1.2108054562e+02   4.3140441079e+01    0.2107182    0.1660158  42.93  0.001113676    1.451    0.311
       270 -11.0337      6.7099    140.4350   1.2447996125e+02   4.4660944321e+01    0.5585464    0.3132702 -18.04  0.002233554    3.589    0.721
       271 -12.5734    219.7038    118.5288   6.8005531351e+01   1.2573936696e+01     2.705006     1.819428   4.06   0.01159224    2.190    0.543
       272 -12.6012    229.2037    135.9497   7.0458276791e+01   7.5717480574e+00     2.030466    0.6460942  45.94  0.007014794    3.267    0.694
       273 -13.1645    234.0343    127.4504   6.7661311447e+01   8.0267535224e+00     1.060127    0.9732695 -14.28  0.006199949    1.027    0.026
       274  -9.1636     28.5161    138.2030   1.1883576531e+02   4.3388433209e+01     0.200178    0.1703091  41.48 0.0006825217    1.384    0.278
       275  -8.8802      1.3482    137.1733   1.2548434462e+02   4.5776101514e+01    0.1722559   0.08448288 -88.17 0.0004610692    1.714    0.417
       276  -7.9371     27.6839    141.7307   1.1945851830e+02   4.2636537654e+01    0.1167568   0.08512254 -48.39 0.0001805851    1.555    0.357
       277  -9.2530     32.8983    128.5491   1.1644964427e+02   4.5264943718e+01    0.2568612     0.140718 -57.23  0.001350269    1.604    0.376
       278  -9.1459     12.1753    128.0924   1.2189763134e+02   4.7109295165e+01    0.1859559    0.1342805 -58.43  0.001030509    1.322    0.244
       279  -8.7905     37.5806    126.7064   1.1491225913e+02   4.5248977211e+01    0.1789525    0.1078574 -80.17  0.000765717    1.539    0.350
       280  -9.8716     30.9809    124.1122   1.1635990683e+02   4.6500130858e+01    0.1895917    0.1543036 -74.90 0.0003723096    1.011    0.011
       281  -9.1671     74.8526    122.6386   1.0370851414e+02   4.1674876650e+01    0.3453466    0.2008339  52.94  0.001567279    1.978    0.494
       282  -8.9156     76.2823    119.4355   1.0264340249e+02   4.2235755817e+01    0.2478223    0.1898076 -45.73 0.0004072408    1.305    0.233
       283  -9.4834     13.0876    123.1720   1.2110831542e+02   4.8188992949e+01    0.1757756    0.1701302  -8.91 0.0005756803    1.372    0.271
