#   1 NUMBER                 Running object number                                     
#   2 MAG_AUTO               Kron-like elliptical aperture magnitude                    [mag]
#   3 X_IMAGE                Object position along x                                    [pixel]
#   4 Y_IMAGE                Object position along y                                    [pixel]
#   5 X_WORLD                Barycenter position along world x axis                     [deg]
#   6 Y_WORLD                Barycenter position along world y axis                     [deg]
#   7 A_WORLD                Profile RMS along major axis (world units)                 [deg]
#   8 B_WORLD                Profile RMS along minor axis (world units)                 [deg]
#   9 THETA_WORLD            Position angle (CCW/world-x)                               [deg]
#  10 FWHM_WORLD             FWHM assuming a gaussian core                              [deg]
#  11 ELONGATION             A_IMAGE/B_IMAGE                                           
#  12 ELLIPTICITY            1 - B_IMAGE/A_IMAGE                                       
         1  -9.1352    132.4637     18.8919   5.2748842440e+01   4.9855789655e+01    0.3823096    0.2531806 -32.19 0.0009066295    1.622    0.383
         2  -8.3701    238.0348      4.9260   3.5605715347e+01   2.5487304892e+01    0.1834532    0.1495379 -70.54 0.0004009636    1.011    0.010
         3  -7.3301    124.0836      4.4999   4.9195265159e+01   5.3277548577e+01    0.1935084    0.1193747  64.12 0.0003759668    1.467    0.319
         4  -7.9985    250.2791    238.8756   8.3952031204e+01  -1.0827095038e+01     0.160961    0.1287862   5.18 0.0005948856    1.143    0.125
         5  -9.9297    108.5637    250.2611   1.1170561262e+02   8.9920136833e+00    0.2091606    0.1363738  43.01 0.0008037113    1.250    0.200
         6  -8.1073    111.4867    236.1003   1.0964648718e+02   1.0978530806e+01    0.2349335    0.1346442  52.48 0.0004430459    1.515    0.340
         7  -8.4228    221.6170    228.3718   8.7238710598e+01  -5.4571134613e+00     0.211681    0.1618922  15.49 0.0003948034    1.072    0.067
         8  -7.1289     35.4749    227.9692   1.2340918426e+02   2.2811269252e+01    0.1560606   0.06980434  73.47 0.0004550081    2.221    0.550
         9  -8.1429    248.1915    219.3547   8.0988548178e+01  -8.1897736199e+00    0.1547118    0.1002342  37.70  0.000407107    1.608    0.378
        10  -9.1634    219.9733    210.7716   8.4504138656e+01  -2.7521588840e+00    0.3283067    0.2772191  89.05  0.001477073    2.213    0.548
        11  -7.3780    101.7760    209.2236   1.0844913021e+02   1.7588890547e+01    0.1597085    0.1512602  14.92 0.0002171538    1.336    0.251
        12  -9.0353    208.4640    205.4146   8.5712839117e+01  -5.3778645566e-02     0.275725    0.2032774  45.82 9.318745e-05    1.481    0.325
        13 -10.4066    239.7837    203.8092   7.9647682476e+01  -4.8785296184e+00    0.3034931    0.2084959  21.53 0.0005194301    1.321    0.243
        14  -7.7364    132.1345    203.8571   1.0117725304e+02   1.3632603882e+01    0.2022476     0.170421  66.64 0.0005065506    1.204    0.169
        15  -8.9358    209.3331    200.7903   8.4702287510e+01   5.2056135940e-01    0.2294191    0.1971825  11.67 0.0002359101    1.004    0.004
        16  -8.5608    210.0095    195.9910   8.3678567327e+01   1.1657859620e+00    0.2264483    0.1877382  -7.85  0.000323424    1.149    0.129
        17  -7.3259    219.5872    196.2726   8.1911554851e+01  -5.1471286008e-01    0.1691806    0.1160637 -20.07 0.0003222521    1.471    0.320
        18 -10.2027    177.5564    191.4720   8.9358309178e+01   7.7735366034e+00    0.2588155    0.2342732  37.66   0.00152444    1.085    0.078
        19  -7.8451    236.2653    191.9798   7.8039063517e+01  -2.6212311859e+00    0.2048353    0.1651719  20.27 0.0004270081    1.146    0.128
        20  -8.6531    129.7631    190.8143   9.9660865044e+01   1.6676231522e+01    0.2323132    0.2059759  66.47 0.0002462231    1.107    0.097
        21  -9.2905     62.4912    184.9701   1.1417041074e+02   2.8533926288e+01    0.2473319    0.1955389 -80.51 0.0003859291    1.163    0.140
        22  -6.9035     75.7818    179.0333   1.1038147012e+02   2.8056459294e+01    0.1661137     0.102633 -69.21 -0.000430966    1.563    0.360
        23  -8.7183    198.6678    175.9536   8.2000123385e+01   6.6111376816e+00    0.2381369    0.1914509  33.69  0.000289119    1.190    0.160
        24  -7.0988    100.9746    175.9700   1.0396446740e+02   2.4866533410e+01    0.1688795    0.1517255  64.15            0    1.035    0.034
        25  -8.0827    184.1568    173.5038   8.4492330489e+01   9.8480405602e+00    0.2576155    0.2256501 -77.83 0.0006286171    1.471    0.320
        26  -7.5775    107.8625    170.1722   1.0136130438e+02   2.5023568108e+01    0.2084478    0.1774009  71.28 0.0002717061    1.153    0.133
        27  -8.8241     63.4008    169.3166   1.1206317614e+02   3.2014024023e+01    0.2876326    0.2431378  12.01  0.001462277    1.610    0.379
        28  -7.6445    126.3675    167.7225   9.6450880697e+01   2.2260944290e+01    0.2268396    0.1734025 -57.05 0.0004240993    1.350    0.259
        29  -7.6338    226.6312    164.8275   7.4310358321e+01   3.3181423950e+00    0.1895908    0.1212856 -43.09 0.0004577005    1.632    0.387
        30  -7.7596    131.5353    163.3145   9.4371863314e+01   2.2269088048e+01    0.3203593    0.1325633 -43.14  0.001127807    2.767    0.639
        31  -7.1168    218.2238    152.0130   7.3105390076e+01   7.1022843631e+00    0.1798158    0.1113087 -35.64 0.0003126297    1.536    0.349
        32  -6.9698     85.2050    148.9579   1.0344777602e+02   3.3749146519e+01    0.1845144    0.1086654 -62.23 0.0002168283    1.623    0.384
        33  -7.6519    156.3472    147.8283   8.5212851884e+01   2.0688480772e+01    0.2495946    0.2002199  53.89 0.0003083122    1.286    0.223
        34  -7.5477    128.8583    147.1677   9.1758772619e+01   2.6435558029e+01    0.1945711    0.1751831 -14.24   0.00100322    1.282    0.220
        35  -8.8216    125.6653    138.6633   9.0726933826e+01   2.9021900433e+01    0.2803271    0.2343708  80.64 0.0004090193    1.357    0.263
        36  -9.6885    201.8167    121.8167   6.9224510082e+01   1.6055896157e+01    0.2815062    0.2695707 -11.76 0.0003675752    1.032    0.031
        37  -8.7951    206.6473    118.4204   6.7474212541e+01   1.5625790676e+01    0.3492599    0.2737638   9.65  0.001012445    1.568    0.362
        38  -8.4221    145.2786    123.9197   8.2254790035e+01   2.8279682089e+01    0.2596623    0.2421797  71.34 0.0002424915    1.123    0.109
        39  -8.2076    107.9942    118.2333   9.0758067454e+01   3.7224168798e+01    0.2461084    0.2104238 -55.27 0.0002950021    1.132    0.117
        40  -7.1355    212.4397    113.4728   6.5199426655e+01   1.5258086041e+01    0.1486819    0.1386863 -35.66 2.906962e-05    1.012    0.012
        41  -7.4492    205.0133    111.4889   6.6068611977e+01   1.7273290019e+01    0.2198771    0.1503792  50.95 0.0004575405    1.537    0.349
        42  -6.8148    198.4980    111.4860   6.7302044689e+01   1.8748090847e+01    0.1533813    0.1440699  -8.70 0.0008087424    1.096    0.087
        43  -7.2278    108.2008    109.7143   8.8572707469e+01   3.9171437963e+01    0.2376069    0.1093382 -40.86 0.0003911307    2.325    0.570
        44  -7.9841    136.8159    107.9769   8.0277912261e+01   3.3638447890e+01    0.3309231    0.1932788  46.02  0.001285675    1.735    0.424
        45  -6.9806    229.5390    106.6133   6.0630591562e+01   1.2768767963e+01    0.1410667    0.1308435 -41.89 -1.89109e-05    1.035    0.034
        46  -7.6651    191.0755    102.9000   6.6545769747e+01   2.2082994227e+01    0.3178003    0.2024927  57.46  0.001041503    1.684    0.406
        47  -7.8952    148.5003     97.7985   7.4525418321e+01   3.3151120541e+01    0.2615001     0.215906  48.25 0.0004345869    1.222    0.182
        48  -8.8720     90.8362     97.7645   9.0625728624e+01   4.5101744095e+01    0.3211955    0.2518705  77.84  0.001558777    1.678    0.404
        49  -8.8983    124.5808     83.6983   7.6603764340e+01   4.1478280036e+01    0.4209414    0.2832575  17.58 0.0009573376    2.132    0.531
        50 -10.4733    107.2872     77.9500   7.9790208661e+01   4.6314204832e+01    0.2695989    0.2502725  27.76 0.0002581622    1.091    0.083
        51  -8.0857    118.9103     76.3974   7.5920192801e+01   4.4181313499e+01     0.245737    0.2018391 -49.79 0.0002717954    1.264    0.209
        52  -9.2955    203.4490     74.2932   5.6751022548e+01   2.4218465260e+01    0.4144003    0.2693651 -32.21  0.001380271    1.548    0.354
        53  -6.8647     71.3143     73.7060   9.0204285071e+01   5.3612298187e+01    0.1322821    0.1121389  85.07 0.0003119922    1.598    0.374
        54  -7.4572    178.2555     64.0600   5.8318589172e+01   3.2126708631e+01    0.2087542    0.1857054 -45.75 0.0004793092    1.116    0.104
        55  -7.0876    165.3120     59.7357   5.9525810352e+01   3.6086371786e+01      0.15004    0.1158469 -77.26 0.0001821453    1.539    0.350
        56  -7.1414    153.1774     52.1077   5.9639040917e+01   4.0339418789e+01    0.1962125    0.1668567 -62.84  0.001006791    1.279    0.218
        57  -6.7415    126.7194     43.6768   6.2838300949e+01   4.8076662876e+01    0.1483132    0.1091683  18.68 0.0003657707    1.590    0.371
        58  -7.0506    149.4874     40.4658   5.6649092107e+01   4.2969522189e+01    0.1456486    0.1377343  55.79  0.000168197    1.008    0.008
        59  -6.6981     76.2834     40.7172   7.6864473003e+01   5.9061875175e+01    0.1192761    0.1094464 -73.42 0.0006933197    1.518    0.341
        60  -7.1030    119.7134     37.6849   6.2449198502e+01   5.0578906069e+01    0.1464479     0.105225  20.55  0.000151386    1.585    0.369
        61  -7.6054    134.0683     30.8370   5.6623538970e+01   4.8066196448e+01      0.20339    0.1840995 -81.39 0.0002770618    1.235    0.190
        62  -6.9963    214.4613     30.4548   4.3805690969e+01   2.7972329684e+01    0.1362285    0.1203651 -74.99 0.0002578066    1.004    0.004
        63  -7.9054    136.1766     24.5943   5.4000799140e+01   4.8306242480e+01    0.2789311    0.1613585  26.85  0.001189184    2.263    0.558
        64  -7.4848    172.7871     23.1321   4.7179989226e+01   3.9244964903e+01    0.1809438     0.156224  35.35 0.0003474739    1.295    0.228
        65  -8.6495    164.9077     21.9828   4.8023516140e+01   4.1381106110e+01    0.2191893    0.1856063  54.48  0.001239596    1.142    0.125
        66  -7.4372    226.5700    244.7924   8.9003771037e+01  -8.2605119193e+00    0.1412251    0.1080575 -37.29 0.0009527571    1.708    0.415
        67  -7.9540    233.9976    240.4857   8.7014682746e+01  -8.7914111164e+00    0.1678047   0.09462158  31.59 0.0003833192    1.485    0.326
