#   1 NUMBER                 Running object number                                     
#   2 MAG_AUTO               Kron-like elliptical aperture magnitude                    [mag]
#   3 X_IMAGE                Object position along x                                    [pixel]
#   4 Y_IMAGE                Object position along y                                    [pixel]
#   5 X_WORLD                Barycenter position along world x axis                     [deg]
#   6 Y_WORLD                Barycenter position along world y axis                     [deg]
#   7 A_WORLD                Profile RMS along major axis (world units)                 [deg]
#   8 B_WORLD                Profile RMS along minor axis (world units)                 [deg]
#   9 THETA_WORLD            Position angle (CCW/world-x)                               [deg]
#  10 FWHM_WORLD             FWHM assuming a gaussian core                              [deg]
#  11 ELONGATION             A_IMAGE/B_IMAGE                                           
#  12 ELLIPTICITY            1 - B_IMAGE/A_IMAGE                                       
         1 -13.2504     32.0970    183.9010   1.2959735388e+02   3.4415519090e+01     1.578649    0.8895361  86.97   0.01110058    1.515    0.340
         2 -12.8768    192.7064     70.0137   7.4141868204e+01   2.7719483587e+01      1.27117     1.095621 -26.52  0.006089421    1.146    0.127
         3 -15.1064    174.7030     69.7884   7.7489627037e+01   3.2206871460e+01     9.068248     4.149889 -56.83  0.004933477    4.883    0.795
         4 -14.9636    225.7392     45.8536   6.1990420929e+01   2.2716034742e+01     2.912178     1.774044  25.47   0.01259252    2.058    0.514
         5 -13.4663    220.9332     36.5328   5.9944608333e+01   2.5030727482e+01       1.1475    0.7558353 -35.52  0.003475633    1.457    0.314
         6 -15.9820    211.1600     64.9227   6.9545602197e+01   2.3871559508e+01     11.56703     5.292072 -45.18   0.04294693    2.516    0.603
         7 -14.0444    248.1803     45.2470   5.9058826958e+01   1.7380197779e+01     1.778648    0.7693472 -26.09  0.007365814    2.084    0.520
         8 -14.1435    233.6838      3.7127   4.9225668277e+01   2.5217639379e+01     1.202647     1.041631  72.89  0.003875318    1.173    0.147
         9 -13.5270    249.1129      3.0023   4.7772132250e+01   2.1519311771e+01    0.8679669    0.5854981  -2.90   0.00318766    1.688    0.407
        10 -13.8687    249.5536     26.2150   5.3855655319e+01   1.9141505349e+01     0.869466    0.5425908  -9.32  0.001603571    1.730    0.422
        11 -15.7140    241.6132     18.8357   5.2646185364e+01   2.1804989537e+01     7.685773          nan  59.99   0.01685841    8.401    0.881
        12 -13.4076    215.0873      3.8656   5.0994414921e+01   2.9950193599e+01     1.237626    0.7373751 -65.10  0.004479723    1.943    0.485
        13  -9.3924    115.6716     12.6816   7.0126050457e+01   5.4881239740e+01    0.2819569    0.2343136  18.52 0.0007464625    1.155    0.134
        14 -11.2536    120.1730      8.8967   6.7418570455e+01   5.4267002153e+01    0.5130866    0.4298066 -11.23  0.001899336    1.152    0.132
        15  -9.4804    199.9952      6.6254   5.3449396679e+01   3.3675595120e+01    0.2772535    0.1908513 -23.51  0.001114994    1.454    0.312
        16 -10.6829    172.1133      3.8819   5.6061333754e+01   4.1418607134e+01    0.6693037    0.3315309 -55.09  0.002317194    2.670    0.625
        17 -10.7980    183.2629      3.3544   5.4399552958e+01   3.8464466974e+01    0.6948847    0.4731076  73.81  0.003360206    1.468    0.319
        18  -9.5572    186.5619      2.0183   5.3544774144e+01   3.7695764504e+01    0.2883163    0.2393027 -38.58 0.0005924236    1.234    0.190
        19  -9.4074    138.8739      3.5199   6.1282508554e+01   5.0209428135e+01    0.3091823    0.1882523 -21.97 0.0006564602    1.642    0.391
        20  -9.4443    141.3810      9.2225   6.3099133289e+01   4.8996823983e+01    0.2729228    0.2425852  10.19 0.0006866842    1.093    0.085
        21 -13.3769     11.4286    192.2917   1.3362140156e+02   3.4900022296e+01    0.7268497    0.4870277  68.26  0.004070004    1.059    0.056
        22 -10.5076    167.9263    138.6619   9.6230849302e+01   2.2120017571e+01    0.3364871    0.2466026  79.83  0.001139837    1.976    0.494
        23  -9.9931    166.1582    133.4375   9.5503979655e+01   2.3355483767e+01     0.284508    0.2186469 -77.43  0.001456506    1.816    0.449
        24 -10.1247    173.9967    137.3273   9.4742440372e+01   2.1113959247e+01     0.244142    0.1974357 -75.34  0.001315113    1.661    0.398
        25 -10.4596    146.6799    136.9770   1.0028183331e+02   2.6597012956e+01    0.4104379    0.2696201 -88.03    0.0017722    2.737    0.635
        26 -11.2450    211.8406    136.2078   8.7392047565e+01   1.3517645750e+01     0.372187    0.3016125  24.22  0.002093788    1.134    0.118
        27 -11.1032    222.2524    129.7836   8.4169480612e+01   1.2265146056e+01    0.4227046    0.3206602  34.44  0.002363587    1.207    0.171
        28 -11.5557    159.8419    128.9056   9.5844656842e+01   2.5421368008e+01    0.5042447    0.3755548  25.36  0.002202116    1.528    0.346
        29 -10.0297    136.4855    128.4948   1.0078832277e+02   3.0107987412e+01    0.3623787    0.2277364 -38.85  0.001776992    1.800    0.445
        30 -10.3321    134.7347    123.7021   1.0018768049e+02   3.1348582001e+01    0.3674308    0.2253866 -66.24   0.00165574    2.185    0.542
        31 -10.0081    135.0000    119.9517   9.9329239429e+01   3.2012703232e+01    0.3176267    0.1804552 -53.61 0.0008617393    1.905    0.475
        32 -10.0198    171.3392    126.9062   9.3039510459e+01   2.3391028074e+01    0.2969254    0.1971496  41.83  0.001471986    1.423    0.297
        33 -11.9492    244.4575    239.2342   9.9911490169e+01  -3.2825049083e+00    0.1950829    0.1464233  30.57 0.0002275813    1.180    0.152
        34 -10.1948    151.3915    122.7501   9.6305349393e+01   2.8236900923e+01    0.5365778    0.2006136 -33.49  0.001690306    4.198    0.762
        35 -12.6589     53.9284    162.5432   1.2377866637e+02   3.6003339710e+01    0.5935584    0.4529509  86.07    0.0017668    1.100    0.091
        36 -10.0144    225.7010    122.2388   8.1878116816e+01   1.2567649437e+01    0.3602208     0.248482  79.57   0.00161683    2.630    0.620
        37 -10.5735    140.7790    121.0562   9.8267673383e+01   3.0674269162e+01    0.5246119    0.3389065 -88.00  0.002121216    2.923    0.658
        38  -9.3324    216.3280    189.6810   9.6810007622e+01   5.8557277382e+00    0.1087647   0.09261306  67.69 0.0007047013    1.683    0.406
        39 -11.3222    167.6426    114.2601   9.0904050466e+01   2.6337640103e+01     0.454915    0.4097189  -2.78 0.0009176765    1.179    0.152
        40  -9.6465    174.8761    115.4300   8.9692341202e+01   2.4570714224e+01    0.2767689    0.2306053 -78.36  0.001445763    1.553    0.356
        41 -10.1599    157.1751    113.4322   9.2930938881e+01   2.8722164019e+01    0.4694054    0.2899104 -71.08  0.001804115    3.019    0.669
        42  -9.4072    134.7538    103.9927   9.5733646930e+01   3.5131891626e+01    0.3520381    0.1474767 -41.64  0.001342203    2.478    0.596
        43  -9.9586    134.6239    113.2110   9.7924319111e+01   3.3379372430e+01    0.4120508    0.2647212 -60.14  0.001803039    1.813    0.448
        44  -9.9924    135.0000    109.0360   9.6876254439e+01   3.4109364902e+01    0.3665428    0.2059794 -42.14  0.001648026    1.841    0.457
        45 -13.6359     44.2872    170.3265   1.2636110810e+02   3.5609626996e+01    0.9673019    0.7236914  17.22  0.003448877    2.185    0.542
        46  -9.9657    126.0557    110.0801   9.9222994286e+01   3.5650955524e+01    0.2080032    0.1998088  82.85 0.0003201349    1.017    0.017
        47  -9.0133    211.3117    189.3340   9.7587355750e+01   6.7608597004e+00    0.1251973   0.07980347  18.83 0.0007044462    1.680    0.405
        48  -9.3284    141.7710    104.2258   9.4155284168e+01   3.3652711007e+01    0.1974065    0.1703248   8.15 0.0005980924    1.354    0.261
        49 -10.6154    124.7598    102.8320   9.7846988396e+01   3.7333118730e+01    0.4546418    0.3260735  59.86   0.00229887    1.516    0.340
        50  -8.6442    101.0019    175.9862   1.1587635820e+02   2.7328443633e+01    0.1569875     0.130971  63.47  0.001093693    1.018    0.018
        51 -10.6837    234.8911    174.0260   9.1025873623e+01   4.3917435024e+00    0.3410128    0.2280444  48.92  0.001361383    1.563    0.360
        52  -9.2875    200.8062    173.9271   9.6755637517e+01   1.0534625733e+01    0.2571047    0.1721908 -13.20  0.001334438    1.849    0.459
        53  -8.6603    105.6950    159.4403   1.1276015367e+02   2.9604486072e+01    0.1470304     0.111305  38.73 0.0002978191    1.382    0.277
        54 -10.5833    191.8976    152.2250   9.4323746784e+01   1.5226360158e+01    0.4466687    0.2621625 -51.11  0.002135608    2.309    0.567
        55 -10.0748    147.6098     99.9106   9.1740982616e+01   3.3232604962e+01    0.3339719    0.3039655 -43.13 0.0008048471    1.117    0.105
        56  -9.2084    204.2195    152.4702   9.2127909848e+01   1.2777696206e+01     0.253685    0.1125197  42.65 0.0009122349    2.001    0.500
        57  -9.4412    134.1523     96.3651   9.3977905185e+01   3.6726846758e+01    0.2414217    0.1976977 -44.72            0    1.222    0.181
        58 -10.9143      2.9909     90.4929   1.2854498434e+02   5.5267310469e+01    0.2662201    0.1448931 -70.54  0.001716516    1.395    0.283
        59 -10.8261    157.9429     92.5877   8.7513740860e+01   3.2298651158e+01    0.4934215    0.4103215  -8.66  0.002543641    1.355    0.262
        60  -9.8633    198.3919    144.2771   9.1526181819e+01   1.5095368954e+01    0.2811139    0.2031531  84.73  0.001320028    2.509    0.602
        61 -10.6266    141.1646     89.0855   9.0390826537e+01   3.6637537130e+01    0.3882134     0.320884 -73.40  0.001143687    1.443    0.307
        62 -11.7608    156.0571     82.9296   8.5266475467e+01   3.4442321512e+01    0.4203995    0.3869231  47.28 0.0008498541    1.085    0.079
        63  -9.6785    151.4057     82.2235   8.6109668937e+01   3.5629928607e+01    0.3167931    0.2787874 -30.22  0.001366812    1.140    0.122
        64  -9.1294     19.5129     84.4687   1.2312751986e+02   5.5469159587e+01    0.1152924   0.09037785 -75.63 2.769285e-05    1.004    0.004
        65  -8.9146    140.0218     78.2235   8.7608933537e+01   3.8905515695e+01     0.196554     0.121176  48.95 0.0003672273    1.634    0.388
        66 -11.2036      5.8109     77.0657   1.2620305724e+02   5.7961881342e+01    0.2848334    0.1051451 -66.43  0.001511028    1.945    0.486
        67 -10.8889    151.7959     71.4826   8.2865777690e+01   3.7434470242e+01    0.7760541    0.3797367 -53.57   0.00270733    2.910    0.656
        68 -11.3055    144.3553     58.2245   8.0394626701e+01   4.1444587593e+01    0.6724988    0.3390896 -35.10  0.002191474    1.940    0.485
        69 -10.9640    144.4310     67.6259   8.3375479909e+01   3.9815398122e+01    0.4656114    0.3798423  33.72  0.002368481    1.271    0.213
        70 -11.6409     68.1058    145.2278   1.1890511838e+02   3.7678435920e+01    0.6078328    0.4532972  72.33  0.002595553    1.211    0.174
        71 -10.3540    244.8655    172.4431   8.9141858810e+01   2.8285695718e+00     0.310677    0.1558224  26.67  0.001250848    1.998    0.499
        72  -8.9445    125.2023     75.2591   9.0406864425e+01   4.2638411682e+01    0.2336752    0.1056699 -49.58 0.0008115525    2.404    0.584
        73  -9.6052    155.8092     68.2294   8.0977993675e+01   3.7044322897e+01     0.504071    0.2039795 -46.53  0.001688923    2.903    0.655
        74  -8.3650    119.6184     69.1948   9.0039629534e+01   4.4944928351e+01    0.1923216    0.1338947 -31.81 0.0002751203    1.477    0.323
        75  -9.6404     86.9892     65.9610   9.8311042130e+01   5.1621144821e+01    0.2157364    0.1639921 -15.49  0.001131179    1.663    0.399
        76  -9.9444    147.0506     74.4731   8.4849413808e+01   3.8005811192e+01    0.5286376    0.2408833 -49.49  0.001818415    2.643    0.622
        77 -10.3149    218.3898    149.6612   8.9072264951e+01   1.0391722301e+01     0.239968    0.2035887  31.75 0.0002691752    1.076    0.071
        78 -10.9684     99.3028     62.3876   9.3564761190e+01   5.0200481980e+01     0.600185    0.4863889  66.52   0.00325918    1.495    0.331
        79 -11.5719    106.7726     58.4567   9.0155208504e+01   4.9546090654e+01    0.5682919    0.4499876   8.90  0.002327329    1.533    0.348
        80  -8.4823     60.6657     62.6851   1.0571035754e+02   5.6132761629e+01    0.1310877   0.09176695 -28.32 0.0003159323    1.688    0.408
        81 -10.4834    148.8764     61.1349   8.0300706054e+01   3.9887529966e+01    0.6165551    0.2094211 -40.21  0.002026774    2.892    0.654
        82  -8.9825     72.7940     58.5041   1.0054147840e+02   5.5344507806e+01    0.2414029    0.1633197 -49.98 0.0004814326    1.314    0.239
        83 -10.8295    118.2421     57.7673   8.6764874407e+01   4.7355612352e+01    0.3757806    0.2255469  41.31  0.001695244    1.758    0.431
        84  -9.4559     83.0772     52.2667   9.5247736595e+01   5.4994040078e+01    0.2886491    0.1745139 -49.41 0.0009710626    1.559    0.359
        85  -8.9736    105.3402     52.2988   8.8497824289e+01   5.0970904049e+01    0.1450459    0.1097631   3.84 0.0003164513    1.665    0.399
        86  -9.9696    133.8981    147.7014   1.0498586168e+02   2.7037407694e+01    0.4721675    0.1906827 -56.08  0.001899505    3.035    0.670
        87  -9.3411    132.7263    140.5536   1.0394836219e+02   2.8557235822e+01    0.4019919     0.180019 -59.05  0.001617089    2.925    0.658
        88  -9.9238    204.0845     41.2672   6.3677330880e+01   2.8781568361e+01     0.263136    0.2031564 -31.21 0.0003514722    1.266    0.210
        89  -9.2241    103.8150     46.8454   8.7025357967e+01   5.2256966549e+01    0.2187806    0.1908911  -4.83  0.001067876    1.179    0.152
        90 -10.5299    113.2453     43.1634   8.3020020703e+01   5.0969848360e+01    0.2858969    0.1946117 -50.33  0.001359848    1.639    0.390
        91 -11.5334    108.2896     36.7605   8.1991123457e+01   5.3072971760e+01    0.5154478    0.2509523  39.22  0.002046028    2.274    0.560
        92  -9.5559    124.7470     31.9896   7.5778369247e+01   5.0189804718e+01    0.2100928    0.1879058 -14.66 0.0004565132    1.069    0.065
        93 -10.6725     70.2255    159.5954   1.2014481888e+02   3.4596801515e+01    0.3977671    0.2038379  46.50  0.002268758    1.762    0.432
        94  -9.1295    189.2151     23.9244   6.0409277068e+01   3.4768798671e+01    0.2710009    0.2157061  83.96 0.0007532391    1.374    0.272
        95 -11.1234    179.0047    145.2595   9.5382163114e+01   1.8834340667e+01     0.441256    0.3227662 -51.01  0.002396757    1.631    0.387
        96 -11.0204    157.7031    140.7926   9.8736956856e+01   2.3786527820e+01    0.8862839    0.5343567  88.51  0.002800048    5.412    0.815
        97 -10.2349    226.6011    172.4072   9.2084136774e+01   6.0449357300e+00    0.4592312    0.1399864  49.87  0.001737719    3.393    0.705
        98 -10.6666    230.8803    167.4734   9.0460660691e+01   5.8504193724e+00    0.2694728    0.2438505 -10.32  0.001840618    1.262    0.208
        99 -10.8200    213.4413    167.2173   9.3344046534e+01   9.0709238251e+00    0.5797004    0.3143993  63.88  0.002338982    3.606    0.723
       100  -8.7642    222.6280    145.3438   8.7457608423e+01   1.0127473715e+01    0.1740603    0.1569274 -79.90 0.0006451927    1.614    0.381
       101 -10.0658    157.0347    217.2012   1.1076251486e+02   1.2351167599e+01     0.164716    0.1431718  54.01 0.0002452088    1.161    0.139
       102 -10.0150    191.7626    192.6571   1.0144111806e+02   9.7416019954e+00    0.4414418    0.2688492 -68.29  0.001863498    4.677    0.786
       103 -10.1727    191.9947    144.0462   9.2664470350e+01   1.6416409598e+01    0.2880551    0.1835778  53.67 0.0006824175    1.604    0.377
       104  -8.3614    104.0841    144.2370   1.1082733774e+02   3.2740651873e+01     0.143669   0.09987262  43.37 0.0001916479    1.404    0.288
