#   1 NUMBER                 Running object number                                     
#   2 MAG_AUTO               Kron-like elliptical aperture magnitude                    [mag]
#   3 X_IMAGE                Object position along x                                    [pixel]
#   4 Y_IMAGE                Object position along y                                    [pixel]
#   5 X_WORLD                Barycenter position along world x axis                     [deg]
#   6 Y_WORLD                Barycenter position along world y axis                     [deg]
#   7 A_WORLD                Profile RMS along major axis (world units)                 [deg]
#   8 B_WORLD                Profile RMS along minor axis (world units)                 [deg]
#   9 THETA_WORLD            Position angle (CCW/world-x)                               [deg]
#  10 FWHM_WORLD             FWHM assuming a gaussian core                              [deg]
#  11 ELONGATION             A_IMAGE/B_IMAGE                                           
#  12 ELLIPTICITY            1 - B_IMAGE/A_IMAGE                                       
         1 -14.4485    159.0005     52.5087   8.1177437490e+01   3.8844655282e+01     1.687354     1.194697  28.02  0.005679199    1.730    0.422
         2 -14.1956    171.0312     37.3807   7.4580030303e+01   3.7992404925e+01    0.9146786    0.8592704  57.04  0.003365026    1.077    0.071
         3 -11.9770    190.0733     14.8722   6.5712605418e+01   3.5972133750e+01     0.299048    0.2341525 -54.58 0.0009577077    1.309    0.236
         4 -14.0036    187.7499      5.3058   6.3568537267e+01   3.7511499441e+01    0.9536041    0.6496102  69.39  0.003968758    1.256    0.204
         5 -11.1092    146.4661    238.2924   1.2573294776e+02   4.5101669400e+00    0.1539213    0.1231796 -79.12  0.000482709    1.483    0.326
         6 -19.1921     70.2319    243.0456   1.4047539177e+02   1.5830900648e+01     6.735682     5.352191  71.64   0.04062004    1.068    0.064
         7 -11.3110    163.4969    204.0409   1.1693456840e+02   7.6713985456e+00    0.2931641    0.2481233 -58.14  0.001066511    1.300    0.231
         8 -12.2996    139.2617    200.5292   1.2144859920e+02   1.2967757966e+01    0.3622231    0.3232901 -76.73  0.001367738    1.163    0.140
         9 -11.1505    135.9814    196.5047   1.2147942852e+02   1.4415485922e+01    0.2723525    0.1972486  89.77  0.001336529    1.716    0.417
        10 -11.8219    178.5199    226.5298   1.1770004513e+02   8.2832341438e-01    0.2444073    0.2174439  37.10  0.001337985    1.018    0.018
        11 -11.3146    155.4175    197.2989   1.1744567872e+02   1.0549097701e+01    0.2805681    0.2200625  63.28 0.0007427381    1.333    0.250
        12 -11.6834    208.3301    196.8399   1.0649319531e+02   4.1963860258e-01    0.2370934    0.1844836  46.89 0.0007463044    1.319    0.242
        13 -11.7412    199.2743    222.3547   1.1295178058e+02  -2.2001136065e+00    0.3294947    0.2211676  15.58   0.00127005    1.774    0.436
        14 -10.5734    180.0372    192.2998   1.1133095743e+02   6.7118351662e+00    0.2446101    0.2022356 -83.82 0.0006050565    1.552    0.356
        15 -12.1443    167.4941    190.6784   1.1366090930e+02   9.5092070659e+00    0.3726376    0.3044284  16.90  0.001360666    1.420    0.296
        16 -11.2885      7.2940    219.5885   1.4950246830e+02   2.7984611306e+01    0.1222298   0.09331557 -80.47 0.0006963088    1.313    0.238
        17 -11.3217      3.4443    212.2004   1.4968789467e+02   2.9828649873e+01    0.1400063   0.08546013 -63.34 0.0007298544    1.766    0.434
        18 -10.9059    176.4749    187.7601   1.1120065240e+02   8.2994510314e+00    0.2619397    0.1435147 -49.98 0.0008312608    1.983    0.496
        19 -10.8829    184.0621    186.6792   1.0940074415e+02   6.9942466964e+00    0.2154356    0.1832097  39.35  0.001164329    1.122    0.109
        20 -12.3327     38.8492    183.7047   1.4065787939e+02   3.2242507400e+01    0.2596369    0.1813939 -76.72 0.0005278778    1.191    0.161
        21 -12.1692    205.5076    180.4840   1.0378071891e+02   3.8956585750e+00    0.5323084    0.3480028  41.38  0.002008047    1.499    0.333
        22 -12.1339    208.5309    178.5049   1.0277287831e+02   3.6633671366e+00    0.4397231    0.3772248   8.70  0.002314575    1.204    0.169
        23 -10.2237     17.5676    180.7608   1.4471131175e+02   3.5110553985e+01    0.1042928   0.08205841 -44.84 0.0003798048    1.747    0.427
        24 -11.1227    163.2912    210.2499   1.1804857498e+02   6.5309208478e+00    0.2295855    0.1740781 -43.95 0.0007182119    1.463    0.317
        25 -12.5193    196.1007    171.7593   1.0386001564e+02   7.4434546507e+00    0.7162542    0.4134079 -50.24  0.002121653    1.899    0.473
        26 -13.4200    137.2776    171.7325   1.1670996746e+02   1.9521228708e+01    0.8286495    0.4745938  57.17  0.002782967    1.957    0.489
        27 -18.9495     52.7698     89.9166   1.2152889221e+02   5.2131537636e+01     18.59594    0.9024789 -55.00    0.0271802   19.045    0.947
        28 -11.7950    142.2322    166.0314   1.1443985884e+02   1.9800534378e+01    0.3643386    0.2248836 -63.61  0.001011036    1.886    0.470
        29 -10.5788    122.9006    166.1103   1.1897017299e+02   2.3568765008e+01    0.2271041    0.1882217  76.95            0    1.255    0.203
        30 -10.7247    194.4827    165.9909   1.0296086705e+02   8.9064628346e+00    0.3010246    0.2151879 -56.13 0.0008290382    1.590    0.371
        31 -10.2416     25.4481    165.5097   1.4155509628e+02   3.7750945982e+01    0.2021386    0.1212438  31.76  0.001175602    2.058    0.514
        32 -10.7674    223.7532    163.8867   9.6737929860e+01   3.3276851214e+00    0.2550513    0.1893106 -55.20 0.0006227062    1.569    0.363
        33 -10.0398     32.7177    161.5538   1.3949317466e+02   3.7925099975e+01    0.1873941    0.1271874  25.45  0.001103243    1.973    0.493
        34 -11.3614    113.2133    160.0708   1.2012034669e+02   2.6765574160e+01    0.3479962    0.1860394  57.77  0.001260725    2.247    0.555
        35 -12.1780    102.7220    159.1364   1.2248608494e+02   2.8852967418e+01    0.4053492    0.2842163  68.42 0.0005130628    1.619    0.382
        36 -10.7607    237.5292    159.4861   9.3269087924e+01   1.4304257119e+00    0.1400818    0.1289324 -22.78 0.0001451312    1.027    0.026
        37 -11.8151     24.8512    156.7541   1.4070687819e+02   3.9795975053e+01    0.4914536    0.2463892  49.14  0.002464273    2.143    0.533
        38 -10.8935    140.1009    156.6558   1.1299724312e+02   2.2332044046e+01    0.2407401    0.2043672 -71.53 0.0003202815    1.224    0.183
        39 -10.5016     16.8152    249.8956   1.4977698007e+02   2.1226673780e+01    0.1575958    0.1337581 -15.52    0.0011147    2.842    0.648
        40 -10.9736    162.0061    153.7171   1.0729072251e+02   1.8381806036e+01    0.2245079    0.2042451  45.76  0.001163259    1.096    0.088
        41 -13.2019    134.0402    145.4895   1.1203146006e+02   2.6103047633e+01     1.329079    0.3339605 -54.53  0.003133322    5.589    0.821
        42 -10.9240    174.8102    148.9394   1.0336022532e+02   1.6621057420e+01    0.2933351    0.2193903 -65.33  0.001053591    1.570    0.363
        43 -12.2341    144.5249    145.8254   1.0958358025e+02   2.3852764116e+01    0.4501845    0.2957074  69.41  0.001838466    2.055    0.513
        44 -11.9230     32.3841    141.8325   1.3703416344e+02   4.2503957457e+01    0.4663821    0.2650517  13.73  0.002019732    2.823    0.646
        45 -11.3062     32.7788    206.6190   1.4404646255e+02   2.7952553415e+01    0.2425772    0.1716629  28.96  0.001377855    1.999    0.500
        46 -12.6565    104.4531    138.3232   1.1789350620e+02   3.3445422550e+01    0.4161876    0.3080146  69.83 0.0001956769    1.594    0.372
        47 -13.0910    114.8557    138.1664   1.1518965071e+02   3.1570787835e+01    0.6922016    0.4840074 -11.88   0.00284995    2.455    0.593
        48 -10.1943     24.5972    206.2807   1.4553295859e+02   2.8923888534e+01    0.1543965    0.1379555 -33.07 0.0008316918    1.847    0.459
        49 -12.3890    106.0400    130.8495   1.1583953970e+02   3.4907549815e+01     0.429054    0.3644897 -69.02  0.001349983    1.168    0.144
        50 -11.4601    108.2044    125.3263   1.1399949014e+02   3.5790542290e+01    0.3043413    0.2656099 -24.65 0.0006650088    1.289    0.224
        51 -12.5480    119.2775    129.4170   1.1206308904e+02   3.2743339457e+01    0.4495681    0.3545034 -56.79  0.001220832    1.238    0.192
        52 -13.0315    124.8114    126.9184   1.1004869766e+02   3.2214841976e+01    0.7308235    0.4397023  72.80  0.002585423    2.996    0.666
        53 -11.3775    160.6144    128.1416   1.0162386031e+02   2.4238233752e+01     0.367475    0.2519971 -56.86  0.001599787    1.572    0.364
        54 -12.7721    135.4725    122.6248   1.0629915809e+02   3.0972671637e+01     0.957616     0.211899 -49.25  0.002344255    4.897    0.796
        55 -11.2987    113.4532    118.4754   1.1095698043e+02   3.6365576431e+01    0.2753997    0.2534292 -89.86 0.0006027715    1.149    0.130
        56 -11.4814     25.2425    119.0561   1.3549767893e+02   4.8377663433e+01    0.1977214      0.17669 -25.16 0.0006044459    1.351    0.260
        57  -9.6338     12.3434    116.2732   1.3854665686e+02   5.0001889175e+01    0.1184629   0.07323694 -43.83 0.0006997061    1.618    0.382
        58 -10.5607    116.4767    115.4944   1.0940998578e+02   3.6449005279e+01    0.1515361    0.1441028 -68.27 1.495873e-05    1.048    0.045
        59 -11.1445    168.0648    113.3255   9.6192405549e+01   2.5653186807e+01     0.408757    0.2983207  85.56  0.001522362    1.875    0.467
        60 -10.8074      2.6025    112.7374   1.4064633625e+02   5.1420282144e+01    0.2170287    0.1415814 -11.45  0.001365231    2.191    0.544
        61 -11.2567      8.0927    111.6047   1.3901364117e+02   5.1325247086e+01    0.2373276    0.1827278 -19.54   0.00123506    1.654    0.395
        62 -11.9948    168.3524    233.7485   1.2082790516e+02   1.4349888052e+00    0.3290192    0.2208412  62.12  0.001121391    1.760    0.432
        63 -10.7195    205.5052    110.1628   8.7728845911e+01   1.7476832913e+01     0.331169    0.2217107  43.88 0.0009836077    1.609    0.378
        64 -12.0792     85.0549    110.4999   1.1684837928e+02   4.3160524216e+01    0.2568082    0.2075758 -52.73 0.0009289408    1.136    0.120
        65 -11.1750    161.0403    198.2872   1.1642972490e+02   9.2647697807e+00    0.2894053    0.2080243  73.98  0.001302603    1.819    0.450
        66 -10.7311    176.4936    234.0278   1.1929270158e+02  -5.1259471245e-02    0.1759375    0.1308325 -45.04 0.0005130869    1.562    0.360
        67 -12.2971      2.6719    125.8591   1.4231009034e+02   4.8521348364e+01    0.4221706    0.1489581 -68.61  0.001848518    2.060    0.515
        68  -9.7245    101.0016    105.9761   1.1120139566e+02   4.1473654074e+01    0.1736485    0.1652958 -44.05 0.0003178328    1.010    0.010
        69 -10.2989    124.7660     81.2133   9.7762633499e+01   4.1897380596e+01    0.2076955    0.1752683   3.24 0.0008349631    1.338    0.253
        70 -10.8220     93.0536     79.0903   1.0602963184e+02   4.8495772298e+01    0.2079764    0.1976107 -23.53 0.0004148108    1.051    0.048
        71 -11.8629     13.2523    245.4231   1.5007245936e+02   2.2429799355e+01    0.4339842   0.09008919 -68.29  0.001956604    3.915    0.745
        72 -11.1696    158.7488    204.7277   1.1804419375e+02   8.4446426219e+00    0.3620494    0.1949836  54.48  0.001568306    1.988    0.497
        73 -10.9810     14.0234     59.0024   1.2688318564e+02   6.1918833592e+01    0.2721854    0.1588349 -35.22  0.001701221    1.453    0.312
        74 -13.0006    175.1970     29.7322   7.1760467117e+01   3.7923982507e+01    0.4819641    0.3959085  28.92  0.001466562    1.438    0.304
        75 -10.5663    130.3841     28.2808   7.9593420669e+01   4.8811912191e+01    0.2804374    0.1746638  67.85  0.001370942    1.765    0.434
        76 -12.4272    159.0262    235.8780   1.2295854113e+02   2.7247961065e+00    0.3585711    0.2795823  24.86  0.001135734    1.403    0.287
