#   1 NUMBER                 Running object number                                     
#   2 MAG_AUTO               Kron-like elliptical aperture magnitude                    [mag]
#   3 X_IMAGE                Object position along x                                    [pixel]
#   4 Y_IMAGE                Object position along y                                    [pixel]
#   5 X_WORLD                Barycenter position along world x axis                     [deg]
#   6 Y_WORLD                Barycenter position along world y axis                     [deg]
#   7 A_WORLD                Profile RMS along major axis (world units)                 [deg]
#   8 B_WORLD                Profile RMS along minor axis (world units)                 [deg]
#   9 THETA_WORLD            Position angle (CCW/world-x)                               [deg]
#  10 FWHM_WORLD             FWHM assuming a gaussian core                              [deg]
#  11 ELONGATION             A_IMAGE/B_IMAGE                                           
#  12 ELLIPTICITY            1 - B_IMAGE/A_IMAGE                                       
         1 -12.2652    206.7782     23.2729   5.8339140136e+01   3.1283829471e+01     1.286879    0.7784933  51.53  0.007160117    1.961    0.490
         2 -11.4266    212.8239     16.1275   5.6259063165e+01   3.0797264364e+01    0.6724592    0.3477029  60.30  0.001294394    1.904    0.475
         3  -9.2605     12.6736      3.8243   9.8129410556e+01   7.0863311130e+01    0.2071707   0.07520362 -27.82  0.001098515    2.662    0.624
         4 -10.0177    228.5132      2.0168   5.2204951551e+01   2.9045684823e+01    0.4636768    0.1744226  76.59  0.002092693    2.301    0.565
         5  -8.2104     45.2103    232.8732   1.3682901166e+02   1.9536540496e+01    0.2044879    0.1390516  72.52  0.001209992    1.283    0.220
         6  -8.6760     28.2428    249.4428   1.4141618109e+02   1.8117278312e+01    0.2332245    0.1801474  82.45     0.001627    1.085    0.078
         7 -10.2925     31.4835    245.4341   1.4052464454e+02   1.8558595019e+01     0.503755    0.3110163  87.33  0.003077126    1.406    0.289
         8 -12.1739      3.5340    245.6713   1.4553604341e+02   2.1618344416e+01     1.420548    0.9451234  70.34  0.008552549    1.139    0.122
         9 -13.8471      3.5092    148.0557   1.3746511159e+02   4.3753356504e+01     9.327106     1.129241 -72.00   0.02054448    9.086    0.890
        10 -10.4764     89.1672    225.1824   1.2675955442e+02   1.4973509700e+01     0.455507    0.1953862  43.18  0.001945768    2.114    0.527
        11 -10.4220     95.8293    234.0881   1.2646108466e+02   1.1983913615e+01     0.497466    0.2293734 -56.32    0.0014331    2.278    0.561
        12  -9.5762    114.4566    228.7906   1.2171891363e+02   1.0081150307e+01    0.4850748    0.2029675 -55.26  0.001992344    2.513    0.602
        13  -9.3805    126.8089    229.4070   1.1911055868e+02   7.8641308227e+00     0.330924    0.1064001  45.31  0.001154019    2.937    0.660
        14  -9.5605    109.2986    228.5785   1.2281625058e+02   1.0984426167e+01     0.274338     0.117733  42.91  0.001136237    2.104    0.525
        15 -10.0087     62.4936    189.4315   1.2809656732e+02   2.7360861695e+01    0.4113212    0.2813306 -43.30  0.001891593    1.763    0.433
        16  -9.8948     68.1110    182.6196   1.2574740514e+02   2.8248865288e+01    0.3111744     0.257221 -47.78 0.0007354418    1.334    0.250
        17  -8.6450    125.9779    232.0000   1.1967552292e+02   7.4675705852e+00    0.2369565   0.07267064  38.57 0.0008105644    2.999    0.667
        18  -8.1038    114.1808    174.9768   1.1285951210e+02   2.2569612680e+01    0.2620934    0.1742002 -30.34  0.001093871    2.048    0.512
        19  -9.4385     77.8086    171.3631   1.2149936118e+02   2.9619474604e+01    0.2655618    0.2290064 -62.18   0.00029819    1.109    0.098
        20 -11.4364     64.9439    168.3969   1.2434302561e+02   3.2249120154e+01    0.5519448    0.2946554 -43.34   0.00156806    2.192    0.544
        21 -10.6499     84.7674    163.3316   1.1825913874e+02   3.0542487291e+01    0.5624806    0.4649073 -47.65  0.001451174    1.236    0.191
        22  -8.4363     33.0000    159.9496   1.3137929668e+02   3.8268996249e+01    0.2249211    0.0659522 -66.74 0.0007950994    2.892    0.654
        23  -9.7402     73.0060    154.5233   1.1979650925e+02   3.4571789661e+01     0.368679     0.222376  62.08   0.00157026    2.139    0.532
        24  -9.2872     98.3724    147.8737   1.1153573741e+02   3.2104028647e+01    0.3624315     0.226997 -54.53  0.001194075    1.517    0.341
        25 -11.2303     67.0878    143.3873   1.1933861965e+02   3.8211870680e+01    0.8840289    0.5302678  59.96  0.003415359    2.189    0.543
        26  -8.2080     32.7738    142.9848   1.2894476015e+02   4.2469017577e+01    0.1868011   0.09549646 -64.90  0.000623026    1.648    0.393
        27 -11.1436     35.5273    220.5909   1.3765102332e+02   2.3464943051e+01    0.4065062    0.3702941 -84.21  0.001226394    1.259    0.206
        28  -8.2006    110.0100    133.9840   1.0525745796e+02   3.3340250437e+01    0.2487778    0.1914052 -17.59  0.001131325    1.680    0.405
        29 -10.3416     86.8154    146.7982   1.1448601289e+02   3.4340468594e+01    0.3203174    0.2553174 -42.40 0.0004771704    1.281    0.219
        30  -9.0325     96.6917    131.3800   1.0834773306e+02   3.6418319747e+01    0.2935607    0.2460016 -24.73 0.0008056186    1.338    0.253
        31  -7.8476    107.1519    121.8255   1.0311822121e+02   3.6737432867e+01    0.2021454    0.1771352 -15.77 0.0002796712    1.275    0.216
        32  -8.8321    168.1041    112.6859   8.5712246452e+01   2.5718077555e+01    0.3592735    0.2547476  87.44  0.001049531    1.923    0.480
        33  -9.3151     32.8836    108.1934   1.2263173980e+02   5.0738074230e+01    0.4930982   0.06166967 -59.32  0.001267173    5.897    0.830
        34 -13.2154     46.6022    209.3846   1.3418935921e+02   2.4676965528e+01     2.670328     1.544086  61.85   0.01368324    1.711    0.416
        35 -12.7716     14.1158    161.0943   1.3631104154e+02   3.9788839169e+01     2.981292     1.195935  84.40  0.009640099    4.798    0.792
        36  -9.3176    248.2816     87.0012   6.6675312372e+01   1.3258394237e+01    0.1890918    0.1514703 -58.90  0.001164094    1.036    0.035
        37 -10.0731     38.7655    246.0093   1.3921189082e+02   1.7548443018e+01    0.5005894    0.2708381  82.57  0.001268987    1.808    0.447
        38 -12.2098      2.0277     69.6166   1.2494921718e+02   6.1313538405e+01     7.743595    0.1785613 -60.67  0.008547544   44.479    0.978
        39 -12.1269     10.7060    206.5375   1.4149316531e+02   2.9361372127e+01    0.8969002    0.6526111  25.04  0.004583898    1.859    0.462
