#   1 NUMBER                 Running object number                                     
#   2 MAG_AUTO               Kron-like elliptical aperture magnitude                    [mag]
#   3 X_IMAGE                Object position along x                                    [pixel]
#   4 Y_IMAGE                Object position along y                                    [pixel]
#   5 X_WORLD                Barycenter position along world x axis                     [deg]
#   6 Y_WORLD                Barycenter position along world y axis                     [deg]
#   7 A_WORLD                Profile RMS along major axis (world units)                 [deg]
#   8 B_WORLD                Profile RMS along minor axis (world units)                 [deg]
#   9 THETA_WORLD            Position angle (CCW/world-x)                               [deg]
#  10 FWHM_WORLD             FWHM assuming a gaussian core                              [deg]
#  11 ELONGATION             A_IMAGE/B_IMAGE                                           
#  12 ELLIPTICITY            1 - B_IMAGE/A_IMAGE                                       
         1 -11.9672    238.1491     68.1806   7.2524716840e+01   1.7110070918e+01     1.643031    0.3798822 -45.89  0.004954522    4.064    0.754
         2 -13.7027    230.3870     40.3599   6.7125758628e+01   2.3046415050e+01     3.503097    0.8134366 -34.42   0.01127211    4.209    0.762
         3 -12.1995    248.0663     88.4255   7.5772141862e+01   1.1603936621e+01     2.769863    0.3738562 -37.25  0.006367295    6.873    0.855
         4 -13.0346    240.7694      4.0498   5.8234600082e+01   2.5175473128e+01     1.524961    0.8370881  59.44  0.008360571    1.908    0.476
         5 -12.9819    248.3165     18.2499   6.0496185196e+01   2.1844555276e+01     2.061941    0.7982802 -34.97  0.009370412    2.599    0.615
         6 -13.7719    245.9483     54.4322   6.8456147488e+01   1.7461513939e+01     4.016853     0.620747 -42.89   0.01175712    4.669    0.786
         7 -10.0114    110.9357      5.1785   7.6364677466e+01   5.5510583723e+01    0.2000467    0.1646156  15.82  0.001289801    1.209    0.173
         8  -8.7077     32.2697      5.3191   1.0129897290e+02   6.8770927544e+01    0.1113625   0.06651127  -3.79 0.0003112444    1.561    0.360
         9  -9.7058      4.0285      4.2948   1.1370791874e+02   7.1558005457e+01    0.1844874    0.1611364  67.07  0.001339279    2.895    0.655
        10  -9.5056     97.2551      4.0049   7.9156146063e+01   5.8441611153e+01    0.2391381    0.1244365  41.55  0.000936054    1.619    0.382
        11  -9.7232     50.9240      3.7736   9.3231598705e+01   6.6514213862e+01     0.180085    0.1314754  -4.11 0.0003060737    1.154    0.134
        12  -8.9600     14.9872      1.9817   1.0746893092e+02   7.0957281675e+01    0.1261059    0.0894287 -11.34 0.0009662849    1.006    0.006
        13  -8.8017     67.4833      1.4021   8.6512527166e+01   6.4159252299e+01    0.1164349   0.09188154  20.61 -7.218767e-05    1.027    0.026
        14  -9.3955     59.0345      1.4764   8.9335917930e+01   6.5520132298e+01    0.1607986   0.09693268  39.31  0.000350998    1.495    0.331
        15 -10.2785    189.7576    235.3658   1.1704495122e+02  -2.6353712424e+00    0.3346936    0.2363594 -77.45  0.001679305    2.619    0.618
        16 -10.4817    194.1584    248.9343   1.1832864656e+02  -5.4095330249e+00    0.3916355    0.3068212  57.44  0.002463019    1.489    0.328
        17  -9.6196    168.0636    250.0222   1.2337776691e+02  -1.1410996706e+00    0.1924754    0.1551187  38.09 0.0004254583    1.066    0.062
        18  -9.6355    206.4580    237.0000   1.1413401803e+02  -5.7579488487e+00    0.2533941    0.2101204  88.18  0.001506804    1.950    0.487
        19  -9.3418    229.9908    236.5201   1.0969332006e+02  -9.5584013178e+00     0.212047    0.1589686 -81.60  0.001030791    3.450    0.710
        20  -9.2757    215.8035    234.8079   1.1201778881e+02  -7.0101585697e+00    0.1661287    0.1454299  49.74  0.001076263    1.364    0.267
        21  -9.0649    240.4735    232.0110   1.0701905550e+02  -1.0599745056e+01     0.171492    0.1142898 -33.13  0.001022168    1.599    0.375
        22  -9.4083    225.3163    231.6579   1.0971534246e+02  -8.1332854646e+00    0.1742298    0.1584129 -48.15 0.0009516215    1.483    0.326
        23  -9.7597    223.6382    227.2860   1.0926539576e+02  -7.2323422997e+00     0.305849    0.2314087 -47.76  0.001369179    1.705    0.414
        24  -9.8130    217.1997    224.6272   1.1000379795e+02  -5.7555504032e+00    0.4789295    0.2167339 -44.80  0.002171989    2.642    0.622
        25  -9.2365    211.5449    227.9436   1.1164919401e+02  -5.2845367324e+00    0.1786211    0.1256489 -37.13  0.001022586    1.581    0.368
        26  -9.4845    198.9732    227.2065   1.1392717051e+02  -2.9823197254e+00    0.2155787    0.1750643 -61.80  0.001268344    1.671    0.401
        27 -10.4922    246.7107    225.7700   1.0479908663e+02  -1.0726383021e+01    0.3654655    0.3365871 -74.33  0.002437472    1.787    0.440
        28  -9.6675    206.6457    225.6705   1.1219032731e+02  -4.0907723061e+00    0.2415202    0.2230218  37.01   0.00157042    1.174    0.148
        29  -9.2050    190.4264    226.2379   1.1542302759e+02  -1.3070956154e+00    0.1690347    0.1286884 -57.39 0.0009505677    1.689    0.408
        30 -10.2794    233.1304    213.7372   1.0506279984e+02  -6.8267056537e+00    0.3493465    0.2285482 -46.15  0.001128656    1.870    0.465
        31  -8.5516    239.4783    215.4527   1.0421933238e+02  -8.1309007289e+00     0.304889    0.2217088 -62.67  0.001592843    2.500    0.600
        32 -10.4022    239.6064    221.3831   1.0528172376e+02  -9.0012029905e+00    0.3139083    0.2953277  85.08  0.001676131    1.632    0.387
        33  -9.7280    228.1169    221.8770   1.0747458080e+02  -7.1914267058e+00    0.2898607    0.1981591  58.98  0.001510508    2.193    0.544
        34  -9.5676    186.0000    220.9536   1.1540413437e+02   3.6616203861e-01    0.3365743   0.07769109 -44.62  0.001047119    4.896    0.796
        35 -11.0770    247.8553    217.1230   1.0302289767e+02  -9.7134904363e+00    0.5423683    0.3141157 -42.62  0.002791098    2.019    0.505
        36 -10.9200    247.8882    207.3166   1.0118258357e+02  -8.3122211322e+00    0.4335993    0.3286986 -60.03  0.002407352    2.157    0.536
        37 -10.0449    193.2247    218.9703   1.1363716430e+02  -6.2229307708e-01    0.3188494    0.1825264 -51.11   0.00153232    2.168    0.539
        38  -8.9572    219.6139    217.7918   1.0832951000e+02  -5.1350755378e+00    0.1666687    0.1222429 -46.76 0.0009346727    1.657    0.396
        39  -8.9619    227.8346    217.1440   1.0667014248e+02  -6.4435892106e+00    0.1814989    0.1382271   2.63 0.0008843932    1.314    0.239
        40 -10.5484    178.8933    203.8369   1.1384375453e+02   4.7173937644e+00    0.2943076    0.2069804 -50.43  0.001397319    1.594    0.373
        41 -10.5702    173.1939    203.8867   1.1503003416e+02   5.8074961830e+00     0.332712    0.2505663 -61.90  0.001208417    1.596    0.373
        42 -10.0677    179.3571    216.6278   1.1599420972e+02   2.3334429637e+00    0.2903848    0.2104533 -57.80  0.001090551    1.696    0.410
        43 -11.5889    176.6123    210.3336   1.1546476266e+02   3.9676454831e+00    0.4993282    0.3664473 -53.61  0.002534773    1.572    0.364
        44  -9.9211    229.4256    207.2978   1.0454461130e+02  -5.2135841406e+00    0.3882673    0.1453249 -41.18  0.001579001    2.827    0.646
        45  -9.1231    224.8529    208.3021   1.0559086286e+02  -4.5741831354e+00    0.2365328    0.1484684 -50.83  0.001174045    2.093    0.522
        46  -9.4175    206.1849    207.4991   1.0902881945e+02  -1.0866240854e+00    0.3166355    0.2029422 -31.42  0.001608718    1.701    0.412
        47 -10.1337    216.9868    212.1906   1.0780651350e+02  -3.8021998727e+00    0.3146738    0.1968073 -40.70  0.001643199    1.737    0.424
        48  -9.1562    217.4831    205.0347   1.0637595885e+02  -2.7405398530e+00    0.1959993    0.1303338 -37.41  0.001025744    1.574    0.365
        49  -9.5368    235.1746    203.4564   1.0274795373e+02  -5.6087451582e+00    0.2428424    0.1684399 -50.87 0.0008805222    1.883    0.469
        50 -10.8286    241.1951    209.1748   1.0273595494e+02  -7.4910107903e+00    0.3980994     0.329377 -61.62  0.001983912    1.843    0.457
        51  -9.1871    187.1358    203.9335   1.1217486777e+02   3.1158170984e+00    0.2203492    0.1651306 -82.72  0.001066211    2.082    0.520
        52 -10.2035    250.4437    200.2628   9.9377719091e+01  -7.6838278308e+00     0.418007     0.154515 -40.14  0.001670058    2.738    0.635
        53 -10.6728    247.0370    178.1006   9.5566083499e+01  -3.6338371763e+00    0.8457063    0.5554436 -63.05  0.003826143    2.704    0.630
        54 -10.0234    249.2579    185.6876   9.6713109035e+01  -5.2403666581e+00    0.3883648    0.2452403 -49.53  0.001317239    1.959    0.490
        55 -10.8503    246.4715    193.6725   9.8795891564e+01  -6.0179054451e+00    0.3996907    0.3198375 -57.51    0.0015823    1.751    0.429
        56 -11.6149    242.5470    181.8848   9.7137719957e+01  -3.4560571420e+00    0.8505327     0.374995 -49.00   0.00331814    3.015    0.668
        57 -10.7529    242.8206    200.8788   1.0085779236e+02  -6.5120244608e+00    0.4029913    0.2527583 -30.64  0.001833904    1.552    0.356
        58  -9.3475    223.5857    201.7637   1.0458850695e+02  -3.3065876690e+00    0.1761826    0.1259691 -46.34 0.0009398391    1.616    0.381
        59  -9.3562    231.0920    199.2002   1.0268291422e+02  -4.2285119988e+00    0.2329937    0.1752575 -62.77  0.001215248    2.046    0.511
        60  -9.7911    231.1449    193.5295   1.0156266741e+02  -3.3225042021e+00    0.4483564    0.1838512 -35.15  0.001836728    2.499    0.600
        61  -9.8790    230.1418    187.6555   1.0057930382e+02  -2.1713225421e+00    0.3303162    0.2080798 -47.90 0.0009489386    1.828    0.453
        62 -10.7389    237.0350    188.0173   9.9376726532e+01  -3.4762451883e+00    0.4303377    0.2242356 -38.80    0.0015187    1.894    0.472
        63 -10.8166    237.2898    198.3244   1.0136775473e+02  -5.1723559116e+00    0.3766395    0.2290884 -40.43  0.001537492    1.714    0.416
        64 -10.0736    176.4630    197.9963   1.1328037580e+02   6.2811443324e+00    0.3510165     0.142321 -46.59   0.00129629    2.680    0.627
        65  -9.0796    215.4366    198.2159   1.0546600601e+02  -1.2359229821e+00    0.1859994    0.1296506 -50.16 0.0009480384    1.712    0.416
        66 -10.2716    170.2390    197.7655   1.1454189715e+02   7.5454283537e+00    0.2543586    0.1794264 -51.87  0.001276718    1.563    0.360
        67 -10.0422    184.3102    195.8583   1.1125127200e+02   5.1443088188e+00     0.393915    0.1965205 -39.44  0.001661658    2.214    0.548
        68 -10.2526    224.6786    193.7025   1.0281235623e+02  -2.1806015142e+00    0.4600688    0.2608284 -57.86  0.001874666    3.054    0.673
        69  -8.9621    219.6129    194.7874   1.0399247284e+02  -1.4309276536e+00    0.1850973     0.127362 -47.15 0.0008264898    1.651    0.394
        70 -10.6398    243.9935    188.3311   9.8178573674e+01  -4.7520266814e+00    0.3520488    0.3062809 -85.64  0.001526278    1.764    0.433
        71  -9.4032    172.4600    191.0568   1.1282491863e+02   8.4106354729e+00     0.216504    0.1442924 -46.22  0.000883102    1.605    0.377
        72 -10.4440    235.2020    181.4264   9.8378498690e+01  -2.0545283094e+00    0.3766622    0.2750796 -23.24   0.00202236    1.353    0.261
        73  -9.6382    183.5522    182.7790   1.0886792738e+02   7.7942208128e+00    0.2810669      0.14341 -40.18    0.0011531    2.101    0.524
        74  -9.6232    230.4015    180.3974   9.9056363998e+01  -9.9345924297e-01     0.410541    0.2227314 -21.56   0.00170944    2.419    0.587
        75  -9.2687    176.3331    181.6669   1.1017759701e+02   9.4857784017e+00    0.1508407    0.1167979  82.83 0.0005952148    1.731    0.422
        76  -8.9174    190.7722    179.7383   1.0674451574e+02   6.9135687915e+00    0.2246625    0.1161932 -53.72 0.0006494901    2.391    0.582
        77  -9.1601    225.6659    179.1923   9.9697745799e+01   1.0568020750e-01    0.2819996    0.1203542 -33.51  0.001090833    2.511    0.602
        78  -9.3809    232.6129    174.6411   9.7455620067e+01  -4.2033877759e-01    0.2766476    0.2034748 -47.65  0.001258945    1.490    0.329
        79  -9.6672    223.4060    173.5834   9.8960246477e+01   1.5260753876e+00     0.330753    0.1996731 -50.97   0.00120742    1.947    0.486
        80  -9.3713    227.8468    171.5348   9.7691727094e+01   1.0291110420e+00    0.2840001    0.1754374 -52.85  0.001291505    1.989    0.497
        81 -11.3367    239.9540    124.2492   8.5130378178e+01   7.0894010121e+00     1.240282    0.3195726 -46.62  0.003485339    4.383    0.772
        82 -11.1023    241.9124    110.1015   8.1599185604e+01   9.1945194597e+00    0.7664951    0.3594509 -41.95   0.00320106    1.931    0.482
        83 -10.5911    235.0414    147.4882   9.1180204259e+01   3.9085817752e+00    0.5566701    0.3778467 -66.78  0.002259374    2.188    0.543
        84 -10.2369    247.4991    112.6228   8.1301480924e+01   7.5764112912e+00     0.282171    0.2074622 -51.42 0.0007983679    1.297    0.229
        85 -11.2308    248.2736    120.7165   8.2993189107e+01   6.0001076744e+00    0.9542942    0.3069102 -46.28  0.003217521    3.131    0.681
        86 -10.3942    244.0667    149.0116   8.9936463791e+01   1.8571491534e+00    0.4703164    0.2734339 -42.83  0.001722637    1.632    0.387
        87 -10.7801    248.8814    148.0038   8.8899635831e+01   1.1077327974e+00     1.532507    0.3640047 -47.17  0.003688808    6.652    0.850
        88 -12.0843    246.4258    163.9813   9.2736928588e+01  -1.1722772817e+00     1.253514    0.4249254 -39.73  0.004666845    2.745    0.636
        89  -9.9836    242.0060    154.0218   9.1380130817e+01   1.3776024114e+00    0.3686084    0.2589527 -59.02  0.001150544    1.813    0.448
        90 -10.6435    249.7066    138.0767   8.6601993411e+01   2.6740195656e+00    0.6840057    0.2422817 -46.60  0.002414871    2.974    0.664
        91 -10.5324    247.9032    130.0121   8.5119705345e+01   4.4421878424e+00    0.4300258    0.2713713 -49.70  0.001275842    1.588    0.370
        92 -10.5399    243.4917    140.1181   8.8085949448e+01   3.5373006153e+00    0.5145335    0.2150007 -39.41   0.00157563    2.192    0.544
        93 -10.3716    242.2124    134.0736   8.6961057005e+01   4.8679727137e+00    0.4108208     0.221691 -45.45  0.001344069    1.777    0.437
        94  -9.8352    237.4009    170.0101   9.5610884007e+01  -5.2297809251e-01    0.3308219    0.1534237 -39.07  0.001137615    2.061    0.515
        95  -9.8721    218.5376    168.3732   9.8791279926e+01   3.4243667554e+00    0.3835177    0.2449964 -46.30  0.001809182    1.636    0.389
        96  -9.4070    205.1055    169.0400   1.0157892934e+02   6.0243004987e+00     0.315067    0.1918544 -55.90  0.001346197    2.062    0.515
        97  -9.4948    178.8472    168.8720   1.0701898019e+02   1.1547009860e+01    0.2804662    0.2039859 -49.91  0.001338456    1.441    0.306
        98  -9.2955    229.1372    166.3020   9.6342502238e+01   1.7052939831e+00    0.2455219    0.1844604 -26.67  0.000923593    1.314    0.239
        99 -10.0255    199.6078    164.9193   1.0180969980e+02   7.9573002669e+00    0.3885986    0.2356281 -47.26   0.00139525    1.721    0.419
       100  -9.3969    191.5119    165.5299   1.0361573088e+02   9.5424686301e+00    0.3139683    0.1473877 -43.32  0.001210639    2.167    0.538
       101  -9.7078    240.1724    163.9657   9.3835670219e+01  -2.8182662931e-03    0.2979248    0.2459033 -61.80  0.001233441    1.516    0.340
       102 -10.5884    238.2946    158.9329   9.3094813737e+01   1.2318958015e+00    0.4393391    0.3091469 -47.12  0.001358746    1.475    0.322
       103  -9.5413    234.0088    164.4482   9.5050014673e+01   1.0889766807e+00    0.2775784    0.1828908 -50.08 0.0009971025    1.694    0.410
       104  -9.7233    212.7622    163.4463   9.8856041897e+01   5.5067524486e+00    0.3550525    0.1888241 -43.14   0.00150506    1.880    0.468
       105 -10.0797    205.0029    161.7367   1.0002527025e+02   7.4418835593e+00    0.3982993    0.3012347 -63.13  0.001918472    1.637    0.389
       106  -9.2952    221.3152    161.9541   9.6879723496e+01   4.0421156145e+00    0.2099183    0.1783629 -33.05 0.0006418432    1.141    0.124
       107  -9.0752    231.4266    159.9204   9.4550080346e+01   2.3947445535e+00     0.221397     0.132293 -38.44 0.0007856858    1.599    0.374
       108  -9.8489    226.5592    157.4904   9.4921678175e+01   3.8017244089e+00    0.4873638    0.1299895 -42.12  0.001496451    3.623    0.724
       109  -9.7557    196.9584    157.3102   1.0069016881e+02   1.0013208375e+01    0.3508698    0.2207835 -41.88  0.001313414    1.593    0.372
       110  -9.6295    222.0000    156.1218   9.5477418857e+01   4.9777064887e+00    0.3612215   0.09466983 -42.12  0.001016204    3.694    0.729
       111  -9.2176    221.1985    152.2124   9.4765652705e+01   5.8685225279e+00    0.2157232     0.188944 -35.79 0.0007843947    1.103    0.093
       112  -9.2908    216.4542    156.4653   9.6612267056e+01   6.0558815275e+00    0.2612529    0.1317894 -49.94  0.001023573    2.239    0.553
       113  -8.8240    187.4991    155.9967   1.0237747300e+02   1.2320083007e+01    0.2351682    0.1499865 -42.90 0.0009110364    1.582    0.368
       114  -9.7399    233.3052    154.2026   9.2965979763e+01   3.0477638829e+00    0.3297646    0.2274024 -53.29  0.001448171    1.647    0.393
       115  -9.7282    205.5900    154.2765   9.8262230391e+01   8.7607239205e+00    0.2776103    0.1414695 -43.92  0.001015344    1.958    0.489
       116  -9.7670    228.3177    150.8970   9.3148387380e+01   4.6495629285e+00    0.4343179    0.1873249 -35.04  0.001651822    2.353    0.575
       117  -8.9671    211.5359    151.9753   9.6571151537e+01   7.9393907701e+00    0.2293506    0.1427836 -41.10 0.0009500529    1.574    0.365
       118  -8.8259    202.3613    151.7430   9.8344311099e+01   9.9488325620e+00    0.2103362    0.1397177 -31.95 0.0008647048    1.595    0.373
       119  -9.6688    215.2539    148.9223   9.5164525307e+01   7.7336781929e+00    0.3386567    0.2194883 -48.73  0.001405403    1.600    0.375
       120  -9.2278    218.4898    144.4968   9.3547996471e+01   7.8861474726e+00    0.2322269    0.2217736  -1.94 0.0008397307    1.053    0.050
       121  -9.8011    214.3999    142.6792   9.3913995400e+01   9.1078913809e+00    0.4766665    0.2404709 -49.59   0.00119376    2.151    0.535
       122  -8.8043    196.5953    150.2087   9.9174942254e+01   1.1505382588e+01    0.2183821    0.1438677 -30.88  0.000952119    1.663    0.399
       123 -10.1372    223.4439    146.6474   9.3103031293e+01   6.4387163203e+00     0.345852    0.2653501 -44.35  0.001180408    1.278    0.218
       124  -8.9148     41.4608    148.5592   1.3609346142e+02   4.0038837616e+01    0.1281892    0.1057703 -77.59  0.000105617    1.007    0.007
       125  -9.3337    207.5302    145.0218   9.5786873670e+01   1.0143704893e+01    0.2373402    0.1453534 -40.59  0.001034321    1.600    0.375
       126 -10.1675    155.4845    143.4922   1.0668871627e+02   2.2001084637e+01    0.3307686    0.1537535 -46.97  0.001209844    2.166    0.538
       127  -9.0868    238.8294    140.7458   8.9022495687e+01   4.3582167350e+00    0.1880471    0.1628671 -64.05 0.0005378319    1.303    0.232
       128  -9.6327    224.2004    140.4535   9.1565938395e+01   7.4350054045e+00    0.2793254    0.1971749 -38.80 0.0009085008    1.351    0.260
       129  -9.3569    217.6286    132.7926   9.1024676350e+01   1.0293612707e+01    0.3078453    0.1991201 -53.01  0.000865984    1.665    0.400
       130 -10.3054    220.7780    129.1066   8.9585741743e+01   1.0301726652e+01    0.4717671    0.2965575 -56.66  0.002051747    1.849    0.459
       131 -10.3609    218.5353    138.4755   9.2166833385e+01   9.0171336522e+00     0.452794    0.2962918 -45.57  0.001504144    1.500    0.333
       132  -9.1631    215.4735    135.5174   9.2061772050e+01   1.0245638372e+01    0.2557461    0.1424195 -29.56 0.0007742414    2.049    0.512
       133  -9.4485    208.3992    137.7437   9.3938743987e+01   1.1371322568e+01    0.2988667    0.1387394 -44.94  0.001126296    2.133    0.531
       134  -8.8282    192.7577    136.9822   9.6911015227e+01   1.5022704088e+01    0.2123051    0.1293884 -41.36 0.0008901909    1.627    0.385
       135  -9.5693    234.2128    135.5659   8.8665411970e+01   6.2384351174e+00    0.2863499    0.2151354 -61.32  0.001109522    1.550    0.355
       136  -8.6594    198.5504    136.5230   9.5614226650e+01   1.3808628336e+01    0.1515047    0.1484894 -47.29 0.0005853358    1.009    0.009
       137  -9.8312    229.9362    141.1634   9.0683712284e+01   6.1019733821e+00    0.3717146    0.1985762 -43.12  0.001591621    1.788    0.441
       138  -9.2395    205.6224    130.8373   9.2861472922e+01   1.3340292806e+01    0.2232366    0.1370064 -49.94 0.0009445798    1.684    0.406
       139  -9.5683    225.3907    133.6332   8.9793000049e+01   8.4542331231e+00    0.2879694    0.1717566 -37.86 0.0009257963    1.602    0.376
       140  -8.9605    212.3435    129.1979   9.1178379476e+01   1.2150332240e+01    0.2255126    0.1312773 -48.96 0.0009400665    1.757    0.431
       141  -9.3474    227.5687    125.2617   8.7475362863e+01   9.5399416170e+00     0.284032    0.1328484 -43.09  0.001119472    2.015    0.504
       142  -9.9191    179.8323    123.8060   9.6465097092e+01   2.0690839596e+01    0.4420765     0.257098 -41.77  0.001692433    1.714    0.417
       143  -9.4737    235.1158    123.5786   8.5786934558e+01   8.2287628400e+00    0.2616498     0.181788 -47.41 0.0009593362    1.379    0.275
       144  -8.9958    187.9928    123.2253   9.4588769815e+01   1.8906770381e+01    0.2336684    0.1645971 -59.89 0.0006436179    1.612    0.380
       145  -9.1898    199.8478    126.5437   9.2977256562e+01   1.5498921328e+01    0.2596001    0.1770806 -46.78 0.0007431998    1.451    0.311
       146 -10.6041    230.8392    116.3177   8.4835725579e+01   1.0470619363e+01    0.6919763    0.1680614 -42.54  0.002023634    3.757    0.734
       147  -8.9829    220.0000    115.4555   8.6512989156e+01   1.3037048012e+01    0.3237083   0.08193649 -38.97  0.000855302    3.770    0.735
       148  -9.9441    181.3373    115.2746   9.4009126135e+01   2.2080289307e+01    0.3467894    0.2101851 -37.38   0.00117174    1.696    0.410
       149 -10.1810    134.3092    115.5290   1.0508191343e+02   3.2789230603e+01    0.2883369    0.1399655 -45.47  0.001081491    2.035    0.509
       150  -8.7104    185.5322    115.0053   9.3057386199e+01   2.1141700712e+01     0.243142    0.1526445 -41.50 0.0009721459    1.578    0.366
       151  -9.3759    242.8152    119.2702   8.3536987061e+01   7.3808600010e+00    0.2951525    0.2040531 -60.89 0.0008274311    1.658    0.397
       152 -11.5222    229.1863    104.5096   8.2347119901e+01   1.2974128055e+01    0.6999036    0.3321439 -36.16  0.002801169    2.068    0.516
       153  -9.2550    182.6112    108.7733   9.2085082712e+01   2.3080458755e+01    0.2941641    0.1511688 -37.50  0.001115819    2.005    0.501
       154  -8.6773    160.6491    108.3255   9.6801469765e+01   2.8386175817e+01    0.1657979    0.1249328 -84.93 0.0007048346    1.758    0.431
       155 -10.3003    224.1913    248.6220   1.1275625322e+02  -1.0245717299e+01    0.2015468     0.178642   3.65 0.0006957091    1.179    0.152
       156 -10.5287    225.9131     87.8251   7.8910223210e+01   1.6666149770e+01    0.4829572    0.2135346 -35.92   0.00121957    2.254    0.556
       157 -10.8093    230.0421     82.9604   7.7118549601e+01   1.6544873907e+01    0.3538882    0.3045245  12.04  0.001612987    1.540    0.351
       158  -9.2913    225.1800     81.8839   7.7601023596e+01   1.7854284851e+01    0.2575406    0.2009031 -47.50 0.0008457806    1.206    0.171
       159  -9.1707    216.6898     98.9060   8.3106623190e+01   1.6848215222e+01    0.3794836    0.2098928 -28.77  0.001385221    2.137    0.532
       160 -11.3049    224.6956     93.2076   8.0393094583e+01   1.6008084727e+01    0.5803211    0.3958842 -45.09   0.00232062    1.378    0.274
       161  -9.5540    221.9536     85.5019   7.8977093313e+01   1.7990212006e+01    0.4198304    0.2683516 -15.70  0.001738514    2.424    0.587
       162  -9.9272    220.7191     97.5525   8.2093413783e+01   1.6155127915e+01    0.5968415    0.1843285 -40.03  0.001940032    2.999    0.667
       163  -8.8803    215.7987     94.0389   8.2069808756e+01   1.7935175194e+01    0.3135433    0.2001818 -39.87 0.0008771049    1.513    0.339
       164 -10.4360    222.4861    104.1789   8.3388491692e+01   1.4550738595e+01    0.5365974    0.2287603 -45.70  0.001563188    2.269    0.559
       165 -10.7687    224.9820     99.4774   8.1846193087e+01   1.4828616662e+01    0.3588554    0.2396668 -34.36 0.0008945141    1.508    0.337
       166 -10.1396    217.9975     89.8607   8.0678659388e+01   1.8159884202e+01    0.4940751    0.3132568 -49.87  0.002105031    1.541    0.351
       167  -9.0829    218.0000     85.0124   7.9493194944e+01   1.9006514051e+01    0.2849428     0.192753 -41.98 0.0008248764    1.417    0.294
       168  -8.4907    205.6604    105.3178   8.6658219765e+01   1.8254366342e+01    0.1602215     0.117578 -76.36 0.0007049089    1.709    0.415
       169  -8.1739    202.6879     97.6820   8.5300580924e+01   2.0389385503e+01    0.1515011    0.1222707  13.48 0.0007035574    1.644    0.392
       170  -9.0807    235.2628     95.0456   7.9162273907e+01   1.3286466658e+01    0.2109141    0.1737687 -49.14 0.0006599071    1.117    0.105
       171  -8.6090    164.3372     93.6646   9.2035767426e+01   3.0443572525e+01    0.1642061    0.1225778 -79.94 0.0007051775    1.748    0.428
       172  -8.6137    188.2772     92.6377   8.6749720286e+01   2.4818125667e+01    0.1613361    0.1167029 -69.83 0.0006067883    1.668    0.400
       173 -10.3976    230.9745     90.5598   7.8771440278e+01   1.5031125747e+01    0.3240602    0.1855907 -40.03  0.001058714    1.638    0.390
       174  -9.1563     23.8207     91.6056   1.3150417825e+02   5.4562647231e+01    0.1413543      0.11069  41.36 0.0003849638    1.589    0.371
       175  -8.9625    236.5192     89.9264   7.7780896062e+01   1.3888404955e+01     0.221069    0.1319225 -40.28  0.001020972    1.558    0.358
       176  -8.8177    175.4913     88.0022   8.8097560597e+01   2.8809684347e+01    0.2332185    0.1506061 -42.07 0.0007181437    1.552    0.356
       177  -9.6491    206.0040     84.8281   8.1461131666e+01   2.1913265330e+01    0.3228685    0.2062264 -35.95   0.00106159    1.594    0.373
       178  -9.7937    201.0586     77.8453   8.0540657715e+01   2.4332491805e+01    0.3622566    0.2071441 -42.63  0.001060053    1.710    0.415
       179  -8.9118    200.4824     83.0101   8.1968318770e+01   2.3576374422e+01    0.2831021    0.1507324 -33.47 0.0008699724    2.008    0.502
       180  -8.5085    215.0000     79.9332   7.8730765014e+01   2.0593942302e+01    0.2359823   0.08137053 -37.04 0.0007880011    2.843    0.648
       181 -10.4697    119.5672     79.0059   9.8846942692e+01   4.3446391936e+01    0.3763264    0.1420735 -41.03  0.001327064    2.636    0.621
       182  -8.8345    174.4881     77.9811   8.5568278885e+01   3.0872405864e+01    0.2277195      0.12055 -58.16 0.0008105022    2.589    0.614
       183  -9.2766    166.5055     77.9663   8.7219088007e+01   3.2837727778e+01    0.2374223    0.1505074 -39.19  0.001037388    1.606    0.377
       184 -10.5030    218.4691    247.4406   1.1360567052e+02  -9.1865291389e+00    0.3270184    0.2295094 -39.55  0.002037387    1.718    0.418
       185 -10.8911    176.3073    246.1834   1.2127146997e+02  -1.9673792115e+00    0.4689308    0.2840059 -40.73  0.002599812    2.005    0.501
       186  -8.3801    223.3345     76.2824   7.6536023960e+01   1.9228238491e+01    0.1392545      0.11376  26.85 0.0003626983    1.617    0.382
       187  -8.9270    211.3506     75.8764   7.8314277826e+01   2.2159214834e+01    0.2051419     0.138951 -26.25 0.0009144636    1.740    0.425
       188 -10.0692    209.7489    247.5068   1.1521598100e+02  -7.7885500503e+00    0.2811299    0.1926293  51.01   0.00165524    1.630    0.387
       189  -9.5149    163.3253     71.9012   8.6179007250e+01   3.4677481267e+01    0.3029923    0.1263622 -43.78   0.00108222    2.485    0.598
       190  -8.6669    183.5211     77.5285   8.3662339988e+01   2.8717215137e+01    0.1540747    0.1420958 -83.32 0.0002037491    1.072    0.068
       191 -10.1974    222.0000     70.9445   7.5448276817e+01   2.0422303182e+01    0.3333284    0.1871652 -37.37  0.001256492    1.757    0.431
       192 -10.4940    223.2226     67.0043   7.4319648520e+01   2.0767432300e+01    0.4061437    0.2326682 -32.21  0.001823574    1.885    0.470
       193  -8.8633    170.4321     70.4943   8.4309098975e+01   3.3169318105e+01    0.1499385     0.143219  87.20 0.0001538296    1.027    0.027
       194  -8.9348    193.6357     67.8014   7.9217963730e+01   2.7850349793e+01    0.2132317    0.1305946 -46.77 0.0009449028    1.641    0.390
       195  -8.7343    203.0000     66.0174   7.7178805544e+01   2.5823021692e+01    0.2381705   0.08235539 -35.62 0.0008007767    2.931    0.659
       196  -8.6136    187.2712     62.6567   7.8964617799e+01   3.0265759730e+01    0.1528286    0.1087696 -68.12 0.0002770486    1.613    0.380
       197  -9.6625    157.7333     61.7799   8.4438911098e+01   3.7727891267e+01    0.2644784    0.1862791 -31.71  0.001262027    1.517    0.341
       198  -9.8069    250.3399    245.2815   1.0755518357e+02  -1.3766919389e+01    0.2250961    0.1409987 -23.48  0.001052122    1.606    0.377
       199  -9.5854    153.0000     59.9600   8.4915407245e+01   3.9166928533e+01    0.2370608   0.08487331 -34.71 0.0008006297    2.930    0.659
       200  -9.2428    217.3921     58.2359   7.3036558864e+01   2.3534410599e+01    0.2509475    0.1377505 -32.09 0.0007558945    1.984    0.496
       201  -8.8714    192.0000     55.0015   7.6114386115e+01   3.0272631497e+01    0.2284212   0.08261225 -34.12 0.0007940207    2.884    0.653
       202  -8.6316     35.7223     43.3390   1.1472635015e+02   6.2946455027e+01    0.1025281   0.09151711 -64.55 0.0002432888    1.617    0.382
       203  -9.3043      5.9814     38.7772   1.2512124218e+02   6.6092129055e+01    0.1224194   0.08227234   5.79  0.000341176    1.623    0.384
       204  -8.5048    179.2978     37.6779   7.3526439065e+01   3.5895472813e+01    0.1451274    0.1024703 -71.19 0.0003170111    1.622    0.384
       205  -8.8682    128.0062     34.0480   8.2385775649e+01   4.8722579329e+01    0.1617769    0.1496886  30.79 0.0003421624    1.035    0.034
       206  -8.6241    236.2436    107.6419   8.1933260265e+01   1.0852758015e+01    0.1486783    0.1029047 -61.10  0.000401115    1.595    0.373
       207  -9.9138    169.4440     30.8489   7.3245452998e+01   3.9211233060e+01      0.30876    0.1465944 -15.73   0.00114558    3.414    0.707
       208  -8.8552    237.5394    245.0288   1.0976855600e+02  -1.1842427962e+01    0.1429271    0.1055385 -59.27 0.0008091429    2.559    0.609
       209  -9.2655    136.7170     25.0353   7.7554535750e+01   4.7794341778e+01    0.1789767     0.166848   7.00 0.0003362173    1.147    0.128
       210  -8.5272     68.2827     23.3684   9.5291990224e+01   6.1673440061e+01    0.1285104   0.08174622   4.19 0.0005463067    1.694    0.410
       211  -8.9112     84.6196     21.8094   8.9456419804e+01   5.9080735467e+01    0.1669224    0.1093743 -35.97 0.0009066308    1.711    0.416
       212  -9.0524     31.0124     16.5223   1.0665437147e+02   6.7508459034e+01    0.1498462   0.09657683  21.42 0.0003492234    1.507    0.336
       213  -8.8685      2.3651     16.2700   1.1925649698e+02   6.9967103901e+01    0.1096109   0.05750809 -21.56 0.0006997073    1.659    0.397
       214  -9.4772     29.8795     13.0618   1.0568756750e+02   6.8085759248e+01    0.1651298    0.1231154  -8.04 0.0004391491    1.013    0.013
       215 -10.0006    225.0025    243.5365   1.1177871070e+02  -9.7069836683e+00    0.2004595    0.1776281 -48.12  0.001296566    1.575    0.365
       216 -10.0507    240.3948    240.8896   1.0856361980e+02  -1.1749148252e+01    0.2872398     0.232937 -75.77  0.001613485    2.646    0.622
       217 -10.2176    213.5148    241.3949   1.1353665443e+02  -7.5616107035e+00    0.3986855    0.1882927  44.73  0.001888682    1.976    0.494
       218  -9.5265    151.4720    249.5089   1.2642785835e+02   1.7823921775e+00    0.1267445    0.1042037  44.94 0.0002621552    1.048    0.046
       219  -9.8219    148.6182    239.9718   1.2568062803e+02   3.8581617108e+00    0.2578449    0.1259906 -52.04  0.001246967    2.427    0.588
       220  -9.1211    248.3693    240.2162   1.0703886162e+02  -1.2856432800e+01    0.1515095    0.1054498 -37.58  0.000946206    1.719    0.418
       221 -10.0327    193.3668    238.6840   1.1688430953e+02  -3.7701615797e+00    0.3094697     0.220993  55.77  0.001771725    1.586    0.369
