#   1 NUMBER                 Running object number                                     
#   2 MAG_AUTO               Kron-like elliptical aperture magnitude                    [mag]
#   3 X_IMAGE                Object position along x                                    [pixel]
#   4 Y_IMAGE                Object position along y                                    [pixel]
#   5 X_WORLD                Barycenter position along world x axis                     [deg]
#   6 Y_WORLD                Barycenter position along world y axis                     [deg]
#   7 A_WORLD                Profile RMS along major axis (world units)                 [deg]
#   8 B_WORLD                Profile RMS along minor axis (world units)                 [deg]
#   9 THETA_WORLD            Position angle (CCW/world-x)                               [deg]
#  10 FWHM_WORLD             FWHM assuming a gaussian core                              [deg]
#  11 ELONGATION             A_IMAGE/B_IMAGE                                           
#  12 ELLIPTICITY            1 - B_IMAGE/A_IMAGE                                       
         1 -12.1587    179.3500     39.9045   6.3019739476e+01   3.5297277621e+01     1.338474     1.030038   9.24  0.004566291    1.505    0.335
         2 -11.2223    196.7395      8.3329   5.0376327515e+01   3.4378024316e+01    0.9587398    0.4263693 -36.07  0.003440542    2.091    0.522
         3  -9.8899    201.4114     11.2352   5.0763075013e+01   3.2855029161e+01    0.3841716    0.2660256 -31.12  0.001448083    1.394    0.283
         4 -11.2164    203.0249      6.1259   4.9020195965e+01   3.2937418185e+01    0.9018586     0.501881 -48.26  0.004044422    1.810    0.448
         5  -8.6398    120.1354      9.0368   6.2670136240e+01   5.4312242370e+01    0.3027536    0.2242469  44.94  0.001015652    1.290    0.225
         6  -7.5011    145.4590      5.4167   5.6328103472e+01   4.8294955172e+01     0.142896    0.1348569  39.93 0.0001628598    1.012    0.012
         7  -8.6497    145.4019    211.3781   1.0913189617e+02   1.3436108880e+01     0.401902      0.14224  55.16  0.001536852    3.845    0.740
         8  -8.4771    245.4992    250.5139   9.8202540919e+01  -6.0739907759e+00    0.1033322    0.0709539  25.76 -5.635834e-06    1.008    0.007
         9 -11.9201    233.0728    250.0172   9.9955991092e+01  -4.3359716850e+00    0.2080903    0.1212678  36.04 0.0003434258    1.248    0.199
        10 -14.9109     29.5677    222.9732   1.2993223197e+02   2.7089695330e+01    0.9834539    0.8501985  64.06  0.008915898    1.433    0.302
        11 -17.9519     37.7646    244.3677   1.2969085263e+02   2.2895463201e+01     3.561717     2.891764  62.68   0.01382633    1.348    0.258
        12  -8.3765      8.0365    178.4881   1.3138000774e+02   3.6985297154e+01     0.155128    0.1091411 -88.75 0.0004284016    1.197    0.165
        13  -9.4129      1.3645    178.1467   1.3257411272e+02   3.7611837989e+01    0.1458591   0.07352865 -85.34 0.0002700117    1.562    0.360
        14  -8.8299    250.3289    177.4696   8.5779629485e+01   1.1310850838e-01    0.2183497     0.149573 -32.31 0.0009231518    1.648    0.393
        15  -8.1619    204.4946    176.9960   9.3286556219e+01   8.1508270932e+00    0.1782017    0.1238007 -31.35  0.001029088    1.579    0.367
        16  -9.2094    239.3476    173.1960   8.6709240027e+01   2.4514629861e+00    0.2516291    0.1712609  42.11 0.0002309452    1.420    0.296
        17  -9.5084    240.0347    168.4147   8.5680645544e+01   2.9011794141e+00    0.3028407    0.1925829  18.45 0.0003116982    1.567    0.362
        18  -9.9392    119.1689    200.1865   1.1249553405e+02   1.9314032245e+01    0.3038151    0.2304187 -79.81  0.001027424    1.478    0.324
        19  -7.8082    123.0373    172.5400   1.0806554653e+02   2.3491058514e+01    0.1971011    0.1125603  44.44 0.0005383962    1.580    0.367
        20  -9.8446    133.9512    193.2956   1.0886693064e+02   1.8086772006e+01    0.3574938    0.2332288 -86.93  0.001937182    2.253    0.556
        21 -14.1889     30.8718    234.4168   1.3026911367e+02   2.5135905768e+01    0.2713262     0.217478  47.18  0.001263482    1.527    0.345
        22  -8.1599    192.7877    165.4849   9.3256161936e+01   1.1962618367e+01    0.2266543    0.1861108 -28.35 0.0008579604    1.314    0.239
        23  -9.2077    240.1833    163.5739   8.4707873157e+01   3.4603245904e+00    0.2301255    0.1880663 -11.88 0.0005059863    1.175    0.149
        24  -7.3497    249.6947    163.2868   8.3144594137e+01   1.8325552473e+00    0.1054067    0.1008208 -57.24 0.0002221097    1.566    0.361
        25  -8.2464     35.7563    163.2601   1.2500391907e+02   3.7329709366e+01    0.1407489    0.1242403 -72.83  0.001069123    1.384    0.277
        26 -10.1929    208.2230    161.2565   8.9650920279e+01   9.6465860417e+00    0.2408791    0.2032249  36.65 0.0002854205    1.115    0.103
        27  -8.2139    109.7227    161.7302   1.0920959459e+02   2.7734303525e+01    0.2675955    0.1629167  74.06  0.001300466    2.122    0.529
        28  -9.0391     97.5215    158.9243   1.1140613622e+02   3.0228072789e+01    0.2145292    0.1879649  55.53 0.0003819663    1.144    0.126
        29  -8.5458    161.0940    164.9306   9.9190880606e+01   1.8050092990e+01    0.1936687    0.1735908  46.11  0.000287222    1.013    0.013
        30 -10.5423     40.5533    155.0067   1.2326733849e+02   3.8510018980e+01    0.6885492    0.1631907  36.03  0.002395827    3.913    0.744
        31 -10.2024    101.6836    153.3208   1.0966455756e+02   3.0701641033e+01    0.5684735    0.3468625 -39.91  0.001241734    2.290    0.563
        32  -9.6249    107.5200    148.9375   1.0767486619e+02   3.0641225197e+01    0.3134975    0.2640459  51.93  0.001159623    1.152    0.132
        33  -8.9266     93.9668    151.6882   1.1112233942e+02   3.2243428397e+01    0.2136793    0.1668247 -83.59 0.0003268723    1.233    0.189
        34  -9.4068    133.9771    146.7795   1.0147592353e+02   2.6415790236e+01    0.8714733    0.2464281 -56.32  0.002432232    5.618    0.822
        35  -8.7293    114.0005    150.1051   1.0643428787e+02   2.9317299432e+01    0.2502925    0.2177231  31.37 0.0008625552    1.334    0.250
        36  -9.5066    193.7495    196.3297   9.8463483393e+01   7.4619374221e+00    0.3028105     0.184051 -61.10  0.001471125    3.209    0.688
        37 -10.5520      4.3890    147.0424   1.3032400179e+02   4.3472450351e+01    0.5065526    0.3094854   8.59   0.00238936    3.056    0.673
        38 -11.7903      4.8506    136.0723   1.2949710808e+02   4.5710415385e+01    0.9258928    0.5085458 -72.39  0.006035296    1.496    0.332
        39 -10.9728      4.6864    124.4323   1.2867064915e+02   4.8190683343e+01    0.6110003    0.2686447 -63.55  0.003506388    1.960    0.490
        40  -9.9286     27.3982    146.1315   1.2531174892e+02   4.1691062713e+01    0.2588993    0.1668775 -88.73  0.001087277    1.248    0.199
        41  -8.9713    140.6359    145.7036   9.9836796840e+01   2.5373007597e+01    0.4600637    0.1951918  35.95  0.001720376    2.885    0.653
        42  -7.5007    196.2903    185.3391   9.6200371006e+01   8.4868074908e+00    0.1263603   0.08830676  13.49 0.0002542294    1.644    0.392
        43 -10.7369     32.5996    142.0352   1.2377439415e+02   4.2054450687e+01    0.4916083    0.2116199  57.88  0.002235511    2.336    0.572
        44  -8.7258    227.6183    143.9238   8.2716603739e+01   8.3373919170e+00    0.2148373    0.1768001  37.72 0.0003608845    1.196    0.164
        45  -7.4581    213.4574    142.4979   8.4843624612e+01   1.1333001569e+01    0.1353888     0.124347  13.03 2.396415e-05    1.046    0.044
        46  -7.7545    155.9715    142.2005   9.5889717998e+01   2.3045187302e+01    0.1841826    0.1712343  56.81 0.0002520668    1.046    0.044
        47  -7.5848    137.6935    142.2599   9.9807199024e+01   2.6592508356e+01    0.1350768    0.1034749  75.92 0.0001755006    1.521    0.343
        48  -9.7748    110.3114    141.0395   1.0569547136e+02   3.1788169953e+01    0.4096104    0.2789811  46.41   0.00196822    1.427    0.299
        49  -9.5086     15.4136    141.8473   1.2759103798e+02   4.3662947494e+01    0.1799563    0.1228861  60.67 0.0005678444    1.329    0.247
        50  -9.3357    112.3047    137.3388   1.0456842316e+02   3.2209719827e+01    0.2292205    0.1934122 -60.49  0.001101302    1.190    0.159
        51  -9.6193    100.4324    138.2553   1.0748607074e+02   3.4016845871e+01    0.2385153    0.2257241  49.31  0.000322816    1.190    0.160
        52 -11.6797     33.7143    133.5533   1.2265274944e+02   4.3769131633e+01    0.6782542    0.3928004  84.72  0.003951538    1.603    0.376
        53  -9.0286    117.5816    129.5830   1.0184889272e+02   3.2883825435e+01    0.2596086    0.2115279 -18.29 0.0008889067    1.683    0.406
        54  -8.7767    105.4057    125.7804   1.0399904173e+02   3.5835728656e+01     0.228493    0.2163033   1.87 0.0005666719    1.305    0.234
        55  -8.7694     20.5608    125.9698   1.2501533359e+02   4.6625188286e+01    0.1635793    0.1349539  70.28 0.0003317099    1.191    0.161
        56 -11.1366     34.4920    118.8148   1.2075887234e+02   4.6938126405e+01    0.4246005    0.3350472  85.36  0.002525694    1.092    0.084
        57  -7.6423    183.8082    119.1126   8.5026851943e+01   2.1319113678e+01    0.2014066      0.16734  15.76  0.000559292    1.300    0.231
        58  -7.5732    112.0209    119.0385   1.0100302457e+02   3.6111315238e+01      0.16473    0.1532865  69.69 0.0003265132    1.060    0.057
        59  -7.4174    245.0005    118.0204   7.4096900075e+01   8.4266733781e+00    0.1623963    0.1433913   2.98 0.0009700088    1.029    0.028
        60  -9.3890     52.9982    117.9858   1.1587141096e+02   4.5149565035e+01    0.1932056     0.160172 -89.59 0.0003898302    1.052    0.049
        61 -10.7601      3.8130    113.7596   1.2800203061e+02   5.0555622027e+01     0.436942    0.3064752  78.43  0.002917431    1.210    0.174
        62  -8.9446    156.1747    191.6553   1.0448784086e+02   1.4612865016e+01    0.3818542    0.2373964 -74.48  0.001870173    2.865    0.651
        63  -8.2581    167.9396    113.7809   8.6954511957e+01   2.5767903733e+01    0.2880423    0.1961877 -68.03  0.001235597    2.132    0.531
        64  -8.4051     78.5529    119.7799   1.0956644843e+02   4.1406858400e+01    0.2497322    0.1137219 -55.94 0.0007028597    2.014    0.504
        65  -9.6779     69.4977    115.8215   1.1120750150e+02   4.3560224375e+01    0.3737196    0.1965418 -88.13  0.001512071    2.954    0.661
        66 -10.0622     64.9292    106.1394   1.1067527447e+02   4.6353434981e+01    0.3265994    0.1953147  42.13  0.001716423    1.809    0.447
        67  -8.2143     56.3196    105.3333   1.1290649439e+02   4.7617892773e+01    0.1286011   0.09101065 -40.26 0.0003038265    1.697    0.411
        68  -9.5217     48.7727     98.9415   1.1389986157e+02   4.9948461758e+01    0.4934876    0.1705274  35.50  0.002110532    3.144    0.682
        69  -8.6970    169.7460     96.0340   8.1969706414e+01   2.8591720201e+01    0.2389066    0.2112825  44.16 0.0003873557    1.136    0.120
        70  -7.8021      3.2908     96.3265   1.2647811158e+02   5.4416996726e+01    0.1137028   0.06680507 -55.74 0.0003442862    1.617    0.382
        71  -7.5570    132.4127     95.4218   9.0271836922e+01   3.7058881356e+01    0.1454397    0.1415477 -47.83 9.327627e-05    1.020    0.019
        72  -8.0157     33.0060     93.5031   1.1756216627e+02   5.2792665731e+01    0.1556833    0.1222043  36.00 0.0005838631    1.537    0.349
        73  -9.4104    225.6442     88.8186   6.9864320105e+01   1.6674425266e+01    0.2562167    0.2206965  27.12 0.0004817136    1.185    0.156
        74  -7.7402    230.3995     84.8713   6.8105587126e+01   1.6160622655e+01    0.1965849    0.1308437 -12.91 0.0002180738    1.594    0.373
        75  -7.6197     14.7206    184.7942   1.3049593743e+02   3.5209193485e+01   0.07971241   0.07088451  86.64            0    1.412    0.292
        76  -8.5054    112.8401     77.2086   9.0153240526e+01   4.4810993298e+01    0.2108724    0.1913092 -68.75 0.0003550294    1.150    0.130
        77  -8.1885    163.3388    178.2461   1.0104344385e+02   1.5454890451e+01    0.2994125     0.226477 -23.47  0.001747874    1.676    0.403
        78  -7.8937    169.5296     69.5323   7.4325614657e+01   3.3287738710e+01    0.1535433    0.1492467 -13.20 0.0004091335    1.007    0.007
        79 -10.4782    162.3875     62.1650   7.3468573972e+01   3.6296060756e+01    0.4021617    0.3579642  66.37  0.001536282    1.192    0.161
        80  -8.4363    143.1602     59.1198   7.6669664467e+01   4.1529515584e+01    0.3108891    0.1777432  30.23  0.001168297    2.411    0.585
        81 -11.0995    165.8411     54.8736   7.0406370202e+01   3.6602756960e+01    0.5725025    0.5192129 -65.64  0.001585234    1.192    0.161
        82 -10.3363    125.9371     55.3995   7.9579240348e+01   4.6204740801e+01    0.2647455    0.2193126 -32.77 0.0002880305    1.156    0.135
        83  -9.7197    250.0364    239.7348   9.6048181752e+01  -5.8234760497e+00    0.2835321    0.1529723  -2.70  0.001822098    2.167    0.538
        84 -10.9528    184.1115     33.4387   6.0135484403e+01   3.4895261688e+01    0.6259149    0.4717771 -17.47  0.001493744    1.364    0.267
        85  -9.0472    221.5165     40.3215   5.7058907251e+01   2.4343456849e+01    0.3865736    0.2477061 -19.15  0.001795067    1.582    0.368
        86  -8.7639    194.8766     33.0490   5.8416170631e+01   3.2104818419e+01    0.2670073    0.2007469   9.25  0.001270081    1.563    0.360
        87  -9.0924    189.4947     15.4915   5.3522900974e+01   3.5568153905e+01    0.2640812    0.1412956  87.11  0.001034592    2.327    0.570
        88  -8.3782    167.6987    232.7098   1.0796210747e+02   7.0866049568e+00     0.245465    0.1710306   0.25 0.0009697152    2.304    0.566
        89  -8.2577    222.5305    179.5664   9.0659522765e+01   4.6017677636e+00    0.1245885    0.1040809  22.63 0.0001716849    1.027    0.027
        90 -10.4242    124.0118    206.0090   1.1230092285e+02   1.7623787993e+01    0.1712229    0.1344575  55.52  0.001182667    1.035    0.034
        91  -7.5345    115.6589     12.7061   6.5287294352e+01   5.4972035790e+01    0.1525456   0.09939045  27.05 0.0007029316    1.656    0.396
        92  -9.9641    184.0465    212.9537   1.0264183851e+02   6.9474530166e+00    0.2425411    0.2124728  12.47  0.001751987    1.217    0.178
