#   1 NUMBER                 Running object number                                     
#   2 MAG_AUTO               Kron-like elliptical aperture magnitude                    [mag]
#   3 X_IMAGE                Object position along x                                    [pixel]
#   4 Y_IMAGE                Object position along y                                    [pixel]
#   5 X_WORLD                Barycenter position along world x axis                     [deg]
#   6 Y_WORLD                Barycenter position along world y axis                     [deg]
#   7 A_WORLD                Profile RMS along major axis (world units)                 [deg]
#   8 B_WORLD                Profile RMS along minor axis (world units)                 [deg]
#   9 THETA_WORLD            Position angle (CCW/world-x)                               [deg]
#  10 FWHM_WORLD             FWHM assuming a gaussian core                              [deg]
#  11 ELONGATION             A_IMAGE/B_IMAGE                                           
#  12 ELLIPTICITY            1 - B_IMAGE/A_IMAGE                                       
         1 -13.1138    200.0098     33.3133   6.2404136426e+01   3.1696597461e+01    0.7978635    0.7306813  74.62  0.005083865    1.218    0.179
         2 -13.7722    216.7085     15.6792   5.6819236004e+01   3.0058497038e+01     0.980933    0.8345537  42.05  0.006602441    1.690    0.408
         3 -12.0326      2.3396     15.0785   1.1049327437e+02   7.0817376775e+01    0.5779087    0.1498208 -45.15  0.002704207    3.466    0.711
         4 -12.8731      2.3406      4.6643   1.0607877358e+02   7.2168536699e+01    0.8003301    0.4538806  18.24  0.005746333    1.607    0.378
         5 -10.9781     96.9943    238.9936   1.2860567906e+02   1.1256847270e+01    0.2665125    0.2139977  74.00 0.0007726406    1.168    0.144
         6 -11.4193    184.1789    249.6798   1.1200268123e+02  -5.1783403661e+00    0.4042485    0.2191911  34.97  0.001451252    1.630    0.386
         7 -10.2635    175.3718    250.2698   1.1387187756e+02  -3.8564511883e+00     0.249815    0.1429859  29.13  0.001192037    1.673    0.402
         8 -11.1711    168.9999    249.3346   1.1502350902e+02  -2.6570804988e+00    0.4053127    0.2807564 -24.11 0.0002446943    1.802    0.445
         9 -11.6694    169.5337    243.5201   1.1401201302e+02  -1.7354508064e+00    0.5374303    0.2161318  51.53  0.001709032    3.499    0.714
        10 -10.8565    162.7259    250.2040   1.1643742088e+02  -1.7737039711e+00    0.3351793    0.2116789  42.38 0.0006917844    1.405    0.288
        11 -11.4984    159.4495    244.3301   1.1622486015e+02  -1.8939700264e-01    0.3631102    0.2279265  62.67  0.001007779    2.245    0.555
        12 -11.8199    149.7394    247.8668   1.1876601198e+02   8.0124191056e-01    0.4275474    0.3194842 -63.18  0.002441559    1.627    0.385
        13 -12.6726    133.4922    248.8956   1.2227641896e+02   3.3252550976e+00     1.187461    0.4144824  38.03  0.004679728    2.559    0.609
        14 -11.4194    115.5091    249.9238   1.2611936324e+02   6.0898740454e+00    0.7813461    0.3487351  36.97   0.00350168    2.082    0.520
        15 -11.4848    109.6867    247.3207   1.2699184250e+02   7.5399642565e+00    0.5496513    0.4372912 -83.29  0.002939749    1.354    0.262
        16 -11.2838    122.3093    245.6137   1.2415732087e+02   5.8080113205e+00    0.5170178    0.3385148 -86.17  0.001137051    2.105    0.525
        17 -11.9918    125.9379    242.3002   1.2295101443e+02   5.8496125089e+00    0.5467101    0.4230033 -79.18  0.001170361    1.499    0.333
        18 -11.9266    103.2385    239.3744   1.2734369114e+02   1.0179181025e+01    0.6065805    0.4248407 -31.32  0.001902236    2.262    0.558
        19 -10.8990     98.5098    231.0618   1.2729457267e+02   1.2683421666e+01     0.265954    0.2214921 -51.09  0.001503149    1.417    0.294
        20 -11.0140     99.2871    248.3016   1.2923999419e+02   9.0052909910e+00    0.4241649    0.2801236 -83.63  0.002309738    1.742    0.426
        21 -10.1618    102.5476    247.4858   1.2847810285e+02   8.6514743993e+00    0.2273148    0.2055059 -57.38 0.0009486041    1.329    0.248
        22  -9.6645     81.5631    247.7609   1.3275690605e+02   1.1836851276e+01    0.3454894    0.1503524 -75.75  0.001467088    2.956    0.662
        23  -9.7782     90.9471    250.5155   1.3117554314e+02   9.8622615709e+00    0.2241358    0.1759194  31.81 0.0009110562    1.461    0.315
        24 -11.4187     86.7184    248.1672   1.3176757972e+02   1.0977729487e+01    0.3798005    0.3015147  34.61 0.0007683646    1.409    0.290
        25  -8.5553     63.2694    250.3263   1.3659877352e+02   1.3959289748e+01    0.1060514   0.09563701 -48.51 0.0003174594    1.575    0.365
        26 -11.4670     59.7704    245.9759   1.3687499803e+02   1.5332096336e+01    0.4470053     0.333674  62.78  0.001941219    1.094    0.086
        27  -9.6642     66.9311    243.9988   1.3528424477e+02   1.4741192495e+01    0.2102574    0.1676871   7.07 0.0009781064    2.118    0.528
        28 -14.0396      4.4219    190.7933   1.4325520488e+02   3.3928429478e+01     3.432744    0.4295132 -72.31   0.01028964    5.415    0.815
        29 -13.1222     11.3712    206.1671   1.4305032002e+02   2.9786226764e+01     1.326759     1.043955 -49.61  0.008841743    1.667    0.400
        30 -13.4144     40.5118    242.9460   1.4029918196e+02   1.8491147404e+01      1.16394    0.8250983  81.18  0.002550242    1.161    0.139
        31 -13.7567      5.6257    245.4633   1.4674917680e+02   2.1956532511e+01     1.885574    0.6971313 -84.82  0.009530175    2.430    0.588
        32 -13.2858     13.6591    239.3911   1.4497573738e+02   2.2351369341e+01     1.122628      0.61984  88.60  0.002827645    1.503    0.335
        33 -12.7458     27.6779    226.2030   1.4141109757e+02   2.3603565977e+01    0.3670387    0.2988616 -69.16 0.0007464867    1.378    0.274
        34 -14.3529     34.1994    218.5084   1.3946332793e+02   2.4548445103e+01     1.509963     1.212546  31.40  0.009739706    1.593    0.372
        35 -11.4641     90.0049    237.8280   1.2992635630e+02   1.2597761542e+01    0.3831271    0.2718562  59.67   0.00215548    1.255    0.203
        36  -9.8869    132.3081    224.0476   1.1891740732e+02   8.4505896593e+00    0.2726099    0.2253548  50.84 0.0009001027    1.113    0.102
        37 -10.4716    135.7773    225.0201   1.1830443199e+02   7.6380333789e+00    0.3882509    0.2027894 -45.34  0.001089717    2.178    0.541
        38 -12.3023    135.7177    241.0442   1.2071265554e+02   4.4443602666e+00    0.5442426    0.3517898  61.40  0.002091605    1.772    0.436
        39 -11.7868    135.2379    236.4970   1.2015552185e+02   5.4137240004e+00    0.4525346    0.3697399   2.99  0.001983211    1.583    0.368
        40 -11.3980    134.6279    231.7346   1.1958096460e+02   6.4684247814e+00    0.5519294    0.2659965 -39.08  0.002214409    2.920    0.658
        41 -10.6813     84.1657    241.1717   1.3151624356e+02   1.2796997406e+01    0.3421037    0.2198817  46.26  0.001001772    1.372    0.271
        42 -10.5853    143.0078    240.7061   1.1912417527e+02   3.2694169034e+00    0.1961293    0.1655184  40.47  0.000709535    1.055    0.052
        43  -9.7953     53.8793    240.8822   1.3755648592e+02   1.7191629159e+01    0.1728332    0.1555217  84.45  0.000682438    1.237    0.192
        44 -11.2930    116.7032    238.3111   1.2436131538e+02   8.1874274320e+00    0.4413234    0.2872592 -34.31  0.001994409    2.280    0.561
        45  -9.3083     66.5293    239.5817   1.3492667062e+02   1.5722020705e+01    0.2527067    0.1518087  79.82 0.0008087268    1.731    0.422
        46 -13.2034     27.5784    247.1318   1.4299885358e+02   1.9197071025e+01     1.134325    0.7308004  52.18  0.007394191    1.349    0.259
        47 -10.1547    173.0227    236.0284   1.1208588201e+02  -9.8699221956e-01    0.2005551    0.1823967  29.48  0.001233528    1.037    0.036
        48 -11.3404    128.6771    234.8466   1.2132102594e+02   6.8656929160e+00    0.4188568     0.260612  61.49  0.002009302    1.843    0.457
        49  -8.8238     70.5683    235.4483   1.3368173870e+02   1.6021974698e+01    0.1301835     0.107464  71.47 0.0002313681    1.006    0.006
        50  -9.5495     54.6184    235.3464   1.3689806906e+02   1.8267995254e+01     0.211192    0.1226801  68.68  0.001125119    1.635    0.388
        51 -10.8300    168.6339    233.6094   1.1260756810e+02   2.0416080677e-01    0.3485993    0.2243833  18.05  0.001365162    1.899    0.474
        52 -10.6068    122.3642    233.5291   1.2249069744e+02   8.2087010437e+00    0.3009011     0.273348  86.13  0.001674891    1.133    0.118
        53 -10.9740     98.4924    223.3120   1.2628192725e+02   1.4365592991e+01    0.3766661    0.2881968  49.48  0.001618876    1.192    0.161
        54  -9.2932     94.4496    219.0044   1.2659724291e+02   1.5976721345e+01     0.237225    0.1752295  64.44 0.0007480963    1.293    0.227
        55 -11.6080    105.4633    228.0388   1.2539262897e+02   1.2195588775e+01    0.4316171    0.3843467  62.61  0.002304862    1.024    0.023
        56 -11.0020    109.4255    231.7622   1.2503663853e+02   1.0749075480e+01    0.4209529    0.2563511  87.18  0.001887554    2.354    0.575
        57 -11.3282    113.3806    230.8424   1.2405607155e+02   1.0282422762e+01    0.3881713    0.3081729 -63.58  0.001618333    1.350    0.259
        58 -10.3608    156.7085    232.1454   1.1489634128e+02   2.5435893912e+00     0.254644    0.2110424 -40.00 0.0005592031    1.331    0.249
        59  -9.0899     45.4927    231.0567   1.3831944381e+02   2.0389400498e+01    0.1760396     0.108089 -78.76 0.0003598545    1.484    0.326
        60 -10.3758     79.3186    225.6596   1.3074872161e+02   1.6858649880e+01    0.5067894    0.2713118 -73.01  0.002356323    1.966    0.491
        61  -9.5334     77.2188    220.6108   1.3059764416e+02   1.8300424950e+01    0.1872825    0.1573774  57.10 0.0002657139    1.116    0.104
        62 -10.3246    116.8990    224.6207   1.2240556451e+02   1.1004600896e+01    0.3319229    0.2778829  25.69 0.0008601458    1.353    0.261
        63  -9.3629     92.3502    225.9424   1.2796950987e+02   1.4776528477e+01    0.2111101    0.1554028  87.70 0.0005854074    1.401    0.286
        64  -9.8980     51.6340    225.2206   1.3652638370e+02   2.0873842065e+01    0.1957284    0.1847871  86.44 0.0003390202    1.289    0.224
        65  -9.3320     64.9218    224.6336   1.3369621507e+02   1.9190764031e+01    0.2175404    0.1563826 -48.69  0.001207708    1.767    0.434
        66  -9.2187    164.3333    224.0157   1.1192179558e+02   2.7731287214e+00    0.1844692    0.1772713 -33.73  0.000394097    1.120    0.107
        67  -9.9173     87.5261    223.3549   1.2869061600e+02   1.6107326454e+01    0.2893231    0.1976108 -72.72   0.00154183    1.480    0.324
        68 -10.8281    142.0990    219.7131   1.1606189238e+02   7.6151034278e+00    0.3969518    0.2735212 -56.15  0.001463802    1.578    0.366
        69 -10.2959     70.7243    219.1380   1.3183401101e+02   1.9592543639e+01    0.5217936     0.310193  83.42  0.002525227    1.900    0.474
        70 -10.4777    245.6326    220.0354   9.5029902581e+01  -9.7870810410e+00    0.2902936     0.106896 -39.44  0.001260561    2.518    0.603
        71 -10.2074    110.1409    218.7923   1.2306117212e+02   1.3422671163e+01    0.4363247    0.2082193 -76.56  0.001482269    3.772    0.735
        72  -8.8182     89.3107    218.6541   1.2769235228e+02   1.6876640485e+01    0.1480053   0.09528372  71.63 0.0007045523    1.707    0.414
        73  -8.7362     80.8256    216.8498   1.2934057557e+02   1.8604968014e+01    0.1891059    0.1390363  71.91 0.0002312572    1.302    0.232
        74  -9.5543     88.1179    212.7723   1.2717554064e+02   1.8402101591e+01    0.2715866    0.1787163 -82.83 0.0008955406    1.643    0.391
        75 -11.1069     55.3324    208.0491   1.3392562149e+02   2.4293005634e+01     0.711368    0.3747095 -89.89  0.002480397    2.176    0.540
        76  -8.9184    130.9461    211.3054   1.1718942271e+02   1.1420383405e+01    0.1969101    0.1715319  48.64 0.0002067967    1.074    0.069
        77 -10.4468     63.0485    209.1602   1.3234470115e+02   2.2980913268e+01    0.3956883    0.3313597 -50.29  0.001543971    1.447    0.309
        78  -9.2134     90.5281    208.8915   1.2609235825e+02   1.8912868825e+01    0.1987191    0.1328553 -64.53 0.0003136091    1.487    0.328
        79  -9.8773    156.1194    208.0982   1.1094846627e+02   7.4864558213e+00    0.2100538    0.1999774  41.63 0.0003205076    1.011    0.011
        80  -9.1196    134.3774    207.7741   1.1581573478e+02   1.1572721968e+01    0.2014407    0.1343659 -43.31  0.000941553    1.665    0.399
        81 -10.5760    111.3736    206.5709   1.2093141374e+02   1.5957892133e+01    0.4038884    0.2515681 -79.65  0.001153451    2.055    0.513
        82  -8.9762     74.4564    208.4593   1.2969758023e+02   2.1499730978e+01    0.1399515     0.118505  77.38 0.0001104191    1.036    0.035
        83  -9.0358     69.9504    207.9931   1.3065655461e+02   2.2270668219e+01    0.1614495     0.137104  87.24 0.0003126609    1.042    0.041
        84 -10.3773    250.5923    200.2143   9.0452928573e+01  -7.3045935418e+00    0.3805958    0.1656007 -23.28  0.001365999    3.754    0.734
        85  -9.9968    250.6626    207.3002   9.1779276297e+01  -8.4757456344e+00    0.2112081    0.1089792 -44.38  0.001026569    1.951    0.487
        86 -10.0170     91.0856    204.8306   1.2538596730e+02   1.9769481606e+01    0.4329134    0.1849141  41.39  0.001403199    2.206    0.547
        87 -10.8763     83.8864    201.6017   1.2660239715e+02   2.1675428544e+01    0.2569405    0.2202716 -71.89  0.000257943    1.145    0.127
        88  -9.9777     43.4251    200.1412   1.3568617543e+02   2.7672297616e+01    0.3453152    0.2718807 -29.60  0.001537416    1.905    0.475
        89 -11.9904     56.1565    194.1195   1.3208299478e+02   2.7487482401e+01    0.5200483    0.3066546 -50.46  0.001042993    1.886    0.470
        90 -11.3069     27.9126    194.6750   1.3855016698e+02   3.0744210461e+01    0.4838919    0.3646351 -87.46  0.001463406    1.084    0.078
        91 -10.8702     21.0572    194.4077   1.4002064079e+02   3.1523803507e+01    0.3815199    0.2054343 -67.89 0.0008738678    1.582    0.368
        92 -10.4862    102.7877    196.0985   1.2129179933e+02   1.9883861119e+01    0.3090585    0.2545631 -21.43 0.0004937166    1.646    0.393
        93 -11.0309     84.5088    230.4847   1.3021441429e+02   1.5012458632e+01    0.6501818    0.2559718 -67.87  0.002147163    2.827    0.646
        94 -10.1335    249.5168    194.2191   8.9492016620e+01  -6.1399794221e+00    0.2981391    0.1770901  24.89  0.001525536    1.977    0.494
        95  -9.2588    112.5387    192.9050   1.1841944356e+02   1.8936615799e+01    0.3812407     0.103968 -46.04 0.0009157824    4.788    0.791
        96  -8.7553     77.9925    193.9938   1.2690976029e+02   2.4406815339e+01    0.1665405    0.1478855  70.53            0    1.059    0.056
        97  -9.5954    191.4623    191.4765   1.0007924561e+02   4.2845311537e+00    0.2477063    0.2328437 -21.22 0.0006606171    1.033    0.032
        98  -8.5856     72.6202    192.7383   1.2801447770e+02   2.5515333534e+01    0.1319196    0.1106838 -21.07 0.0006979231    1.674    0.403
        99 -12.7970     41.3938    206.5518   1.3680958211e+02   2.6417872295e+01     1.788896    0.7720645  71.23  0.006833073    3.332    0.700
       100 -10.4317    250.2068    187.9932   8.8169101468e+01  -5.1840326575e+00    0.3578774    0.1493476 -32.90  0.001499893    2.389    0.582
       101 -11.4110     92.1420    241.7174   1.2993793324e+02   1.1457022139e+01    0.3935919    0.2836764  80.24  0.002152518    1.416    0.294
       102  -8.8729     76.9554    188.5062   1.2635917249e+02   2.5897341502e+01    0.1926398    0.1365145  42.20 0.0002300809    1.433    0.302
       103 -10.5928     71.6887    186.7850   1.2738915021e+02   2.7102962084e+01     0.356041    0.2974194 -16.97  0.001261741    1.686    0.407
       104  -8.3382    145.6979    187.3234   1.0947684499e+02   1.4021187087e+01    0.1543393    0.1189456  80.47 0.0002516664    1.634    0.388
       105 -10.4022     83.6272    186.7435   1.2446060447e+02   2.5298105370e+01    0.2454471    0.2130314  77.26 0.0003012264    1.080    0.074
       106 -11.6631     62.9064    186.1273   1.2942976575e+02   2.8514824575e+01    0.3395496    0.2544962 -43.47 0.0004861025    1.597    0.374
       107  -9.5404     29.4954    184.1873   1.3710549949e+02   3.3067415133e+01    0.2968212    0.1732858 -45.67  0.001092885    2.116    0.527
       108  -9.3485     24.1440    184.0798   1.3831983229e+02   3.3648381139e+01     0.191535     0.152564 -66.53 0.0007495914    1.224    0.183
       109  -8.9924     36.3296    182.9181   1.3537259991e+02   3.2626587698e+01    0.2012202    0.0949121 -60.38 0.0009390167    1.874    0.467
       110  -8.5545    127.3346    182.6441   1.1298119620e+02   1.8643127128e+01    0.1634702     0.117293  78.47 0.0007042967    1.797    0.444
       111  -8.3338    107.6742    182.3170   1.1776666187e+02   2.2342170644e+01    0.1581148    0.1126184  74.78 0.0005814692    1.673    0.402
       112  -9.1975     85.7010    180.2952   1.2291748780e+02   2.6553943584e+01    0.1494701      0.10628  74.26 0.0006989049    1.570    0.363
       113 -12.3391    248.1560    172.9668   8.5559011548e+01  -2.2284244619e+00    0.8513312    0.3922468 -40.26  0.003858089    1.890    0.471
       114 -11.2508    240.6951    150.5915   8.2257800741e+01   3.1374163899e+00    0.3087896    0.2721738 -16.99  0.001774363    1.197    0.164
       115 -11.7915    245.1725    162.2194   8.3897444058e+01   2.0799658488e-01    0.4972481    0.2522078 -40.38  0.002309305    1.720    0.419
       116 -10.7880    249.5008    161.5005   8.3037789790e+01  -3.9304914286e-01    0.5499827    0.2309462 -44.15  0.002350098    2.092    0.522
       117 -11.4960    246.2752    156.5752   8.2567519322e+01   1.0500939937e+00    0.9714336    0.4951797  64.26  0.003571765    4.110    0.757
       118  -9.1220    103.1936    176.0120   1.1775901760e+02   2.4673594322e+01    0.2042719    0.1832436 -68.80  0.001086297    1.079    0.073
       119 -11.0743     65.2251    175.3918   1.2730718458e+02   3.0841343088e+01    0.2936442     0.261136  44.80 0.0001645281    1.227    0.185
       120 -11.3393     19.3927    174.5828   1.3842198349e+02   3.6382232452e+01    0.3704648     0.211113  89.42 0.0005827494    1.671    0.401
       121 -11.4633     10.8048    157.8686   1.3867295619e+02   4.1133002879e+01    0.3018122    0.1911633  79.52  0.001115992    1.591    0.371
       122 -10.7659     12.4301    154.4963   1.3788574028e+02   4.1807881139e+01    0.2444243    0.1510424 -72.52 0.0005441352    1.296    0.229
       123 -11.2923     14.5004    167.2213   1.3879480181e+02   3.8587729818e+01    0.2988215    0.2870061 -14.97  0.001409707    1.383    0.277
       124 -11.8480      8.1243    166.0150   1.4018372701e+02   3.9411064708e+01     0.393276    0.3003524 -36.08  0.001874609    1.680    0.405
       125 -12.0296     60.0555    172.2661   1.2814869550e+02   3.2326587568e+01    0.6164248    0.3382129 -36.85  0.001617348    2.734    0.634
       126 -10.9090     68.3754    166.3186   1.2507232668e+02   3.2659025887e+01    0.2583548    0.2266318  87.06 0.0003219757    1.081    0.075
       127 -10.6196     12.3806    173.2239   1.3991475681e+02   3.7342333813e+01    0.3283476    0.1456805 -65.77  0.001497094    1.800    0.444
       128  -8.8285     45.8118    172.7413   1.3180367238e+02   3.4015393209e+01    0.1881659    0.1393919  82.05 0.0005579097    1.317    0.241
       129 -11.1558      2.3354    172.0789   1.4210375772e+02   3.8443503647e+01    0.3968354    0.2038213  63.32  0.001496469    2.069    0.517
       130 -10.8694     73.8056    174.2015   1.2494335694e+02   2.9900440158e+01     0.263732      0.21899 -62.58 0.0003587782    1.152    0.132
       131  -9.7706     27.5743    171.5589   1.3613656668e+02   3.6313355845e+01    0.3585453    0.1615657 -48.73  0.001259321    2.458    0.593
       132  -8.5963    124.6085    171.5008   1.1149353436e+02   2.1825768416e+01    0.1528918    0.1458147 -77.49 0.0008004241    1.025    0.024
       133  -9.5377     51.7956    171.0300   1.3006419556e+02   3.3705817764e+01     0.216421    0.1916425  51.96 0.0005801173    1.216    0.178
       134  -9.3142    166.8467    170.1478   1.0107370980e+02   1.3663976635e+01    0.2165198    0.2024463 -76.70 0.0003983068    1.126    0.112
       135 -11.8308     81.8538    166.0058   1.2148160156e+02   3.0717597683e+01    0.6511407    0.5550336 -28.05  0.003463185    1.429    0.300
       136 -10.5086     81.9650    158.3930   1.2007823332e+02   3.2605244666e+01    0.4795865    0.2920832 -51.40  0.001495964    1.577    0.366
       137 -10.6740     44.7736    165.0165   1.3100142718e+02   3.6046941784e+01    0.4092227    0.2056596 -41.34  0.001725714    2.607    0.616
       138  -9.8195     43.1574    161.0370   1.3085226835e+02   3.7218993607e+01    0.2018251    0.1706225 -80.52 0.0003414058    1.032    0.031
       139 -10.3747     31.1432    163.2240   1.3423209166e+02   3.7981559955e+01    0.2480923    0.1864519  63.85 0.0002119385    1.375    0.272
       140  -9.6524     37.5669    163.0042   1.3256990610e+02   3.7357515113e+01    0.2793572    0.1324677  51.38  0.001234429    2.393    0.582
       141  -9.8052     24.2353    161.9903   1.3581455354e+02   3.8963032586e+01    0.1799662    0.1448686 -75.06 0.0004384847    1.033    0.032
       142  -8.3684    119.2947    158.6843   1.1022763349e+02   2.5955805607e+01    0.1584313    0.1210695  82.68 0.0006790652    1.602    0.376
       143  -9.0059    228.3788    155.2731   8.5348913367e+01   4.5072387643e+00    0.1998908    0.1218455 -49.52 0.0004836579    1.584    0.369
       144 -11.5743     24.9432    155.0752   1.3476441929e+02   4.0577071120e+01    0.5743805    0.1418135  32.77   0.00215659    3.930    0.746
       145  -9.1765     32.7906    153.8204   1.3254556936e+02   4.0117867625e+01    0.1978895    0.1569922 -55.02 0.0005380975    1.216    0.178
       146 -13.3168    248.0358    100.7468   7.0800862026e+01   1.0826449565e+01      1.52736    0.7502663 -35.26  0.006802595    2.163    0.538
       147 -12.1714    247.8891    112.8927   7.3323395568e+01   8.7162158172e+00    0.7949626    0.5636929 -19.06  0.004038399    2.007    0.502
       148 -11.8336    248.2281    142.2868   7.9332605568e+01   3.3236432626e+00    0.5944146    0.4800575  -8.90  0.003336922    1.525    0.344
       149 -13.1528    248.0360    134.5966   7.7781519456e+01   4.7640469250e+00     1.498495    0.6991195 -38.07  0.006579176    1.967    0.492
       150 -10.3071     95.5659    150.4245   1.1482623967e+02   3.2344394973e+01    0.3096621    0.2766727  86.70 0.0008498376    1.147    0.128
       151 -11.3738     21.0718    149.2136   1.3500961790e+02   4.2350320818e+01    0.3955759     0.231895  39.24  0.002148681    1.914    0.478
       152 -12.4490      9.4016    143.5387   1.3735782934e+02   4.4657405999e+01    0.4532797    0.2483247 -67.36  0.001860719    1.429    0.300
       153 -12.1752      3.3328    143.9442   1.3898588062e+02   4.4994985393e+01    0.5718449    0.2904964 -84.11  0.002931781    1.851    0.460
       154 -10.0613     83.1384    149.6013   1.1807926676e+02   3.4615791223e+01     0.264968    0.1965457 -52.41 0.0003837386    1.280    0.219
       155 -12.0887     68.4114    144.2821   1.2117109477e+02   3.8161859331e+01    0.6932877    0.4919876  82.63  0.002231571    1.746    0.427
       156  -9.8935    235.9833    145.9794   8.2080975843e+01   4.8629953759e+00    0.2136437    0.1898137 -35.35 0.0004618216    1.060    0.056
       157  -8.9100     98.5358    146.4730   1.1318667613e+02   3.2801704661e+01    0.1522331     0.144687 -60.64 6.116457e-05    1.032    0.031
       158  -9.5529     41.1371    147.5005   1.2936015512e+02   4.0791372971e+01    0.2076325    0.1678194 -49.62 0.0005621949    1.227    0.185
       159  -9.9067    133.1468    140.8451   1.0268279282e+02   2.7459057625e+01    0.3772132    0.2556891 -60.22  0.001514158    1.579    0.367
       160 -10.7327     38.7804    141.7292   1.2909687438e+02   4.2463370557e+01    0.2662438    0.2078044  68.54            0    1.417    0.295
       161 -11.7786     17.3525    140.0376   1.3477719958e+02   4.4874616661e+01    0.3675487    0.2268785  53.84  0.002011908    1.893    0.472
       162  -9.6039     31.5497    138.8008   1.3066416796e+02   4.3910126911e+01     0.181099    0.1139459 -77.20 0.0009329491    1.518    0.341
       163  -9.8015    107.8608    136.2422   1.0834860857e+02   3.3591906704e+01    0.4401298    0.2724296 -23.39   0.00145218    2.642    0.621
       164 -10.3670     59.8015    136.4029   1.2213311502e+02   4.1285604272e+01    0.3113952    0.2186093 -64.32 0.0002338693    1.310    0.236
       165  -9.5691     55.7527    135.9561   1.2322664502e+02   4.1915815462e+01    0.2071207    0.1924128 -58.39  0.000313299    1.057    0.054
       166 -10.3859     47.3981    136.0787   1.2567725105e+02   4.2894200360e+01    0.2890885    0.1986655 -28.40   0.00146413    1.800    0.445
       167 -12.0652      2.3910    131.6420   1.3775476078e+02   4.7942913255e+01    0.5181432    0.2212431 -69.87  0.002568271    1.827    0.453
       168 -12.7644      2.3358    122.1391   1.3652057442e+02   5.0150757731e+01    0.6202402    0.4426968 -36.73  0.003977155    1.481    0.325
       169  -8.6797     94.5051    133.0196   1.1136000233e+02   3.6797263814e+01    0.2104998      0.12142 -32.77 0.0008049376    2.286    0.563
       170 -10.6775     44.8569    130.6456   1.2543706682e+02   4.4505514343e+01    0.3315797    0.2146712  82.67  0.001303395    2.097    0.523
       171 -10.5412     57.5471    147.3098   1.2478015250e+02   3.8881589656e+01    0.3943464    0.2691915  15.61  0.001943595    1.932    0.482
       172  -8.9349    209.7674    125.9685   8.2285211255e+01   1.3975721916e+01    0.1967013    0.1163795 -42.67 0.0004505071    1.578    0.366
       173 -12.0671     12.4920    127.6516   1.3439182062e+02   4.8190500530e+01    0.4294527    0.2089792  28.13  0.002218516    2.411    0.585
       174 -10.5945      1.6424    152.5083   1.4035356562e+02   4.3094433463e+01    0.2228782   0.09296186 -73.10  0.001052329    1.879    0.468
       175 -13.2153     16.2202    117.4014   1.3171598923e+02   5.0311774407e+01    0.5867585    0.5049139  64.45  0.003791236    1.369    0.269
       176 -12.3219      9.2690    113.2943   1.3316379742e+02   5.1745691108e+01    0.4046762    0.2052328 -63.56  0.002126051    1.545    0.353
       177 -11.8927      2.0845    109.9381   1.3483002355e+02   5.2949648464e+01    0.8050815    0.1007464 -68.79  0.001958942    7.892    0.873
       178  -9.2435    203.4842    111.5162   8.0101775330e+01   1.8171700476e+01     0.147591    0.1385059 -60.12 2.139755e-05    1.045    0.043
       179 -10.7248    231.5999    116.0901   7.6417408506e+01   1.1334119227e+01    0.2608618     0.197149  85.81  0.001060494    1.574    0.365
       180 -10.0725    167.8088    113.0219   8.7549601801e+01   2.5977989350e+01    0.3428333    0.2648752 -82.98 0.0009552682    1.571    0.363
       181  -9.3220     35.0128    107.2563   1.2392565523e+02   5.1046626828e+01     0.169246    0.1564283 -38.31 0.0003092105    1.099    0.090
       182 -12.0616     15.1318    103.5380   1.2965219064e+02   5.3556799894e+01    0.5018187    0.2037863  43.82  0.002172635    3.472    0.712
       183  -8.7566     71.7486    100.0550   1.1023248167e+02   4.8137342719e+01    0.1729313    0.1142111 -50.96   0.00028833    1.434    0.303
       184 -10.3097     20.6744     93.8710   1.2590739570e+02   5.5285196935e+01    0.1962031     0.153999 -24.07 0.0002933778    1.281    0.219
       185 -10.4308     14.2634     93.7609   1.2806921423e+02   5.5779455823e+01    0.1875755    0.1511293  14.14 0.0007896438    1.461    0.316
       186 -11.1621    249.6147    150.9490   8.0883265812e+01   1.5001050655e+00    0.5131319     0.291382 -45.86  0.002535637    1.551    0.355
       187 -10.4580    249.7306    117.9174   7.4097407317e+01   7.4707628394e+00    0.4112368    0.2852371 -23.50  0.001483168    1.851    0.460
       188 -12.0895    200.0009    246.2613   1.0829678793e+02  -7.1226725445e+00    0.5196934    0.2521226  43.30  0.002476847    2.074    0.518
       189 -10.6001     73.8396    243.6464   1.3387353790e+02   1.3820617988e+01    0.3730585    0.2798128 -64.06  0.002025927    1.465    0.317
       190 -11.1448     19.2754     26.7220   1.0704341187e+02   6.7756080929e+01    0.3268017    0.1611506  43.10  0.001616762    3.684    0.729
       191 -11.6945    178.7486    244.1156   1.1221595420e+02  -3.3653064752e+00    0.4011832    0.2499002  40.23  0.001187332    1.456    0.313
