#   1 NUMBER                 Running object number                                     
#   2 MAG_AUTO               Kron-like elliptical aperture magnitude                    [mag]
#   3 X_IMAGE                Object position along x                                    [pixel]
#   4 Y_IMAGE                Object position along y                                    [pixel]
#   5 X_WORLD                Barycenter position along world x axis                     [deg]
#   6 Y_WORLD                Barycenter position along world y axis                     [deg]
#   7 A_WORLD                Profile RMS along major axis (world units)                 [deg]
#   8 B_WORLD                Profile RMS along minor axis (world units)                 [deg]
#   9 THETA_WORLD            Position angle (CCW/world-x)                               [deg]
#  10 FWHM_WORLD             FWHM assuming a gaussian core                              [deg]
#  11 ELONGATION             A_IMAGE/B_IMAGE                                           
#  12 ELLIPTICITY            1 - B_IMAGE/A_IMAGE                                       
         1 -13.5680    157.0715     52.6649   8.2902484693e+01   3.9264840339e+01     1.344615     1.106329  25.62   0.00526882    1.318    0.241
         2 -13.8217    169.1640     37.0063   7.5550569696e+01   3.8269448448e+01     1.211262     1.032813   5.15  0.004286561    1.346    0.257
         3 -10.9559    189.2525     14.9886   6.5891610895e+01   3.5481593026e+01     0.277242    0.2281979  64.46 0.0008869356    1.131    0.116
         4 -13.3020    184.6075      5.6194   6.3755227874e+01   3.7624889756e+01    0.9995794    0.7356955  70.52  0.004441943    1.199    0.166
         5 -11.7485    158.9920    235.5335   1.2381592440e+02   5.3815778998e+00    0.3331231    0.2155368  37.15 0.0008902862    1.256    0.204
         6 -19.8205     61.5755    166.5758   1.3549522665e+02   3.3980430752e+01     18.56307     4.366681 -67.69     0.060514    4.443    0.775
         7 -10.4404     11.6384    213.6122   1.4956203543e+02   2.9856670765e+01    0.1096415   0.07885279 -77.93 0.0008266313    1.422    0.297
         8 -10.4931    163.0850    210.4324   1.1939139318e+02   8.5535937194e+00     0.224248     0.201987 -68.77 0.0007946583    1.388    0.280
         9 -10.9803    126.3520    209.7273   1.2680401475e+02   1.5166257260e+01    0.2411038    0.1724939  57.14 0.0009147409    1.275    0.216
        10 -11.4430    127.8547    206.2288   1.2601159247e+02   1.5542523105e+01    0.4291265    0.1926815  41.62  0.001951093    1.894    0.472
        11  -9.0311    179.2139    205.9737   1.1543143811e+02   6.3317069949e+00    0.1501228    0.1102506 -39.94            0    1.603    0.376
        12 -10.8597    163.9207    204.7663   1.1832310345e+02   9.3343968928e+00    0.2912176    0.2382229  36.43 0.0005476346    1.052    0.050
        13 -10.3827    159.0363    206.0000   1.1951915932e+02   1.0021735733e+01    0.3029631    0.1980577  50.80  0.001465297    1.422    0.297
        14  -9.8403     30.0410    205.8768   1.4576784613e+02   2.9476751241e+01    0.1298214    0.1182997 -74.64  0.001012292    1.463    0.317
        15 -12.9701    193.8046    193.4216   1.1032246270e+02   5.5953958885e+00    0.9600797    0.5652485 -53.16  0.002764237    2.449    0.592
        16 -11.2913    136.7239    197.6135   1.2288012072e+02   1.5560138588e+01    0.4746954    0.2859243  73.04  0.001821174    2.694    0.629
        17 -11.0225    208.3787    196.8962   1.0811777170e+02   2.3678818268e+00    0.2275964    0.1682449  43.31 0.0005698612    1.315    0.239
        18 -10.0144    175.4522    194.4170   1.1421206445e+02   8.9079428930e+00    0.2162322    0.1332682 -56.57 0.0007278234    2.247    0.555
        19  -9.5085    153.4523    194.4506   1.1881478603e+02   1.3059447806e+01    0.1389521    0.1194885  46.26 4.014516e-05    1.036    0.035
        20 -10.3844    180.0575    192.2948   1.1289026013e+02   8.3848763619e+00    0.2264476    0.2072012 -53.44 0.0004100475    1.332    0.249
        21 -11.0624    167.2386    191.4700   1.1539862662e+02   1.0975069035e+01    0.3323493    0.2190481  26.91  0.001648573    1.614    0.380
        22  -9.4037    156.6513    191.3003   1.1760547567e+02   1.3021805013e+01    0.1409015    0.1027636  67.48  0.000703778    1.688    0.408
        23  -9.9773    176.5040    188.0289   1.1285004574e+02   9.7852916999e+00    0.1967811    0.1403912 -41.47  0.000727058    1.592    0.372
        24 -10.3724    140.7029    199.6768   1.2235116965e+02   1.4463545481e+01     0.212881    0.1519589  44.49 0.0004781278    1.196    0.164
        25 -10.2767     21.3205    235.2640   1.4897643519e+02   2.4978777237e+01     0.117523   0.08159055  70.52  0.000326086    1.031    0.030
        26 -12.2724    206.5598    180.0445   1.0525874255e+02   5.2707288694e+00    0.8548091    0.3948726  34.94  0.002953669    2.121    0.528
        27 -11.8948    196.8643    172.7162   1.0571850502e+02   8.3615934383e+00    0.7401212    0.4006502 -47.26  0.002501576    2.238    0.553
        28 -12.6146    137.8229    171.6197   1.1830518131e+02   2.0386166038e+01    0.6970364    0.4439113  60.55  0.003214128    1.778    0.437
        29 -11.1932    144.4542    168.7388   1.1625517476e+02   1.9670739146e+01    0.3297974    0.2272237  59.13  0.001582747    1.556    0.357
        30 -10.4400     25.5371    165.5267   1.4365307351e+02   3.8240603157e+01    0.2792065    0.1993818  -4.42  0.001662975    2.495    0.599
        31 -10.1827    223.9805    164.4592   9.8748387788e+01   4.3322869156e+00    0.2405753     0.190092 -45.75 0.0005806823    1.527    0.345
        32  -9.9216    237.6679    159.3302   9.5189566202e+01   2.4911689421e+00    0.1272283    0.1108598 -71.23 0.0004589095    1.721    0.419
        33 -11.1015    163.7470    155.7113   1.0925707106e+02   1.8297498150e+01    0.3166283    0.2809804 -45.06  0.001301523    1.217    0.178
        34 -13.2041    132.7181    145.2880   1.1437390226e+02   2.6890184396e+01    0.9866347    0.6315871 -63.21  0.004124429    1.872    0.466
        35 -10.0206    174.9697    148.9819   1.0529852884e+02   1.7188754196e+01    0.2351265     0.189207  85.78 0.0007365184    1.696    0.410
        36 -11.4749    144.4527    145.2372   1.1150250859e+02   2.4486147692e+01     0.400763    0.2960745  88.02  0.001793558    1.916    0.478
        37 -12.2384    115.4328    138.4505   1.1731302781e+02   3.1777615505e+01    0.5802476    0.3134864 -43.87    0.0024236    2.015    0.504
        38 -12.3612     21.0629    140.1516   1.4233608655e+02   4.4242538245e+01    0.4656672    0.2323544 -59.80  0.001518305    1.800    0.444
        39 -12.2240    105.5071    138.3823   1.1989332231e+02   3.3623722259e+01    0.4545962    0.3105468  63.48 0.0004591752    1.677    0.404
        40 -12.0413    106.0018    130.7137   1.1817191429e+02   3.5274003368e+01    0.4337271    0.3547168 -73.43  0.001229138    1.288    0.224
        41 -11.0710    108.8339    125.1564   1.1618688922e+02   3.6010838516e+01     0.321097    0.2811705 -16.50 0.0009818728    1.354    0.262
        42 -11.7196    119.4899    129.3107   1.1426481869e+02   3.3031147921e+01     0.378516     0.332489  75.84  0.001180542    1.208    0.172
        43 -11.8960    135.8266    122.4656   1.0839866146e+02   3.1158468332e+01     0.747531    0.2873792 -51.25  0.002448781    2.933    0.659
        44  -9.6833    176.3922    233.8159   1.2028642189e+02   2.6954038608e+00    0.1505595    0.1152126 -18.61 0.0006014527    1.651    0.394
        45 -11.4278    168.2573    233.5602   1.2178861036e+02   4.1063729221e+00    0.2998027    0.2138849  58.42 0.0009934797    1.574    0.365
        46 -10.8102    113.9863    118.8455   1.1331511096e+02   3.6445070284e+01    0.2545582    0.2166552 -52.68   0.00061605    1.175    0.149
        47 -10.2362    115.8456    115.1522   1.1190865080e+02   3.6901136885e+01    0.2292605    0.2018861  74.12 0.0004878859    1.232    0.188
        48 -10.3096    168.0430    113.2685   9.8238402374e+01   2.5709383027e+01    0.3936744    0.2760606 -73.36  0.001526021    2.150    0.535
        49 -12.0403    125.3378    127.0260   1.1220462827e+02   3.2364575700e+01    0.6538825    0.4087017 -81.86  0.002348705    3.022    0.669
        50 -10.1094     25.8712    232.1220   1.4805733642e+02   2.5050566196e+01    0.1213756    0.1031334  84.25 0.0004271086    1.351    0.260
        51 -10.0318    205.6271    110.0891   8.9596417940e+01   1.7338599351e+01    0.2914965    0.2197897  40.87 0.0006895187    1.336    0.252
        52 -10.2797    178.4826    226.5413   1.1882614451e+02   3.3680220510e+00    0.2174936    0.1279609 -41.79 0.0008890531    2.105    0.525
        53 -11.3399     13.5795    244.4288   1.5063576561e+02   2.4203734501e+01     0.291863   0.07986421 -71.47  0.001557915    3.421    0.708
        54  -9.4490    150.3748    240.1684   1.2604273730e+02   6.1342851658e+00    0.1397948    0.1148257 -80.83 0.0003953988    1.629    0.386
        55 -12.0801    172.8921     29.9404   7.2706752990e+01   3.8156997027e+01    0.4241174    0.3612828   1.88  0.001015482    1.361    0.266
        56  -9.4288     13.5061     59.8944   1.3259600623e+02   6.2724889552e+01     0.174681   0.09571615 -62.45 0.0004181365    1.491    0.329
        57  -9.8280    135.5614     30.6563   8.0060836996e+01   4.7833249570e+01    0.2389664    0.1754197  84.27 0.0008082428    1.698    0.411
        58 -10.1379    146.5967    238.2492   1.2651432517e+02   7.0426449502e+00     0.135255    0.1182438 -26.54 0.0002739544    1.517    0.341
