#   1 NUMBER                 Running object number                                     
#   2 MAG_AUTO               Kron-like elliptical aperture magnitude                    [mag]
#   3 X_IMAGE                Object position along x                                    [pixel]
#   4 Y_IMAGE                Object position along y                                    [pixel]
#   5 X_WORLD                Barycenter position along world x axis                     [deg]
#   6 Y_WORLD                Barycenter position along world y axis                     [deg]
#   7 A_WORLD                Profile RMS along major axis (world units)                 [deg]
#   8 B_WORLD                Profile RMS along minor axis (world units)                 [deg]
#   9 THETA_WORLD            Position angle (CCW/world-x)                               [deg]
#  10 FWHM_WORLD             FWHM assuming a gaussian core                              [deg]
#  11 ELONGATION             A_IMAGE/B_IMAGE                                           
#  12 ELLIPTICITY            1 - B_IMAGE/A_IMAGE                                       
         1 -11.5523     80.3344     23.3478   8.5139750678e+01   6.0641744144e+01    0.5685217    0.3072754  30.82 0.0005183803    2.227    0.551
         2  -9.4280     27.5888     22.0420   1.0557989044e+02   6.7941420142e+01    0.5272295     0.231156 -34.40   0.00189416    2.434    0.589
         3  -9.4815    134.0207     13.5829   6.6326103920e+01   5.0373377095e+01    0.3434303    0.2366695  34.98 0.0003316127    1.449    0.310
         4  -9.9376     77.5007     13.1842   8.1505487084e+01   6.2697745820e+01    0.6610206     0.264206  41.35  0.002721866    2.657    0.624
         5  -9.3237     63.9687     14.2398   8.6900437963e+01   6.4816837239e+01    0.3943362     0.238391   2.40  0.001524338    2.430    0.589
         6  -8.7909    125.1213     10.5509   6.7002271413e+01   5.2896864096e+01     0.349376      0.22483  17.08  0.000417172    1.765    0.433
         7  -8.4873     87.9076     13.1231   7.8062243291e+01   6.0757228595e+01    0.2432247    0.1860398  -7.72 0.0007430047    1.246    0.198
         8  -8.1707    172.2453     13.2932   5.9349963192e+01   4.0463625265e+01    0.2009686    0.1665804 -55.91 0.0009878736    1.322    0.243
         9  -8.0665    113.0511     11.2366   7.0145729582e+01   5.5656393154e+01    0.3602249    0.1834339  17.17  0.001298326    3.109    0.678
        10  -9.3026     31.8694     10.9917   9.9083924701e+01   6.9560709966e+01     0.303194     0.198691 -16.54 0.0003794715    1.646    0.393
        11  -7.9472     36.4678      7.4934   9.5288799306e+01   6.9656233786e+01    0.1787266    0.1155349  27.39 0.0007539042    1.775    0.437
        12  -9.0707     31.9533      6.2655   9.6835489862e+01   7.0365920286e+01    0.2473527    0.1781737  -5.18 0.0004172469    1.473    0.321
        13  -9.6194    130.3941      9.8190   6.5551031562e+01   5.1691304446e+01    0.3351015    0.2004592  43.86 0.0004136502    1.598    0.374
        14  -8.9658     70.6652      9.0598   8.1916527869e+01   6.4489648410e+01    0.2712467    0.1550134  27.33  0.001334532    2.027    0.507
        15  -9.2880     46.5095      6.3969   9.0201684378e+01   6.8584333058e+01    0.2894678    0.2061282  -3.97   0.00115035    1.466    0.318
        16  -8.7644     41.0511      5.9355   9.2405913792e+01   6.9362349720e+01    0.3334505    0.1949591 -23.06   0.00109959    1.691    0.409
        17 -10.1300      7.7793      5.3994   1.0882707637e+02   7.2613042902e+01    0.4810931     0.234466  -4.45  0.002550036    3.097    0.677
        18  -8.2242    100.6336      6.8224   7.1387637014e+01   5.8941149444e+01    0.2285275     0.170561  34.94 0.0005465575    1.289    0.224
        19  -9.5822     76.3117      5.7822   7.8306801915e+01   6.3936057676e+01    0.4518157    0.2335996 -26.80  0.001511489    1.767    0.434
        20  -8.6332    134.1354      3.1698   6.2038170046e+01   5.1443949724e+01    0.2248882    0.1739384  32.04 0.0003583317    1.239    0.193
        21  -9.1397     92.6267      5.3533   7.2948807521e+01   6.0807789295e+01    0.4000739    0.2056306  46.62   0.00187344    1.902    0.474
        22  -9.7415     84.9022      5.3584   7.5288071412e+01   6.2362137283e+01    0.2989402    0.2196406 -14.26  0.001686701    1.245    0.197
        23  -9.1763    111.1394      3.5407   6.7177740424e+01   5.6961667765e+01    0.3717973    0.2600579 -47.05  0.001255624    1.727    0.421
        24  -8.9715    105.6981      1.5590   6.7603212326e+01   5.8408619372e+01     0.379056    0.1565631  49.89  0.001427221    2.218    0.549
        25  -8.3721     96.7723     12.4159   7.5059753779e+01   5.9066005523e+01     0.310831    0.1883438  20.58  0.001428713    1.990    0.497
        26  -8.3038    152.8685      3.5785   5.8860927227e+01   4.6574625104e+01    0.4381475   0.07515008  58.41  0.001255299    3.876    0.742
        27  -8.3356    143.0913      2.1894   5.9982966832e+01   4.9252982988e+01    0.2275875    0.1981785  -4.71 0.0003037816    1.148    0.129
        28  -8.1368     56.0549      3.3700   8.4608018127e+01   6.7671071422e+01    0.2437854    0.1493708  30.94  0.001357961    1.753    0.430
        29  -8.2274    155.8189      7.1859   5.9742177933e+01   4.5451762909e+01    0.2086192    0.1575733  35.07 0.0004094877    1.308    0.235
        30  -9.1158    119.3141      6.7960   6.6704932612e+01   5.4701960720e+01    0.2665991    0.2074484  24.45 0.0001822583    1.245    0.197
        31  -7.7224     55.5008    110.5023   1.1709857421e+02   4.6433112396e+01    0.1238246    0.1020062 -89.59 0.0008093782    1.082    0.075
        32 -10.8372    195.4598    248.3075   1.0834354734e+02   3.0431676020e+00    0.4216168    0.2483454  52.37  0.002913998    1.672    0.402
        33  -8.6829      2.2165    109.6541   1.3049668692e+02   5.1303104412e+01    0.2027554    0.1367348 -44.88  0.001424922    1.882    0.469
        34  -7.8746    123.8370    107.2176   9.9099804965e+01   3.6640190468e+01    0.2897119    0.2048626   0.63  0.001278965    2.472    0.596
        35  -8.1643    133.9409    106.3219   9.6484111065e+01   3.4844824360e+01    0.2832302    0.1909273 -25.60  0.001308563    1.935    0.483
        36  -7.6489    109.1410    106.6521   1.0258074863e+02   3.9445905241e+01    0.2716897    0.1734166  15.83  0.001126505    2.913    0.657
        37  -9.4618     14.9106    105.0473   1.2689470701e+02   5.1401494870e+01    0.3474008    0.1840092 -39.05  0.001918428    2.794    0.642
        38  -7.9762     66.9516    104.4917   1.1308435717e+02   4.6333763449e+01    0.1758282    0.1234547  39.58 0.0005953063    1.563    0.360
        39  -7.8916     95.6026    102.5992   1.0514559312e+02   4.2575849582e+01    0.2477923     0.131135  35.95  0.001127143    2.149    0.535
        40  -7.7153    130.0012     97.0000   9.5139898491e+01   3.7447051691e+01    0.2315606   0.08063067  46.45 0.0007474376    2.880    0.653
        41  -9.8611     15.8795     94.7040   1.2548400658e+02   5.3531418678e+01    0.2589436    0.1860404 -65.49  0.000990835    1.212    0.175
        42  -9.1062     12.0753     94.1504   1.2645783387e+02   5.3915577585e+01    0.2736638     0.155721 -61.03 0.0007936104    1.504    0.335
        43  -7.5960     82.8510     93.7568   1.0662222392e+02   4.6436058107e+01    0.2208108    0.1406687 -21.64 0.0009561172    2.873    0.652
        44  -8.9030     43.2935     92.1204   1.1743867658e+02   5.1733620954e+01    0.2627336    0.2261306 -17.57  0.001496968    1.545    0.353
        45  -8.3470     96.2661     90.7753   1.0226575967e+02   4.4945797498e+01    0.4204995    0.2728855  -8.58   0.00165664    3.435    0.709
        46  -7.9776    109.8754     90.8862   9.8666356719e+01   4.2541228753e+01    0.2726777    0.1772346  17.57  0.001164777    2.536    0.606
        47  -7.2292    140.3262     87.2907   9.0099476754e+01   3.7154520804e+01    0.1477893    0.1154935  11.33 0.0003062272    1.616    0.381
        48  -7.8897    246.6643     86.6815   7.0006867311e+01   1.2717455995e+01    0.1488959    0.0983348  19.26 0.0007048947    1.700    0.412
        49  -7.0520    177.4603     86.4052   8.1714581187e+01   2.8846318655e+01    0.1476564    0.1426922  27.85 0.0001013732    1.027    0.027
        50  -7.9776     65.9810     84.3061   1.0933293235e+02   5.0823787941e+01    0.2224791    0.1558097 -42.03 0.0006548892    1.495    0.331
        51  -8.0002    126.4930     83.9765   9.2564846242e+01   4.0695313478e+01    0.3103279    0.1711299  31.47  0.001075511    2.427    0.588
        52 -10.1267     37.5744     80.9246   1.1716083996e+02   5.4730948246e+01    0.5251027    0.3132682 -20.44  0.002630823    2.975    0.664
        53  -9.5686      7.9964     77.5382   1.2560594069e+02   5.7731603364e+01    0.4190341    0.1944927 -38.63  0.001502601    2.841    0.648
        54  -8.8344     88.6223     78.6049   1.0134123751e+02   4.8746145164e+01    0.3796442    0.2529673  19.71  0.001639758    2.154    0.536
        55  -9.5995    233.0572     77.0038   6.9491459136e+01   1.7009372604e+01    0.2758115    0.2339293  27.86 0.0003667034    1.167    0.143
        56  -7.6818    184.0606     78.2885   7.8135923875e+01   2.8572427123e+01    0.2118054    0.1915641  45.48 0.0007149531    1.099    0.090
        57  -8.6055     48.0450     77.8122   1.1334798325e+02   5.4357164823e+01    0.2605706    0.1622984  -9.17  0.001250627    3.032    0.670
        58  -7.5698    120.7172     76.2118   9.1842531471e+01   4.3375327124e+01    0.2240677    0.1103428  37.68 0.0008727221    2.360    0.576
        59  -9.2826     29.9734     68.0378   1.1712647323e+02   5.8208737534e+01    0.4074466    0.2024122 -25.99  0.001766421    3.862    0.741
        60  -9.7200     23.6779     74.1984   1.2027481411e+02   5.7380275708e+01    0.5477141     0.145809 -53.06  0.002326325    2.994    0.666
        61  -8.0097     23.4617     69.4574   1.1951881344e+02   5.8423894655e+01    0.1993465    0.1554965 -74.53 0.0004571365    1.080    0.074
        62  -7.9421     74.9430     74.2553   1.0425481084e+02   5.1750833342e+01    0.1708577    0.1664208  23.80  0.000432576    1.161    0.139
        63  -8.8366    237.6970     73.0578   6.7782144813e+01   1.6448381156e+01    0.2035174    0.1730792 -12.68 0.0004710219    1.098    0.090
        64  -7.5515    129.3722     69.2846   8.7550003341e+01   4.2877544049e+01    0.1522718    0.1142266  13.93  0.000442239    1.708    0.415
        65  -7.9220    106.0327     67.1763   9.3121472417e+01   4.8012800666e+01       0.2291    0.1630488  14.67  0.001073166    1.962    0.490
        66  -8.7672     83.2307     64.7352   9.9096431414e+01   5.2477882852e+01    0.4493371    0.2956802 -12.55  0.002019238    2.522    0.604
        67  -8.5515     16.2875     64.3308   1.2097139685e+02   6.0045593661e+01    0.2157055    0.1350753 -46.63 0.0009776831    1.538    0.350
        68  -9.3383     19.0394     61.2999   1.1949023270e+02   6.0508176262e+01     0.308244    0.1802411  -3.99  0.001596501    2.712    0.631
        69  -9.4060     63.1780     61.2471   1.0448752834e+02   5.6110441123e+01    0.4666817    0.2817366  18.47  0.001836817    2.409    0.585
        70  -8.4487     57.5918     62.2601   1.0661270740e+02   5.6606255099e+01    0.2567686    0.1778524  42.87  0.001044269    1.673    0.402
        71  -7.2184    139.5249     62.4456   8.2901284763e+01   4.1846451043e+01    0.1493937    0.1423148   3.99 0.0003478506    1.039    0.038
        72  -9.5758     36.2977     59.2356   1.1309537392e+02   5.9544900741e+01    0.4656712    0.2716883 -12.17  0.002285407    3.027    0.670
        73  -9.3383     27.4820     60.0334   1.1633065804e+02   6.0141123421e+01     0.202784    0.1536657  58.43  0.001340865    1.592    0.372
        74  -8.0462    111.2174     58.6687   8.8978025940e+01   4.8628802797e+01    0.2762971     0.168346  24.49  0.001150526    2.346    0.574
        75  -8.0677     96.4967     59.0154   9.3319596709e+01   5.1366683409e+01    0.2005535    0.1158123 -23.55 0.0008097704    2.481    0.597
        76 -10.1244     74.9030     50.3578   9.7278038892e+01   5.6664596958e+01    0.4728825    0.3066056 -27.47 0.0004022316    1.749    0.428
        77  -8.5613    118.4921     51.0717   8.4423513339e+01   4.8496625504e+01    0.2630249    0.2109549  44.63 0.0003266267    1.288    0.223
        78  -9.1803     45.3884     48.9216   1.0715651839e+02   6.0807402267e+01    0.3916089    0.2497597 -18.77  0.001182512    2.186    0.543
        79  -8.3162    106.4769     48.9765   8.7015015801e+01   5.1348561968e+01    0.3227863    0.2126262  15.13  0.001415316    2.208    0.547
        80  -9.1562     56.3186     43.3300   1.0142300189e+02   6.0659486457e+01    0.6782002    0.2800901 -30.86  0.002197307    4.840    0.793
        81  -9.8173     12.5140     45.2983   1.1860150251e+02   6.4347008647e+01    0.6538626    0.2756118 -41.64  0.003405608    2.354    0.575
        82  -8.5991     92.2685     37.5761   8.7064572267e+01   5.6099830293e+01    0.3711486    0.3207454 -18.10   0.00130973    1.087    0.080
        83 -10.8208     83.1875     40.1000   9.0928276492e+01   5.7271341152e+01    0.3984072    0.2557223 -25.30 0.0002302165    1.674    0.403
        84  -8.7986     87.5104     37.9877   8.8728464084e+01   5.6894988809e+01      0.28037    0.2069958   2.62 0.0007426416    1.660    0.397
        85  -8.4875     91.4599     45.7111   9.0336890631e+01   5.4792943319e+01    0.4440963    0.1808188 -38.65  0.001580165    2.314    0.568
        86  -7.5941    142.7722     44.1731   7.5985457812e+01   4.4084985364e+01    0.2072126    0.1691368  18.23 0.0005053122    1.310    0.237
        87  -8.1678    112.6484     42.6952   8.3011945395e+01   5.1174743646e+01    0.2325738    0.1669705  10.24  0.001096477    1.758    0.431
        88  -8.9293     35.6107     38.2091   1.0766765527e+02   6.4003195477e+01    0.4751804    0.1326643 -55.09  0.001673037    2.820    0.645
        89  -9.1035     38.7360     35.4131   1.0552585172e+02   6.4254330412e+01    0.2234461    0.1905368  -1.78  0.000830307    1.340    0.254
        90  -8.4816      3.6184     40.8260   1.2110859402e+02   6.5784681107e+01    0.1601731   0.08619542 -77.47 0.0007482373    1.695    0.410
        91  -7.6427    124.0513     39.9489   7.8968514205e+01   4.9131375439e+01    0.2399669    0.1716293  11.85 0.0008414859    1.715    0.417
        92  -9.2809     68.8083     37.3345   9.4804178714e+01   6.0088426068e+01    0.5301511    0.3168105 -13.32  0.002315738    2.734    0.634
        93  -8.3868     73.8229     34.3920   9.1921295871e+01   5.9852562272e+01    0.2649637    0.1725721 -26.76  0.001065968    1.553    0.356
        94  -8.1497    106.0528     36.7696   8.2629893444e+01   5.3534901925e+01     0.239539    0.1554701  20.69  0.001075092    1.998    0.499
        95  -9.3835     23.1184     35.8328   1.1200498840e+02   6.5576996221e+01    0.3689302    0.2162856  26.66  0.002246933    2.105    0.525
        96  -8.9317     22.0061     32.0598   1.1136196436e+02   6.6431007012e+01    0.2726018    0.2223315  50.36  0.001177478    1.615    0.381
        97  -8.5854     55.9541     35.5906   9.8872988166e+01   6.2218450126e+01    0.2360725    0.1493463 -35.43 0.0003958871    1.447    0.309
        98  -9.3496      6.2465     33.7913   1.1847888842e+02   6.7109049033e+01    0.3011279    0.2338191 -59.20  0.001828169    1.037    0.036
        99  -9.0173      1.8550     30.4114   1.1953560854e+02   6.8029023719e+01    0.3691448     0.146515 -78.85   0.00165387    3.200    0.687
       100  -7.0648    133.6908     31.6425   7.3494414272e+01   4.8132557683e+01    0.1592891    0.1094445  17.96 0.0007042299    1.732    0.423
       101  -8.6241    226.7763     28.2712   5.6850355792e+01   2.4488189252e+01    0.3608683    0.2118824 -38.68  0.000581109    1.632    0.387
       102  -9.0300     41.6960     27.0848   1.0137157929e+02   6.5560037581e+01     0.346505     0.188766 -59.48  0.001438014    2.048    0.512
       103  -7.8262    110.1916     26.6490   7.7444205100e+01   5.4237648903e+01    0.2017109    0.1779314 -27.34 0.0009556351    1.113    0.101
       104  -8.0576    229.3367    249.6675   1.0348504068e+02  -1.9641323380e+00    0.0917233   0.07017342  53.09 0.0007052085    1.739    0.425
       105  -9.3962     69.5742     26.1636   9.0112662356e+01   6.1975273843e+01    0.2350338    0.2105411 -74.34  0.001082178    1.504    0.335
       106  -8.3592     61.8638     26.9449   9.3292723039e+01   6.3005453970e+01    0.1958162    0.1509663 -19.38 0.0002869984    1.257    0.204
       107  -7.6167    101.9727     25.8153   7.9409898520e+01   5.6102772705e+01    0.2365291    0.1490811  22.50  0.001073982    1.961    0.490
       108  -7.8392     39.0000    109.9769   1.2128398447e+02   4.8299224620e+01    0.1941552   0.05644731 -68.27 0.0007970794    2.905    0.656
       109  -6.8597      3.2931     25.2954   1.1761932167e+02   6.8999774634e+01    0.1141267   0.06097613 -43.85  0.000256619    1.559    0.358
       110  -8.7606    144.7279     23.3129   6.7912418369e+01   4.6522732759e+01    0.2627013    0.2250471  21.55  0.000292231    1.158    0.136
       111  -9.0173     64.3514     23.2970   9.0825490941e+01   6.3273289662e+01    0.3148855    0.2040925 -42.49  0.001735215    1.413    0.292
       112  -7.4433    199.9794     22.0718   5.8316154554e+01   3.2113036760e+01    0.1695844    0.1670515  -9.60 0.0003448863    1.012    0.012
       113  -7.9842    129.0242     22.4866   7.1013215378e+01   5.0503272847e+01    0.2124159    0.1051137  35.70 0.0006506684    2.341    0.573
       114  -8.7800     45.8241     20.4050   9.6974600139e+01   6.6312198639e+01     0.345388    0.2006329 -54.41  0.001194209    1.862    0.463
       115  -8.3575     92.3708     20.9020   8.0181079274e+01   5.8772090327e+01    0.2560705    0.1948629  29.11 0.0008488465    1.345    0.256
       116  -7.9323    140.3592     20.0547   6.7564241623e+01   4.8026143517e+01    0.2018823    0.1747918 -12.13 0.0003211472    1.137    0.121
       117  -8.6441      9.2853     19.7856   1.1324992647e+02   6.9765373723e+01    0.2460462    0.1725644 -12.07 0.0009888542    1.672    0.402
       118  -8.4706    127.7077     16.8785   6.9048406237e+01   5.1529429615e+01    0.2781175    0.1911489  47.89  0.000341605    1.404    0.288
       119  -7.8270    105.5139    248.4379   1.2207646679e+02   1.5759834041e+01     0.100233   0.06944128  53.85 4.426227e-05    1.008    0.008
       120  -7.6267    224.6741    246.3270   1.0374572345e+02  -1.0256587952e+00   0.09270632   0.07097836  53.49 0.0007049868    1.698    0.411
       121 -12.0047    244.4023    240.0276   1.0002774416e+02  -3.3368018270e+00     0.218909    0.1692155  33.41 0.0003149376    1.275    0.216
       122  -7.9373    189.4725     15.5158   5.7623946313e+01   3.5612706922e+01    0.1473266    0.1401432  35.33 0.0001758694    1.040    0.038
       123  -8.1855    120.8159     14.6501   6.9723311911e+01   5.3443772439e+01    0.2975056     0.210851  60.04  0.001487377    1.495    0.331
       124  -8.6574      9.6597    235.9152   1.3555160137e+02   2.8217496085e+01    0.1441828    0.1038819  64.68 0.0005361409    1.187    0.158
       125  -7.7065    105.4806     14.4886   7.3550037501e+01   5.6943303748e+01    0.1418722    0.1262357   5.62 2.046409e-05    1.023    0.023
       126  -9.8096    188.5853    234.1812   1.0771757413e+02   5.4772303705e+00    0.1986511    0.1845866 -80.70  0.001557246    1.578    0.366
       127  -7.8172      7.8856    222.1979   1.3535250865e+02   3.0410562787e+01    0.1090475   0.08680686  75.86  0.000427542    1.322    0.244
       128 -10.0640    157.0384    217.9594   1.1085334342e+02   1.2253454088e+01    0.1794933    0.1527076  52.35 0.0003229699    1.138    0.121
       129  -8.2790     12.0190    207.5160   1.3417477223e+02   3.2335994771e+01    0.1311077   0.07309311  45.40  0.000685786    1.569    0.363
       130  -7.3498    158.5474    203.4230   1.0876079261e+02   1.3930794586e+01    0.1169768   0.09224181  44.56 7.933611e-05    1.015    0.014
       131  -8.2156    175.5921    168.1743   1.0030857810e+02   1.5987147651e+01    0.1598414    0.1220753 -21.19 0.0004399239    1.587    0.370
       132  -8.2260    105.7419    160.2086   1.1285893017e+02   2.9455250473e+01    0.1735919    0.1435837  68.87 0.0005010018    1.081    0.075
       133  -8.6645    249.9701    157.0444   8.5382383484e+01   3.6025893071e+00    0.1874729    0.1515642  17.93 0.0003287659    1.022    0.021
       134  -7.6446    152.4621    157.5077   1.0290588812e+02   2.1950011430e+01    0.1301781    0.1157235  50.33 0.0001873946    1.017    0.016
       135  -8.3978    250.1130    152.1296   8.4375317463e+01   4.1221282801e+00    0.2015479    0.1728705 -19.03 0.0007357912    1.295    0.228
       136 -10.2205    218.1940    150.5923   8.9295103501e+01   1.0308026404e+01     0.248537    0.2133203  29.19 0.0003944422    1.060    0.057
       137  -9.1088     67.1766    144.5658   1.1902769431e+02   3.7928191503e+01    0.3785767    0.2151069  64.42  0.002104561    1.821    0.451
       138  -8.4359    104.1214    144.8657   1.1091846627e+02   3.2612844857e+01    0.1922889    0.1749643 -62.25 0.0002681566    1.204    0.169
       139  -7.4472     55.7072    134.6633   1.2038578410e+02   4.1323887398e+01    0.1106454   0.08494937 -46.37 0.0003227851    1.644    0.392
       140  -7.8527      3.8954    134.1755   1.3190194031e+02   4.6222039324e+01    0.1355469    0.1078288 -70.64  0.001087989    1.346    0.257
       141  -8.4662    237.0330    132.3041   8.2271794846e+01   8.9523073992e+00    0.2157317    0.1720645  -6.64 0.0004907686    1.178    0.151
       142  -8.1585    222.2168    131.6701   8.4594299078e+01   1.2018298487e+01    0.3088675    0.1657088 -44.42   0.00137688    2.347    0.574
       143  -7.0576    163.3709    133.2899   9.6043512262e+01   2.3946059322e+01    0.1432737    0.1046134  18.18 0.0007023193    1.718    0.418
       144  -7.3943     40.3225    129.3474   1.2331991745e+02   4.4086053726e+01    0.1110101   0.07938799 -47.65 0.0007049499    1.740    0.425
       145  -7.4155    144.3294    126.3403   9.8615613100e+01   2.8991138561e+01    0.1403417    0.1097497   6.12 0.0005245045    1.740    0.425
       146  -7.5297     85.0381    121.4877   1.1147485122e+02   4.0239728486e+01    0.1635013    0.1166633   6.47 0.0008095013    2.510    0.602
       147  -8.7137     11.8542    121.1888   1.2915824120e+02   4.8261959935e+01    0.1450813    0.1102543 -65.38  0.001085681    1.342    0.255
       148  -7.9828    119.7292    118.7583   1.0260755563e+02   3.5110088151e+01    0.2461364    0.1609277  41.25 0.0009624082    1.550    0.355
