#   1 NUMBER                 Running object number                                     
#   2 MAG_AUTO               Kron-like elliptical aperture magnitude                    [mag]
#   3 X_IMAGE                Object position along x                                    [pixel]
#   4 Y_IMAGE                Object position along y                                    [pixel]
#   5 X_WORLD                Barycenter position along world x axis                     [deg]
#   6 Y_WORLD                Barycenter position along world y axis                     [deg]
#   7 A_WORLD                Profile RMS along major axis (world units)                 [deg]
#   8 B_WORLD                Profile RMS along minor axis (world units)                 [deg]
#   9 THETA_WORLD            Position angle (CCW/world-x)                               [deg]
#  10 FWHM_WORLD             FWHM assuming a gaussian core                              [deg]
#  11 ELONGATION             A_IMAGE/B_IMAGE                                           
#  12 ELLIPTICITY            1 - B_IMAGE/A_IMAGE                                       
         1 -10.5772     19.8490     15.8741   3.3750231694e+01   7.4950898298e+01    0.3253449    0.2394623 -25.11  0.001147723    1.364    0.267
         2 -11.6435    183.3368     14.9180   3.4960404015e+02   3.8071650801e+01    0.4305273    0.3262113 -52.25  0.001765079    1.121    0.108
         3 -10.6102    178.6499      1.7449   3.4655465216e+02   4.0407451309e+01     0.327208    0.1386321 -43.91  0.000726161    1.888    0.470
         4 -12.5821    178.1812      8.2851   3.4827489526e+02   3.9876127639e+01     0.575859    0.3346457 -80.64   0.00227322    1.579    0.367
         5 -11.6018    113.3620     13.9385   3.5703599175e+02   5.4667787834e+01    0.6059642    0.1860775  68.68  0.002236407    2.866    0.651
         6 -10.5373     55.0231      8.8995   9.3294813409e+00   6.9263264919e+01    0.3871855     0.236558 -33.62  0.002034746    1.791    0.442
         7 -11.5902     49.8423     13.5934   1.4263971577e+01   6.9837863211e+01    0.5274877    0.3409536  -3.99  0.002558998    2.105    0.525
         8 -10.3962     45.3684     12.1216   1.5457126202e+01   7.0959930139e+01    0.2517138    0.2259799  50.14 0.0006432229    1.112    0.101
         9 -10.6114     27.9148     12.4959   2.5707725944e+01   7.4223608735e+01    0.4244947    0.2068979 -41.83  0.002027917    2.234    0.552
        10 -10.0975     96.0508     11.5062   3.5917836131e+02   5.9215582194e+01    0.2306419    0.1521069  51.79  0.001214698    1.463    0.317
        11 -10.4773     35.0015     13.9227   2.2148549305e+01   7.2752330838e+01    0.2332861    0.2212521   7.16  0.000463157    1.110    0.099
        12 -10.6850     32.2172     10.2193   2.1407112731e+01   7.3786686840e+01    0.2630877    0.2185209   4.94 0.0006912809    1.201    0.168
        13 -11.1769    236.5831      7.0715   3.4484426451e+02   2.8491646622e+01    0.2330385    0.1422508 -72.80  0.001630309    1.425    0.298
        14 -12.5920    174.4717      3.7881   3.4735385200e+02   4.1130167049e+01    0.5521982     0.355264 -88.68 0.0009039486    1.395    0.283
        15  -9.9208    191.0866     11.0614   3.4809997743e+02   3.6829312660e+01      0.20947    0.1050556 -61.28  0.001037199    1.722    0.419
        16 -11.1134     70.0586      9.6957   4.6631972597e+00   6.5719486315e+01    0.3788672    0.2051651  64.43  0.001828485    1.688    0.408
        17 -10.0028    218.5853      8.7747   3.4601222544e+02   3.1588779489e+01    0.1760771    0.1329138 -78.43 0.0004457982    1.224    0.183
        18 -10.3795    115.5806      8.7982   3.5476604224e+02   5.4622188231e+01    0.2302947     0.121429 -34.29 0.0003737623    1.924    0.480
        19 -11.5807    113.8023      2.0826   3.5249208488e+02   5.5661254620e+01    0.4517869    0.2718416  83.81  0.001170455    1.510    0.338
        20 -11.3408     97.5251      6.3401   3.5670203831e+02   5.9339196874e+01    0.5047904     0.210295 -45.26  0.002112736    2.564    0.610
        21  -9.4517    212.9452      8.4808   3.4623228597e+02   3.2694720155e+01    0.1559452   0.09933779  86.17  0.001016311    1.554    0.356
        22  -8.9160    202.2700      8.6571   3.4684804213e+02   3.4779703010e+01    0.1266937   0.06251094 -55.72 0.0003192572    1.610    0.379
        23 -11.8150    124.0432      7.0532   3.5299001116e+02   5.2691100917e+01    0.4993049    0.2506261  84.84  0.002336146    1.938    0.484
        24 -11.8225    241.2635     10.3674   3.4530191233e+02   2.7344618220e+01    0.3906369   0.09652613 -43.35  0.001968481    2.360    0.576
        25  -9.8946     78.9322     11.5353   3.1114551904e+00   6.3408700648e+01     0.190683    0.1821043  68.86   0.00120916    1.067    0.062
        26  -9.0087     23.6224      5.2672   2.3623138078e+01   7.5994333268e+01    0.1172134   0.09785496  68.04 0.0006990106    1.681    0.405
        27 -10.3559    131.0637      3.4910   3.5094502043e+02   5.1291001873e+01    0.1878023    0.1635994 -69.92 0.0007863821    1.074    0.069
        28 -10.4399    101.3072      3.7866   3.5498784245e+02   5.8622957883e+01    0.2340178    0.1716187  68.61  0.001344938    1.203    0.169
        29  -9.6159     16.1009      4.5373   2.8945855915e+01   7.7315256355e+01    0.1824808    0.1096014  34.25 0.0004484097    1.521    0.342
        30 -11.3421    162.2421     11.6732   3.5044367772e+02   4.3107788840e+01     0.249935    0.1909112 -74.70 0.0007318797    1.114    0.102
        31  -9.2502     31.5095      3.4136   1.7055086670e+01   7.4794757023e+01    0.1266437    0.1081394  30.90 0.0001215397    1.016    0.015
        32 -11.2740     79.4546      7.5153   1.0301231634e+00   6.3680353923e+01     0.371378    0.2365779  64.45  0.001814458    1.379    0.275
        33 -11.7728     85.4258      7.2547   3.5951885017e+02   6.2246388476e+01    0.3311607    0.2724508  82.80  0.000834898    1.148    0.129
        34 -10.1626    238.0000    115.9462   6.6932533955e+00   1.4231535563e+01    0.2033449   0.05273971 -38.10 0.0007775594    2.950    0.661
        35  -9.7116    250.1899    250.4014   2.7306855053e+01  -5.1795861300e+00    0.1166618   0.07609405  19.77 0.0009414045    1.635    0.388
        36  -9.6621     91.4923    116.1584   3.6601120918e+01   4.0687369681e+01    0.2168189    0.2100328  44.74  0.001071027    1.046    0.044
        37 -10.4587     21.0405    115.5162   6.2927539140e+01   5.0606161069e+01    0.3150868    0.1729804 -55.45  0.001376176    1.713    0.416
        38  -9.0154     96.4232    111.4901   3.3888579724e+01   4.0912777033e+01    0.1540967    0.1491837 -42.91 0.0002146035    1.048    0.046
        39  -9.3467     79.4366    110.7493   3.9317345773e+01   4.4200749548e+01    0.2143402    0.1424178 -44.59 0.0006734131    1.549    0.355
        40 -10.6424     22.7782    108.9721   6.1284023250e+01   5.2282593243e+01    0.2491621    0.1635939 -37.79  0.000524678    1.647    0.393
        41 -10.0045     25.9755    106.5280   5.9536773902e+01   5.2674048942e+01    0.2671886    0.1498259  12.46 0.0006083148    2.027    0.507
        42 -10.2671      1.3302    108.6931   7.0385370874e+01   5.3811587103e+01    0.2600501    0.1774646  56.87 0.0008040806    1.500    0.334
        43 -10.9639      1.7892    104.9552   6.9842409681e+01   5.4821899650e+01    0.3184214     0.177045 -66.99  0.000733727    1.587    0.370
        44  -9.5057    243.3234    108.6445   4.6728291978e+00   1.4533888701e+01    0.1197021   0.07342257 -56.07 0.0007046057    1.765    0.433
        45 -12.0042     11.9452    105.4384   6.5473571296e+01   5.4099054592e+01    0.5654132    0.2401654  49.09  0.001704979    2.620    0.618
        46 -10.3257    224.7608    105.7870   6.2657706229e+00   1.7742694591e+01    0.1678018    0.1230055 -54.52 0.0006112138    1.332    0.249
        47  -9.3903    102.8644    105.6413   3.0400978872e+01   4.1052113076e+01    0.2342659    0.1388888  52.59 0.0009486025    1.853    0.460
        48  -9.8826     48.4134    101.8097   4.9064950125e+01   5.1402062911e+01    0.2186741    0.1311165 -50.52 0.0007782592    1.624    0.384
        49 -11.8750    246.7081     99.9647   2.6368968457e+00   1.5282705327e+01    0.3105949    0.1192101 -39.45  0.001590861    1.908    0.476
        50  -9.1724    108.0560    100.9909   2.7619845451e+01   4.1073257734e+01    0.1775681    0.1728814  69.83 0.0003102538    1.035    0.034
        51 -11.4526     28.2396     99.6061   5.7356016231e+01   5.4366144567e+01    0.4541391    0.2584503 -35.57    0.0014432    2.012    0.503
        52 -10.3129    102.9803     95.5587   2.7615869340e+01   4.3343287123e+01    0.3038664    0.2174883 -43.63  0.001400312    1.404    0.288
        53 -11.2321     64.5714     96.1172   4.1111975443e+01   5.0458978701e+01    0.3294818    0.2884955  49.65 0.0005702469    1.166    0.142
        54  -9.9075    237.0000     95.9940   2.8772655182e+00   1.7291767810e+01    0.2024587   0.05294425 -37.35 0.0008013518    2.935    0.659
        55 -11.8835     15.9868     94.2186   6.2061432646e+01   5.6908509033e+01    0.4672179    0.3468463 -50.02   0.00210176    1.283    0.220
        56 -11.1958      4.7308     95.4898   6.7509699503e+01   5.7278545274e+01    0.3379019     0.175226 -39.34  0.001474931    2.004    0.501
        57 -10.2800     90.1965     94.1425   3.1258317448e+01   4.6256437923e+01    0.2613792    0.2195962  51.42  0.000489853    1.206    0.171
        58 -10.9616     38.1320     93.6508   5.1701768810e+01   5.4901042844e+01    0.2403814    0.1805241  47.46 0.0006601723    1.407    0.289
        59  -9.5642    108.1961     89.7409   2.4412244818e+01   4.3532794649e+01    0.2740637    0.2057685 -63.84  0.001283868    1.448    0.309
        60 -11.4544    248.9525     85.9573   3.5970597704e+02   1.6894960002e+01    0.4479739    0.1376329 -30.79  0.001728097    3.796    0.737
        61  -8.9793     54.4663     88.4439   4.3212176357e+01   5.4024798857e+01    0.1489064    0.1469371 -57.22 0.0002136133    1.005    0.005
        62 -10.2543      2.0689     88.2916   6.7912207392e+01   5.9375216008e+01     0.189979    0.1784824 -64.53 0.0005830975    1.037    0.036
        63 -11.2153    232.5005     83.0757   7.3324462736e-01   1.9848971788e+01    0.4136014   0.08136293 -38.60  0.001502792    3.564    0.719
        64 -10.9589    238.2321     81.7202   3.5988659516e+02   1.9121930770e+01    0.3136021    0.1023249 -46.19  0.001424703    2.452    0.592
        65 -10.2756    186.4661     82.0058   6.0825449154e+00   2.8293899111e+01    0.3193827    0.1825397 -60.42     0.001433    1.987    0.497
        66  -9.8173    160.1730     81.1581   1.0083015822e+01   3.3860865457e+01    0.1959816    0.1515823 -65.29 0.0003781106    1.314    0.239
        67 -11.6772     54.3466     78.5995   4.0454907584e+01   5.6499581437e+01    0.3579466    0.3044705  68.32 0.0008338386    1.332    0.249
        68  -9.8651    143.9664     77.0534   1.2034318306e+01   3.8137892317e+01    0.2198794    0.2070086 -71.72 0.0006356503    1.029    0.028
        69 -10.5872    152.3929     76.0951   1.0134823701e+01   3.6436403435e+01    0.2695895    0.2095093  75.40 0.0009901858    1.383    0.277
        70 -11.0509      2.9721     74.2434   6.5503877564e+01   6.3095923396e+01    0.4111986    0.2591937 -60.48  0.002082681    1.396    0.284
        71  -9.6194    130.2219     74.5551   1.4245296286e+01   4.1694413431e+01     0.198514     0.138233  43.95 0.0005495752    1.582    0.368
        72  -9.4512    201.4875     79.5265   3.4781025917e+00   2.5791540760e+01    0.1302321    0.1071029 -50.35 0.0001095561    1.014    0.014
        73  -9.8886    176.2759     71.0837   4.8568276662e+00   3.2119873967e+01    0.2580161    0.2230342  36.21  0.001394936    1.466    0.318
        74 -10.3228     64.1061     69.6705   3.3360552949e+01   5.6915475221e+01    0.2502178    0.2055941 -44.95 0.0003867039    1.224    0.183
        75 -10.6828      7.7369     68.7783   6.1881907909e+01   6.4267517573e+01    0.2407967    0.2269969 -87.96 0.0005880045    1.117    0.105
        76 -10.6576    191.5915     66.1447   1.5641525899e+00   2.9736972298e+01    0.3031711    0.2331392  27.58   0.00113372    1.946    0.486
        77  -8.7589     33.5584     68.4906   4.7483328398e+01   6.1953552747e+01    0.1432444    0.1358496 -34.80 5.063534e-05    1.008    0.008
        78  -9.7636     69.9832     66.7767   2.9951580541e+01   5.6438010742e+01    0.2211734    0.1953737  10.47 0.0004352451    1.255    0.203
        79  -9.5638    204.2612     65.6542   3.5995859149e+02   2.7329767683e+01    0.1827625    0.1377968 -71.61  0.000667572    1.327    0.246
        80  -9.1787     40.3593     65.8612   4.3132600534e+01   6.1690862632e+01    0.2037274    0.1246228 -45.93  0.000344952    1.603    0.376
        81 -11.3724    248.8832     44.4244   3.5159223370e+02   2.2259121118e+01     0.403258    0.1890867 -35.10  0.002374369    1.713    0.416
        82 -10.4182    250.1703     65.1578   3.5555316152e+02   1.9470857786e+01    0.2245859    0.1235825 -40.91 0.0007929819    1.323    0.244
        83 -12.1759    248.6782     55.1944   3.5371708648e+02   2.0970502687e+01    0.8122324    0.1549156 -41.62  0.003415734    3.072    0.674
        84 -10.8528      4.2533     64.0227   6.2997448097e+01   6.5692143913e+01    0.3047447    0.2263246 -62.73 0.0007873055    1.221    0.181
        85 -11.2437      2.9933     59.6251   6.2898655781e+01   6.6877957773e+01    0.4187082    0.2996988 -13.65  0.001354261    1.439    0.305
        86 -10.6380     99.7884     62.6674   1.8245386481e+01   5.0890046905e+01     0.398051    0.2406544 -55.75  0.001669349    1.866    0.464
        87  -9.5061     75.0789     64.5283   2.7169346136e+01   5.5896938283e+01    0.2266344    0.1441553  47.16  0.001012023    1.557    0.358
        88 -10.6820    237.0925     61.8455   3.5595354649e+02   2.1998451454e+01    0.2864752    0.2339616  79.30  0.002108236    1.467    0.318
        89 -11.2614    230.2491     59.8401   3.5612184175e+02   2.3418672363e+01    0.4172173    0.2182215 -64.78  0.002114234    2.129    0.530
        90  -9.5686     78.4676     62.8881   2.5315002675e+01   5.5533568548e+01    0.2126596    0.1467739 -45.53 0.0003280462    1.476    0.322
        91  -9.9386    114.3992     60.4179   1.3537984985e+01   4.7912529420e+01    0.3513032     0.232384 -52.68  0.001641696    1.557    0.358
        92 -10.9075     14.1304     61.0457   5.6398434834e+01   6.5793388479e+01    0.4613064    0.1773352  18.77  0.001803335    2.661    0.624
        93 -10.0617    124.8572     59.8197   1.0888078033e+01   4.5554602086e+01    0.2041891    0.1953848  39.12 0.0003330956    1.182    0.154
        94  -9.0539     36.5471     60.4473   4.3340101059e+01   6.3501591212e+01    0.1417533     0.134462 -19.25 0.0002054157    1.010    0.009
        95 -10.8146     22.2310     58.0725   5.0707128666e+01   6.5787296677e+01    0.3669915    0.2388637 -55.98  0.001550999    1.447    0.309
        96  -9.5885     29.1592     57.2537   4.6382008263e+01   6.5206573775e+01    0.2508621    0.1294468 -26.47  0.000946207    2.771    0.639
        97  -9.6404    120.0003     55.3511   1.0518728221e+01   4.7454025057e+01    0.2338242    0.1949574 -29.30 0.0005968641    1.333    0.250
        98  -9.3552     78.8081     55.6862   2.2507195101e+01   5.6880972146e+01    0.2368605    0.1770083  31.18 0.0008837493    1.488    0.328
        99  -9.0922    133.4714     55.5077   7.7161101484e+00   4.4230532332e+01    0.1443814     0.130721 -75.34 0.0008098233    1.024    0.024
       100  -9.8249    149.4332     52.3052   3.8714175813e+00   4.0982389446e+01    0.2643134    0.1357833 -30.43  0.001138444    2.137    0.532
       101  -9.8057     88.6623     52.8400   1.8078842969e+01   5.5225850402e+01    0.2365692    0.1912329  44.03 0.0005809651    1.238    0.192
       102 -10.8924     16.1387     50.1954   5.2054219246e+01   6.8265330725e+01    0.3168462    0.2610128 -30.32  0.001459362    1.142    0.124
       103  -8.7775    111.3386     51.3354   1.1187942283e+01   5.0180148263e+01    0.1480218    0.1137387  23.30 0.0007051498    1.752    0.429
       104  -9.8013     66.2532     57.9767   2.8238276200e+01   5.9022867487e+01    0.3121216    0.1898806  68.22  0.001189863    2.729    0.634
       105  -9.5872    146.0133     49.5374   3.6112700747e+00   4.2193640739e+01    0.2018111    0.1316552  65.87 0.0006308413    1.527    0.345
       106 -11.2055     94.0017     48.6266   1.4840339660e+01   5.4729362538e+01     0.243906    0.2082748 -43.02 0.0002604835    1.212    0.175
       107  -9.1015    240.8687     48.1903   3.5288648912e+02   2.3112922584e+01    0.1373238    0.1142287 -36.49 0.0002635383    1.285    0.222
       108 -10.4668      5.7178     46.4959   5.7986446299e+01   6.9958038303e+01    0.5259818    0.1587176 -36.10  0.001726506    3.893    0.743
       109 -10.5691     39.0189     43.5146   3.5458675225e+01   6.6864396530e+01    0.3245613    0.2941136  24.55  0.001573572    1.075    0.069
       110 -11.1541    226.5974     42.0482   3.5265641426e+02   2.6339459782e+01    0.4656169    0.1269882 -54.99   0.00172536    4.106    0.756
       111  -9.9217     31.2438     43.9053   4.0168110396e+01   6.7939953301e+01    0.2891521    0.1863197  22.19 0.0007797829    1.593    0.372
       112  -8.9757     24.3303     44.2770   4.4640950974e+01   6.8754635144e+01    0.1411322   0.09781577 -18.79 0.0006994942    1.598    0.374
       113 -10.1454    118.9644     41.2554   5.9399128787e+00   4.9896239750e+01    0.3154348    0.2525113   9.70  0.001636493    1.728    0.421
       114 -10.6685    158.7848     39.2827   3.5870451330e+02   4.0662142792e+01    0.2240023    0.2065336 -68.47 0.0002938303    1.102    0.092
       115  -9.2159     95.9958     37.9749   1.0135885352e+01   5.5945852621e+01    0.1715341    0.1516991  65.98 0.0004083334    1.063    0.059
       116  -9.1549     84.3264     38.6557   1.3797747189e+01   5.8600187241e+01    0.1485319     0.109428 -76.96 0.0004660064    1.743    0.426
       117  -9.8662     47.1655     35.8162   2.7534835881e+01   6.6949169500e+01     0.365303    0.1913423 -48.24  0.001620829    2.097    0.523
       118 -10.5608     50.0060     32.6067   2.4537909353e+01   6.6976364255e+01    0.4614323    0.2406832  56.74  0.001153317    2.427    0.588
       119  -9.3128     61.4955     37.4318   2.1605084443e+01   6.3849837257e+01    0.1415918    0.1291395  27.00 9.302977e-05    1.078    0.072
       120 -11.0667    119.2038     35.0472   3.7116201510e+00   5.0708613842e+01    0.2558097    0.2223724  70.05 0.0003054567    1.100    0.091
       121 -10.5832     40.2971     35.5446   3.1090740310e+01   6.8217351584e+01    0.3513154    0.2264868  48.97  0.001132839    1.696    0.411
       122  -9.4603    173.8869     35.1323   3.5574590968e+02   3.7787324820e+01     0.159959     0.156621  46.85  0.001066893    1.315    0.240
       123  -9.3137      6.5278     32.5479   5.2845890949e+01   7.3112119324e+01    0.1768731    0.1504502  51.14 2.511652e-05    1.436    0.303
       124  -9.7819      3.6617     31.2701   5.4684792791e+01   7.3603772577e+01    0.1876359    0.1715082  19.44 0.0005353166    1.197    0.165
       125  -9.6987    153.8000     31.8767   3.5719798019e+02   4.2778222996e+01    0.1861337    0.1732131  81.67 0.0004227856    1.167    0.143
       126  -8.8695    189.7117     31.7062   3.5329814336e+02   3.4797176639e+01    0.1071881   0.09724671  29.24 0.0002272261    1.547    0.354
       127  -9.6773    178.2027     31.6216   3.5436749358e+02   3.7275060816e+01    0.1639126    0.1099058  64.50 0.0003648634    1.595    0.373
       128  -9.9660    167.7587     30.9770   3.5528774019e+02   3.9676219335e+01    0.2214885    0.1679719  89.87 0.0006669557    1.243    0.196
       129  -9.9737     92.6992     31.0712   8.2161157995e+00   5.7725109068e+01    0.2439554      0.18635  62.55 0.0005473192    1.218    0.179
       130 -10.0258     17.7482     31.0800   4.3573121541e+01   7.2344458169e+01    0.2116397    0.1747518  46.06 0.0004566279    1.430    0.301
       131 -10.7849     59.2093     28.4492   1.8256249275e+01   6.5779622214e+01    0.3914878    0.3052603 -11.45  0.001664036    1.506    0.336
       132  -9.8006    103.9353     28.1635   4.3233240693e+00   5.5369372085e+01    0.2075434    0.1730617 -83.41 0.0003322932    1.199    0.166
       133 -10.9962     46.8891     26.8108   2.3117864794e+01   6.8539697978e+01     0.227872    0.2209112 -26.55 0.0002891527    1.128    0.114
       134 -10.2285    160.6468     27.0752   3.5498224761e+02   4.1772666077e+01    0.2248176    0.1734648  77.30 0.0003843529    1.260    0.206
       135 -11.4198    136.2107     23.9456   3.5709515857e+02   4.7941313406e+01    0.5386071    0.3048253  46.77  0.002551942    2.115    0.527
       136 -10.8173    110.5958     24.9368   1.6949917722e+00   5.4126826367e+01    0.3244835    0.2305006  85.89 0.0007407236    1.415    0.293
       137 -10.4041     88.2267     25.0321   6.8401052619e+00   5.9603821741e+01    0.2617449    0.1817376 -54.05  0.001336868    1.601    0.375
       138  -9.9862    120.8780     25.1150   3.5987765138e+02   5.1562842521e+01    0.2175287     0.167216 -74.15 0.0007117296    1.280    0.219
       139  -9.5986    195.9273     23.4151   3.5075481442e+02   3.4479716721e+01    0.2218124    0.1616686 -11.99  0.001322204    1.939    0.484
       140  -9.8723    128.9854     23.7633   3.5809369335e+02   4.9726921491e+01    0.1890239    0.1585915  80.40 0.0003811393    1.095    0.087
       141 -10.9640     98.4505     22.5553   3.2947496494e+00   5.7413100449e+01    0.2523717    0.2341758  75.80 0.0005283903    1.031    0.030
       142  -9.9863     43.5358     22.7962   2.2665378472e+01   6.9819682264e+01    0.2503376    0.1725829  42.74 0.0006790851    1.349    0.258
       143  -9.7053     38.6270     22.8870   2.5415876514e+01   7.0721087875e+01    0.1768782    0.1623016 -23.52 0.0004897068    1.142    0.124
       144 -10.7194     66.4079     20.7207   1.1541157021e+01   6.5286392306e+01    0.2656495    0.2187434  60.55 0.0003769601    1.153    0.133
       145  -9.8037    208.2999     19.8376   3.4904807823e+02   3.2392018842e+01    0.1694488    0.1201396 -68.20 0.0009448245    1.183    0.155
       146  -9.3709    159.1174     20.5291   3.5326976259e+02   4.2882411451e+01    0.1815171    0.1162864  79.53 0.0003699673    1.476    0.322
       147 -10.8200    109.0310     18.5933   3.5956409645e+02   5.5248733764e+01    0.3033893    0.2069391 -52.29  0.001544096    1.505    0.336
       148  -9.4379     84.7679     20.3915   5.7055010022e+00   6.1012023670e+01    0.1905683    0.1147493  53.99 0.0004296295    1.509    0.337
       149 -10.2945     79.2174     19.5099   6.8364155411e+00   6.2450066964e+01    0.3272951    0.1737187 -62.14  0.001286859    3.018    0.669
       150  -8.9134    226.7451     18.9772   3.4775928406e+02   2.8996643651e+01    0.1403632   0.07791138 -37.58  0.000401409    1.483    0.326
       151  -9.8562     16.4635     18.4995   3.8020743653e+01   7.4946875355e+01    0.2287121     0.177295  -8.44 0.0005519172    1.261    0.207
       152 -10.0220     23.5927     16.7472   3.1479079054e+01   7.4249041942e+01    0.2244897    0.1811267  70.24 0.0007848514    1.909    0.476
       153  -9.8553     41.6037    244.8000   6.7802458498e+01   1.6612737509e+01    0.1569673    0.1038931  74.84 0.0007192378    1.653    0.395
       154  -8.9546      5.3119     19.3078   4.8096782296e+01   7.6006403113e+01    0.1336558   0.08258369 -24.14 0.0004088573    1.622    0.383
       155  -9.1089     96.5627    209.5356   5.1397471400e+01   1.7660766624e+01    0.1329883    0.1191952  24.86   0.00016226    1.008    0.008
       156  -9.2200    226.3297    189.6521   2.1717607581e+01   4.7472665782e+00    0.1009535   0.08683168 -53.21 0.0004773805    1.761    0.432
       157 -10.1450      1.9375    183.5629   7.4721045253e+01   3.3728752671e+01    0.3420018     0.172501  79.49  0.001623589    1.886    0.470
       158 -10.1344    133.0777     15.1317   3.5460973855e+02   4.9678647634e+01    0.1970729    0.1672064  60.02 0.0004669017    1.259    0.206
       159 -10.0089    243.4216    180.2107   1.7636611551e+01   4.2228170318e+00    0.1543859   0.08459841 -41.50 0.0009488164    1.665    0.399
       160 -10.6175     20.3083    174.8368   6.8916880417e+01   3.4507300644e+01    0.2856025    0.1997583  52.39   0.00104587    1.300    0.231
       161 -10.6765     21.4935    170.3641   6.8234784687e+01   3.5563927358e+01    0.2696047    0.2400427 -76.37 0.0004766175    1.148    0.129
       162 -10.5920    224.5444    173.2383   1.9182876876e+01   7.3744015619e+00    0.2257669   0.09447603 -42.43  0.001134027    2.108    0.526
       163  -9.6825     27.5311    159.0348   6.5387989781e+01   3.8019621700e+01     0.215151    0.1349891 -79.23 0.0006322929    1.551    0.355
       164  -9.1200      6.6743     15.7110   4.4923936893e+01   7.6585509558e+01    0.1310253   0.08391019 -18.40 0.0004245912    1.612    0.380
       165 -11.1504      3.1790    156.1923   7.3045225117e+01   4.0698089495e+01    0.3514085    0.2156687 -89.15 0.0005423154    1.506    0.336
       166 -10.3642      8.7888    150.4124   7.0854376607e+01   4.1873294661e+01    0.1792255    0.1348637  -4.08 0.0005009123    1.585    0.369
       167  -9.8966     40.0123    147.8659   6.0025375005e+01   3.9788444064e+01    0.2226912    0.2046973  60.99  0.000458976    1.041    0.040
       168  -9.6492     24.5131    146.1862   6.5156276436e+01   4.1781101295e+01    0.2257022    0.1948735 -31.07 0.0007703815    1.314    0.239
       169 -11.6036    247.5078    143.3836   1.0676834937e+01   8.9676125139e+00    0.4480741    0.1908779 -52.93  0.001856423    4.103    0.756
       170 -11.5426      3.7293    136.8931   7.1669236328e+01   4.5887651566e+01    0.4609064    0.2400684 -87.79  0.002055886    1.798    0.444
       171 -11.0264      6.7197    142.6368   7.1018030023e+01   4.4127366759e+01    0.2763741    0.1844664 -59.12 0.0007232267    1.488    0.328
       172 -10.7395     22.1016    141.7032   6.5547920504e+01   4.3224792613e+01    0.3014848    0.2792147  14.11  0.000849333    1.183    0.155
       173 -10.5357     28.4901    138.1633   6.2885082596e+01   4.3629075181e+01    0.2528039    0.2377425  16.51  0.000452616    1.152    0.132
       174 -10.8254     12.4852    137.5236   6.8583961006e+01   4.5136768096e+01    0.3920772    0.1195248  22.41  0.001374032    3.090    0.676
       175 -10.3902     11.2284    134.0000   6.8735105381e+01   4.6199934241e+01    0.2314476    0.2063424  26.12 0.0005845543    1.198    0.166
       176  -9.6201    108.8801    132.9834   3.5231050523e+01   3.3421885346e+01    0.2864052    0.2096839 -58.44  0.001345195    1.396    0.284
       177 -10.3184     17.6559    132.1533   6.6189599569e+01   4.6236246592e+01    0.2320624    0.1821716  44.80 0.0003423998    1.263    0.208
       178 -11.6805    248.6001    127.1660   7.5784711898e+00   1.1152437696e+01    0.3038465    0.2477311 -87.83  0.002169498    1.900    0.474
       179 -10.6588      5.5895    125.2594   7.0102598566e+01   4.8987444912e+01    0.2613407     0.218813 -80.56 0.0006077184    1.091    0.084
       180 -10.7685      6.6947    121.7115   6.9369519877e+01   4.9906003178e+01     0.216058    0.1874077 -61.57 0.0001751929    1.130    0.115
       181 -10.2901    136.0665    123.9071   2.6008655828e+01   3.0398786742e+01    0.4178696    0.2173677  30.94  0.001604465    2.499    0.600
       182 -10.6295    250.1226     14.8767   3.4579828307e+02   2.5387927462e+01    0.1774812    0.1007927 -55.16  0.001237732    1.269    0.212
       183  -9.4874     15.3100    123.3058   6.6154825323e+01   4.8881302503e+01     0.150644   0.09976362 -42.41 0.0002564653    1.613    0.380
       184  -9.8138     62.8217    121.2331   4.7594487112e+01   4.4140589429e+01    0.3732555      0.20973  71.29  0.001283596    2.934    0.659
       185  -9.8105     26.9523    120.0738   6.1161384762e+01   4.8811700183e+01    0.2158568    0.2027268 -63.13            0    1.059    0.056
       186 -10.2717     54.5186    117.9852   5.0029514000e+01   4.6201828295e+01    0.4857709     0.284016   0.09  0.001782369    2.728    0.633
       187 -11.4530     13.0550    117.5924   6.6429470643e+01   5.0638550941e+01    0.5482754    0.2124608 -32.53  0.001767813    3.812    0.738
       188 -10.9226      2.3359    118.1229   7.0782853350e+01   5.1149322826e+01    0.2620418    0.2264523  76.59 0.0003979214    1.094    0.086
