#   1 NUMBER                 Running object number                                     
#   2 MAG_AUTO               Kron-like elliptical aperture magnitude                    [mag]
#   3 X_IMAGE                Object position along x                                    [pixel]
#   4 Y_IMAGE                Object position along y                                    [pixel]
#   5 X_WORLD                Barycenter position along world x axis                     [deg]
#   6 Y_WORLD                Barycenter position along world y axis                     [deg]
#   7 A_WORLD                Profile RMS along major axis (world units)                 [deg]
#   8 B_WORLD                Profile RMS along minor axis (world units)                 [deg]
#   9 THETA_WORLD            Position angle (CCW/world-x)                               [deg]
#  10 FWHM_WORLD             FWHM assuming a gaussian core                              [deg]
#  11 ELONGATION             A_IMAGE/B_IMAGE                                           
#  12 ELLIPTICITY            1 - B_IMAGE/A_IMAGE                                       
         1 -15.3107    191.6403    155.5773   4.9153747214e+01   1.3967451995e+01      10.5959      6.72869 -56.99   0.05174452    2.154    0.536
         2 -16.6728    243.6995    108.1074   3.1618300056e+01   1.3200388505e+01     4.262462     3.628551 -84.05   0.02165893    1.534    0.348
         3 -14.5217    248.5004     90.9811   2.7624314395e+01   1.4860720721e+01     3.612298    0.3817689 -36.98  0.002075434    5.569    0.820
         4 -13.1275     12.5409    123.4301   9.4248723200e+01   4.9329365118e+01     1.523297     1.395125  34.56  0.006518204    1.182    0.154
         5 -15.8965    247.5367     75.1582   2.4487071397e+01   1.7164925831e+01      6.20604     2.397783 -56.93    0.0176214    3.635    0.725
         6 -15.4215    238.5630     82.3034   2.6843140790e+01   1.7691734462e+01      2.83235     1.286469 -24.67  0.008468566    2.737    0.635
         7  -9.1129    248.2612     16.7279   1.2519369812e+01   2.4073039246e+01    0.4238268    0.2103843  47.40  0.002179402    3.749    0.733
         8  -9.1520    233.2462      3.1741   1.0437233427e+01   2.8183713469e+01    0.2712455     0.148481  54.56  0.001226095    2.604    0.616
         9 -10.0402    220.5753      9.6647   1.2430984365e+01   2.9981880286e+01    0.6229804    0.1973424  57.26  0.002625855    4.219    0.763
        10 -10.7266    228.3737     10.4916   1.2208413020e+01   2.8378557686e+01    0.6135138    0.2060356  56.28  0.001349653    4.262    0.765
        11  -8.9434    227.7929      6.4412   1.1370055550e+01   2.8898004407e+01    0.1773132    0.1337686  74.77 0.0009223329    1.515    0.340
        12 -11.0815    119.2199      9.8160   2.1456836361e+01   5.3410621740e+01    0.6351074    0.4135558  51.02  0.002592794    1.543    0.352
        13  -8.5725    238.0329      5.9506   1.0805672500e+01   2.7020267160e+01    0.1587599    0.1226572 -60.32 0.0004022283    1.073    0.068
        14  -9.9885     98.3243      5.2583   2.3043148290e+01   5.9069908031e+01     0.225212    0.1878948  42.77 0.0006480213    1.230    0.187
        15  -9.1926    172.5835      3.1144   1.3772997459e+01   4.0958722326e+01    0.4850429    0.1330564 -52.69  0.001814692    3.394    0.705
        16  -7.8933    214.5319      2.5099   1.1143720532e+01   3.1896076021e+01    0.1143408   0.09305047 -61.45 0.0008084621    1.081    0.075
        17 -10.5333    192.9150    194.6402   5.6239951726e+01   7.2522347089e+00     0.843531     0.456732 -60.25  0.003042702    5.323    0.812
        18  -9.7243    248.9740    250.0000   5.5598081837e+01  -6.1963154460e+00    0.2564116    0.1083909  20.86  0.001619641    2.155    0.536
        19 -11.2092    236.6814    248.9971   5.7326818258e+01  -4.9816761546e+00    0.4842055    0.2167591   7.69    0.0027041    2.561    0.610
        20  -9.3897     91.8119    250.5443   8.5042533734e+01   1.1039905966e+01    0.1890177    0.1102971  26.70  0.000361401    1.428    0.300
        21  -7.9788    160.5229    175.0775   5.9165904210e+01   1.5444389490e+01    0.1988341    0.1281603 -40.45 0.0008619652    1.519    0.342
        22  -9.4815    124.3030    140.6533   6.0744471850e+01   2.8924527210e+01    0.2782003    0.1882132 -62.06 0.0008623801    1.703    0.413
        23  -8.8714    116.5725    240.4685   7.8670451219e+01   9.7517897019e+00    0.2017131    0.1691266  21.06  0.000210257    1.034    0.033
        24 -10.1504    171.7683    236.9549   6.6895743277e+01   3.4755733855e+00    0.2877134    0.2073886  45.59  0.001586837    1.877    0.467
        25  -7.4616    136.2862    187.3391   6.6778326945e+01   1.6881476454e+01    0.1406777     0.101447 -12.71 0.0002760787    1.635    0.388
        26  -8.2418    157.3510    170.4866   5.8983145106e+01   1.6834634202e+01    0.2193085    0.1702535 -67.31 0.0006938169    1.759    0.432
        27  -7.4379     94.6352    115.7343   6.3411483537e+01   4.0388393741e+01    0.1564414    0.1234744  -4.12 0.0004511486    1.649    0.394
        28  -9.6921     29.4112    133.9630   8.9398910278e+01   4.5053430638e+01    0.2387049    0.2085936   8.04  0.001331776    1.300    0.231
        29 -10.8788    147.1382    111.9073   4.8295401080e+01   3.0563455701e+01    0.5027915    0.3027563 -47.29   0.00131294    1.615    0.381
        30  -9.3796    127.6600    108.0396   5.1976310147e+01   3.5482451417e+01    0.3593281    0.1406771 -45.38  0.001231843    2.495    0.599
        31  -9.4911    140.0211    102.5535   4.7484694022e+01   3.3973222811e+01    0.3349853    0.2749409 -84.06 0.0008198873    1.457    0.314
        32  -8.3994     42.3180    237.9262   9.4948910945e+01   1.8937423392e+01    0.1556773    0.1349804  56.98 0.0004138743    1.107    0.097
        33 -12.0565     51.3873    120.0368   7.9256950721e+01   4.6296798002e+01    0.8791434    0.5194239 -63.57 0.0003691893    1.618    0.382
        34  -9.1189    120.1214     93.8942   5.0035797683e+01   4.0116333599e+01    0.2393197    0.2133121 -74.49 0.0008095909    1.190    0.159
        35 -14.7615    243.6181    135.1098   3.6991290709e+01   9.3054838994e+00     1.948097    0.8596727 -37.43  0.009105599    1.780    0.438
        36  -8.1462    123.2388     85.2502   4.6676132701e+01   4.1188241451e+01    0.1988134    0.1724866 -82.92  0.000268146    1.262    0.208
        37  -9.2677    163.0977    230.1011   6.7629472241e+01   5.5689812035e+00    0.1731458    0.1435737  53.67 0.0009274982    1.751    0.429
        38  -8.1278     94.6631     71.9248   5.0568091734e+01   5.0283001400e+01     0.208536     0.186038 -45.55 0.0003127242    1.127    0.113
        39  -8.4324    227.4449    198.7955   5.1011090953e+01   2.2576956870e+00     0.193894    0.1429236  44.28  0.001264926    2.023    0.506
        40  -8.6894     73.9544    176.0920   8.1071222117e+01   2.8753578877e+01    0.1998993    0.1943653  38.98            0    1.064    0.060
        41 -10.6579    137.5063     49.9191   3.2344849614e+01   4.3967311373e+01    0.9160897     0.384274 -20.10  0.002701944    4.756    0.790
        42 -11.3003    139.7857     43.3997   2.9820308877e+01   4.4345711371e+01    0.7261758    0.5349675  38.80  0.002989239    1.623    0.384
        43  -9.2064    144.0354     50.0379   3.1192902394e+01   4.2352875023e+01    0.2148391      0.19623 -69.68 0.0005766416    1.026    0.025
        44 -10.9011    149.3190     49.3523   3.0074395170e+01   4.1168397454e+01    0.4403515    0.3223435  77.52  0.002285196    1.385    0.278
        45  -9.6630    130.6167    189.6993   6.8497010195e+01   1.7280619789e+01    0.3459579    0.2524377  58.55  0.001777526    1.760    0.432
        46  -8.5483    173.5875     45.2171   2.5327952526e+01   3.5986465212e+01    0.1769564    0.1285169 -22.61 0.0005240502    1.583    0.368
        47 -10.2714    133.9513     40.6434   2.9947803438e+01   4.6170536323e+01    0.7652014    0.3475549 -17.00  0.002549096    3.925    0.745
        48  -9.4620    167.3784     36.1038   2.3543118995e+01   3.8623855666e+01    0.2941453    0.2300514  15.32  0.001594474    1.836    0.455
        49  -7.9295    177.5731     34.4596   2.1901799622e+01   3.6451965352e+01     0.132759    0.1134749 -64.20 7.623673e-05    1.010    0.010
        50  -8.1125    144.1664     33.1538   2.5803230839e+01   4.4615435707e+01    0.1914635    0.1472066 -69.29 0.0002996299    1.275    0.216
        51  -8.6579    133.4538     31.8088   2.7053520600e+01   4.7447920221e+01    0.2301573    0.1555693  62.52 0.0006901778    1.404    0.288
        52  -8.4544    120.4907    202.1282   7.2818523196e+01   1.6299037591e+01     0.177787    0.1350166 -54.76 0.0005414012    1.479    0.324
        53  -8.9155    181.9217     29.6537   2.0152178321e+01   3.6036654880e+01     0.262423    0.1911871  -0.79  0.001411373    2.036    0.509
        54  -8.0252    146.0359     28.4903   2.4040718447e+01   4.4720068203e+01     0.189408   0.09665415  46.73 0.0007685827    2.319    0.569
        55  -9.8084    135.5043     22.2722   2.3499211426e+01   4.8052134700e+01    0.3124706    0.2241805 -10.22  0.001633828    1.773    0.436
        56  -9.1544    158.1262    225.1922   6.7929442697e+01   6.9759477414e+00    0.3006952    0.2121644  64.60  0.001553094    2.820    0.645
        57  -7.7013     43.7751    213.9774   9.2976442778e+01   2.3712235291e+01     0.152651     0.101921 -78.27 0.0005508487    1.599    0.375
        58 -11.3159    223.9939    243.9788   5.8627128394e+01  -3.1894824480e+00    0.2818038     0.218725  12.13  0.001308668    1.309    0.236
        59  -9.4604    165.1798    156.4850   5.4532865569e+01   1.8220002102e+01    0.2512596    0.1935076 -47.53 0.0006156275    1.337    0.252
        60  -8.6360     83.8219    152.1781   7.4460583452e+01   3.3189146315e+01    0.1993714    0.1732827 -25.94  0.000242873    1.294    0.227
        61  -8.2257    126.0344     14.5104   2.2175535567e+01   5.1244688807e+01    0.2109035     0.122554  73.41 0.0008448753    1.576    0.365
        62 -10.4179    182.0068    244.9954   6.6074904331e+01   1.1500587922e+00    0.2947182    0.1962225  40.29 0.0009154438    1.867    0.464
        63 -11.9514     67.9311    143.1719   7.7792070698e+01   3.7886378924e+01     4.691991     1.228886 -61.55   0.01389321    3.677    0.728
        64 -12.0591     44.1086    120.5890   8.2050497160e+01   4.7067637916e+01    0.7669549    0.5869038 -59.51  0.001016551    1.244    0.196
        65 -12.9775     60.1275    121.2023   7.6317335295e+01   4.4780622613e+01     1.248827     1.119636  79.64  0.003221421    1.143    0.125
        66  -9.1489    236.2538    187.6398   4.7731846571e+01   2.7577686492e+00    0.2095881    0.1740802 -17.75   0.00107023    1.188    0.158
