#   1 NUMBER                 Running object number                                     
#   2 MAG_AUTO               Kron-like elliptical aperture magnitude                    [mag]
#   3 X_IMAGE                Object position along x                                    [pixel]
#   4 Y_IMAGE                Object position along y                                    [pixel]
#   5 X_WORLD                Barycenter position along world x axis                     [deg]
#   6 Y_WORLD                Barycenter position along world y axis                     [deg]
#   7 A_WORLD                Profile RMS along major axis (world units)                 [deg]
#   8 B_WORLD                Profile RMS along minor axis (world units)                 [deg]
#   9 THETA_WORLD            Position angle (CCW/world-x)                               [deg]
#  10 FWHM_WORLD             FWHM assuming a gaussian core                              [deg]
#  11 ELONGATION             A_IMAGE/B_IMAGE                                           
#  12 ELLIPTICITY            1 - B_IMAGE/A_IMAGE                                       
         1 -13.4318    167.1633     57.4662   6.3734267364e+01   3.5860232329e+01     2.472683     1.475438  20.66  0.006881246    2.698    0.629
         2 -13.0390    181.2569     42.4349   5.6430266301e+01   3.4446687272e+01    0.8563858    0.8140293 -71.59  0.002649101    1.057    0.054
         3 -13.8041    202.6000     11.3748   4.4347838699e+01   3.2671331752e+01     1.146124     1.011146  -4.93  0.004586332    1.329    0.248
         4 -12.9525    228.7299      4.1849   3.9963528626e+01   2.6956243791e+01     1.959552     0.443455  73.80  0.006257051    4.358    0.771
         5 -11.1153    190.0240     14.8567   4.6814782402e+01   3.5531126903e+01      0.32085    0.2912495  83.90  0.001183139    1.027    0.026
         6 -10.4243     61.3906      2.4010   7.0061763403e+01   6.6623369424e+01    0.2514727   0.07748222  36.49 0.0009597846    3.407    0.707
         7  -9.8109     15.0441    213.9466   1.2944996781e+02   2.8403722802e+01    0.1208963    0.1075321 -83.44            0    1.490    0.329
         8 -11.0624    248.9034    249.8686   9.1921618026e+01  -1.0955681000e+01    0.2587138    0.1761465   4.21  0.001725098    1.279    0.218
         9 -18.6887     45.0001    238.1354   1.2588570760e+02   2.0786634609e+01     5.548428     4.552299  71.59   0.03944011    1.230    0.187
        10  99.0000     15.5967    200.3856   1.2858599237e+02   3.0952910961e+01    0.1052272   0.07929399  81.45 0.0001307121    1.083    0.076
        11  -9.8469    223.0192    198.2923   8.7621161858e+01  -8.8641077739e-01     0.178963    0.1472424  19.19 0.0004106433    1.031    0.030
        12 -12.5168     68.9475    193.0906   1.1778698014e+02   2.6320812259e+01    0.4696476     0.428069 -16.54  0.002100192    1.691    0.409
        13  -9.6547     22.9759    195.7737   1.2695437913e+02   3.1144741156e+01    0.1308534    0.0963788  79.13  0.000254439    1.004    0.004
        14 -10.4833     60.4474    189.4688   1.1913678610e+02   2.8184140299e+01    0.4318301    0.2014701 -67.90  0.002009392    2.002    0.501
        15  -9.5811    156.5150    189.8834   9.9074952715e+01   1.2616232619e+01    0.1872474    0.1371344 -49.25 0.0006224281    1.521    0.343
        16 -11.2750    150.2570    188.0482   1.0006375600e+02   1.4113978496e+01    0.2948875    0.2379362  77.31  0.001506081    1.468    0.319
        17 -10.3292    242.3763    185.1691   8.1648073747e+01  -2.3869261256e+00    0.1723632    0.1129353 -37.35 0.0006268548    1.681    0.405
        18 -10.9310    151.7073    181.2988   9.8584160959e+01   1.5116592037e+01    0.3554888    0.2392429 -73.14  0.001056926    2.144    0.534
        19 -11.2681    145.4806    181.5264   9.9952216849e+01   1.6240918691e+01    0.3020638    0.2710179 -85.59  0.001049121    1.219    0.180
        20 -12.1526    141.6416    175.7057   9.9755786376e+01   1.8102368917e+01    0.5443332    0.3668531  71.04  0.002543569    1.970    0.492
        21 -10.8495      1.2623    177.3763   1.2985213719e+02   3.6852517970e+01    0.1272552     0.071477 -86.36  0.000651365    1.346    0.257
        22  -8.9878    194.4818    172.5146   8.8035386376e+01   8.3992173053e+00    0.1416541    0.1290483  19.47 7.594989e-06    1.009    0.009
        23 -11.0790    188.6160    176.3528   8.9982648040e+01   8.8868334258e+00    0.6582077    0.4003292 -56.60  0.002147367    2.329    0.571
        24  -9.5031    116.9318    161.8845   1.0285506055e+02   2.5526250448e+01    0.2715765    0.1790967  48.14  0.001336733    1.463    0.317
        25 -11.1085     96.3188    156.3382   1.0675395035e+02   3.0265589598e+01    0.2613965    0.2386703  65.14 0.0003116996    1.082    0.076
        26 -12.1747    101.0474    150.1501   1.0453330852e+02   3.0889725585e+01     0.622893    0.4505376 -37.51  0.003140115    1.691    0.409
        27 -12.8713     15.7838    206.4093   1.2890519052e+02   2.9764031815e+01     0.222014    0.1750928  87.79 0.0008729788    1.211    0.174
        28 -10.0604    113.4673    151.7383   1.0181432843e+02   2.8381577850e+01     0.383128    0.2387232  86.03  0.001539336    2.601    0.616
        29 -11.1411    133.8050    145.3066   9.5638135020e+01   2.5977547796e+01      1.18909    0.3056711 -54.74  0.002895685    5.765    0.827
        30  -9.8855    174.9048    149.1447   8.7117504802e+01   1.6690488012e+01    0.2275159    0.2076271  80.66 0.0006537929    1.271    0.213
        31 -13.1405     11.3499    205.5225   1.2962410737e+02   3.0358563361e+01    0.3272253    0.2579224  58.05  0.001802575    1.314    0.239
        32 -10.4049    160.2538    205.5889   1.0090431699e+02   9.1797780946e+00    0.1891506    0.1120765  34.69  0.000737286    1.604    0.377
        33 -11.3621    110.6022    137.0205   9.9608615899e+01   3.2226108912e+01    0.5410069    0.3252302 -37.79  0.002337363    2.005    0.501
        34  -8.9648    128.2865    139.6459   9.5761203484e+01   2.8305322939e+01    0.1532063    0.1164295  89.60 0.0003591872    1.669    0.401
        35 -11.7965     99.8731    136.0689   1.0215190533e+02   3.4323539132e+01    0.2638844    0.2573454 -57.36 0.0003132022    1.113    0.102
        36 -11.2869    105.8926    130.7707   9.9501041828e+01   3.4505244016e+01    0.4027344    0.3284834 -69.25  0.001250279    1.222    0.181
        37 -11.3562    193.5719    196.0255   9.2731278297e+01   4.6989400932e+00     1.075088    0.5648475 -61.30  0.003621577    5.179    0.807
        38 -10.6980    117.0712    128.2742   9.6060344932e+01   3.3024307561e+01    0.3043356    0.2605762  -0.76 0.0008278013    1.463    0.317
        39  -9.9779    160.8181    127.6819   8.5223435378e+01   2.4062365946e+01     0.354821    0.2761648 -76.94  0.001619468    1.692    0.409
        40 -10.5527    105.0820    123.9310   9.8218195512e+01   3.6230235435e+01    0.2891793    0.2504941 -20.90 0.0006354114    1.367    0.268
        41  -9.5673    135.0000    120.0036   8.9524769798e+01   3.1289067319e+01    0.2604046   0.08662617 -46.01 0.0008043011    2.955    0.662
        42  -9.6594    111.9215    117.9308   9.5003442582e+01   3.6356464771e+01    0.2191255    0.2143161 -74.78 0.0004364553    1.031    0.030
        43  -9.8385    231.2582    113.8439   6.7679667698e+01   1.0800431734e+01    0.2583428    0.2108215  38.71 0.0007835637    1.292    0.226
        44 -10.1340    168.0837    112.9638   7.9811603938e+01   2.5416199181e+01    0.3924744    0.2998178 -74.01  0.001263713    1.749    0.428
        45 -10.3875    134.5695    105.2658   8.5796282978e+01   3.4586648594e+01    0.4627984    0.1479204 -44.07  0.001412075    3.049    0.672
        46  -9.4438    187.0607    186.8037   9.2309447434e+01   7.4073903629e+00    0.2062228    0.1800356  59.62  0.001198644    1.324    0.245
        47 -11.2987    119.1297    109.6036   9.0999705086e+01   3.6844231297e+01    0.5428657    0.3784041  46.43  0.002524548    1.495    0.331
        48  -9.8450    205.2607    110.1579   7.1385284968e+01   1.7264190626e+01    0.3178386    0.2302488  48.12  0.000895428    1.425    0.298
        49  -9.5107     77.0109    104.3376   1.0161048067e+02   4.5392176519e+01    0.1887079    0.1804271 -69.44  0.000490633    1.074    0.069
        50 -10.3852     64.6695     98.8308   1.0405242708e+02   4.8394068865e+01    0.3456545    0.2657514 -86.01  0.001215749    1.504    0.335
        51 -11.2654    203.7296    200.2018   9.1545078640e+01   2.2248759593e+00    0.4970849    0.1728409  34.32  0.001817295    3.132    0.681
        52  -9.6174    128.0496     95.2712   8.4706795331e+01   3.8127720946e+01    0.2188398    0.2066357  36.58  0.001041909    1.092    0.084
        53  -8.9530    151.3665     82.2555   7.4961066789e+01   3.5441333862e+01    0.1617587    0.1208454  20.74 0.0006541073    1.633    0.387
        54 -10.1698     79.2214     75.2130   9.3160919454e+01   5.1614571112e+01    0.2276733    0.2229182  17.19 0.0004139586    1.143    0.125
        55  -9.1639    167.7481    248.4813   1.0559095971e+02   1.4576858073e+00    0.1657934    0.1025898 -44.73 0.0007976838    2.080    0.519
        56 -19.1410     32.9927    101.2516   1.1418237965e+02   5.1295608005e+01     16.88471    0.7462437 -64.98   0.02649487   17.049    0.941
        57 -12.5066    186.3674     35.4324   5.3471225607e+01   3.4054729205e+01    0.6091377    0.4918468  37.80  0.001422456    1.338    0.252
        58  -9.6508     13.5875     60.0035   1.1243165382e+02   6.2044257561e+01    0.1677527    0.1523378 -66.52 0.0004973896    1.224    0.183
        59 -10.4578    250.0449    237.6900   8.9803306371e+01  -9.8937681170e+00     0.168785    0.1181572  19.86  0.001170351    1.074    0.069
        60 -10.4679    167.1879    226.8326   1.0276913887e+02   4.6022558286e+00    0.2795592    0.1749882 -46.74  0.001399732    1.953    0.488
        61 -11.5350     81.6520    195.8864   1.1551391215e+02   2.3984792878e+01    0.3870601    0.3160899 -50.26  0.001022447    1.558    0.358
