#   1 NUMBER                 Running object number                                     
#   2 MAG_AUTO               Kron-like elliptical aperture magnitude                    [mag]
#   3 X_IMAGE                Object position along x                                    [pixel]
#   4 Y_IMAGE                Object position along y                                    [pixel]
#   5 X_WORLD                Barycenter position along world x axis                     [deg]
#   6 Y_WORLD                Barycenter position along world y axis                     [deg]
#   7 A_WORLD                Profile RMS along major axis (world units)                 [deg]
#   8 B_WORLD                Profile RMS along minor axis (world units)                 [deg]
#   9 THETA_WORLD            Position angle (CCW/world-x)                               [deg]
#  10 FWHM_WORLD             FWHM assuming a gaussian core                              [deg]
#  11 ELONGATION             A_IMAGE/B_IMAGE                                           
#  12 ELLIPTICITY            1 - B_IMAGE/A_IMAGE                                       
         1 -13.6119    220.5000      7.9924   3.5886917602e+01   2.9668182510e+01     1.232599    0.9794838  53.60  0.004185686    1.458    0.314
         2 -14.2069    194.3071     38.7748   4.6564089617e+01   3.2276706693e+01     2.157094     1.422368  14.97   0.00965682    2.455    0.593
         3 -10.2473     80.4064     15.2269   6.2389130849e+01   6.1827571540e+01    0.2312697    0.1973545  52.44 0.0008032023    1.359    0.264
         4  -9.6115    189.7929     14.8759   4.0653667323e+01   3.6191738024e+01    0.1955433    0.1758948  54.22 0.0007664866    1.197    0.165
         5 -10.0463     70.0075      2.0041   5.9615805740e+01   6.5156685913e+01    0.1574363    0.1268656  20.79  0.001020845    1.005    0.005
         6  -9.4381     58.3855    228.4079   1.1802909613e+02   1.9702717112e+01     0.116208   0.09302172  68.10 0.0001392243    1.011    0.011
         7 -11.9908    248.1407    247.3365   8.3937532742e+01  -1.0921542859e+01     0.615181    0.4089912  -5.57   0.00420345    1.279    0.218
         8  -9.3364     56.7038    209.6631   1.1673053713e+02   2.3719793597e+01    0.3117623    0.1415358 -85.89  0.001139719    2.642    0.622
         9  -9.8115     28.9106    209.6924   1.2234842913e+02   2.6861077219e+01    0.1523236    0.1051366  57.67  0.000440074    1.238    0.192
        10  -8.7161     42.5497    209.0152   1.1957579737e+02   2.5527069141e+01    0.1576781   0.09898796  89.15 -1.896902e-05    1.447    0.309
        11 -10.9094     65.9834    206.9892   1.1452376657e+02   2.3112743194e+01    0.2056797    0.1735168  85.49   0.00033408    1.083    0.077
        12 -10.7855     64.8258    203.5799   1.1442100032e+02   2.3991464703e+01    0.2139487    0.1624489 -88.88  0.001316896    1.221    0.181
        13 -12.2140     31.3357    205.9849   1.2160062390e+02   2.7386921439e+01    0.3279174    0.1443105  52.10  0.001405209    1.992    0.498
        14  -8.8581     93.4335    205.6773   1.0844287264e+02   1.9568455321e+01    0.2269511    0.1759329  -4.76   0.00078384    2.010    0.503
        15  -9.0147     96.4467    201.9504   1.0730073420e+02   1.9904323201e+01    0.1928768    0.1271772 -64.61 0.0009362123    1.578    0.366
        16 -10.9809    193.0637    195.0171   8.5063213905e+01   4.8144583394e+00    0.8436666    0.4400275 -60.38  0.002848413    4.625    0.784
        17 -11.3058     52.9547    200.4923   1.1665774340e+02   2.6138644359e+01    0.2376148    0.1778113  61.91 0.0005855935    1.172    0.147
        18 -12.3994     54.8375    196.8704   1.1589822846e+02   2.6703464351e+01    0.4952471    0.2710796 -48.28  0.001740348    2.341    0.573
        19  -9.3600     38.3000    199.1199   1.1963403094e+02   2.8114562951e+01    0.1523125    0.1147071  77.67 0.0002099621    1.100    0.091
        20 -11.8633    127.1957    192.1943   9.8910545953e+01   1.7005615229e+01    0.4345285    0.2980557 -76.80  0.002100546    1.909    0.476
        21  -9.0178     81.6638    194.2987   1.0963983880e+02   2.3733894350e+01    0.2704172    0.1693224  66.69  0.001365147    1.729    0.422
        22 -11.0726    149.5550    187.9582   9.3102425209e+01   1.3941076189e+01    0.4864897    0.3395759 -75.82  0.002248888    2.132    0.531
        23 -11.3780     74.4797    189.1322   1.1063604041e+02   2.5890438087e+01    0.4097793    0.2278801  68.01   0.00137954    2.164    0.538
        24 -10.0905     61.1555    187.6019   1.1350651168e+02   2.7992007112e+01    0.2061637    0.1764887  52.88 0.0004924907    1.169    0.144
        25 -12.3262     66.1328    183.3223   1.1185703982e+02   2.8329321208e+01    0.7167241    0.6394712 -45.61  0.002536187    1.354    0.262
        26 -11.3275    142.0047    200.5028   9.6942095717e+01   1.2766772747e+01     0.317219    0.2475049 -64.42  0.001737369    1.495    0.331
        27  -9.9326     39.8215    223.5893   1.2122217728e+02   2.2847731701e+01    0.1587335    0.1312996  49.65 0.0007143368    1.269    0.212
        28  -9.5077     93.2337    185.8419   1.0582844198e+02   2.3915855061e+01    0.2817493    0.1817277  45.59  0.001163434    1.470    0.320
        29 -10.9945     98.9561    181.1398   1.0377189518e+02   2.4090805384e+01    0.4116355    0.3184349  -4.21  0.001888682    1.897    0.473
        30 -10.7889    115.1388    182.6776   1.0015908129e+02   2.1105036660e+01    0.2482726    0.1943673 -73.75  0.001313735    1.387    0.279
        31 -10.8826    143.3479    179.3032   9.2936143464e+01   1.6858297090e+01    0.2998281    0.2320539 -44.89  0.001037289    1.347    0.258
        32 -10.0901    187.9753    176.4355   8.2465771500e+01   9.0855115471e+00    0.3439378    0.3131137  39.25  0.001401432    1.178    0.151
        33  -9.5533    149.0902    176.7864   9.1132205205e+01   1.6326477676e+01    0.2355796    0.2078206 -48.69 0.0004288837    1.186    0.157
        34  -8.2282     59.1323    220.2086   1.1718564057e+02   2.1241624438e+01    0.3248852    0.1916369  33.25  0.001659476    1.802    0.445
        35  -9.5133    233.6720    175.3265   7.3308856698e+01   1.1285798281e+00    0.1233795    0.1090695 -66.73 0.0003511673    1.701    0.412
        36  -9.8485     55.9545    174.7143   1.1322398936e+02   3.1608558630e+01    0.3059485    0.1839767  55.70  0.001282534    1.659    0.397
        37  -9.4433     84.0440    173.5385   1.0624258478e+02   2.8118223328e+01    0.2051563    0.1726588 -72.36 0.0003180484    1.138    0.121
        38  -9.9113     46.2585    173.0894   1.1534597006e+02   3.3120241256e+01    0.3297444    0.2487382  12.23   0.00157568    1.851    0.460
        39  -8.9003    194.0258    171.4915   8.0181812502e+01   8.8735654734e+00    0.2155409    0.1372604  37.52 0.0007082884    1.549    0.354
        40  -9.6622    185.6032    169.7879   8.1591701876e+01   1.0792774533e+01    0.2530756     0.184063 -46.12  0.000823514    1.458    0.314
        41 -10.4067    138.2133    169.6802   9.2316110248e+01   1.9873901874e+01    0.3568688    0.2589704  41.74  0.001429144    1.341    0.254
        42  -9.2089    240.2911    169.3315   7.0895960772e+01   9.8694801725e-01    0.1390803   0.09345479  -4.01 0.0002929803    1.629    0.386
        43  -9.0765    187.7283    162.5952   7.9607614960e+01   1.1766947327e+01    0.2562706    0.1834003 -59.65  0.001188303    1.829    0.453
        44 -11.6254     94.5584    151.1453   9.9813472372e+01   3.1845534203e+01    0.6928495    0.5560392 -34.19   0.00233148    1.424    0.298
        45 -10.7530    133.8387    145.3501   8.8342434270e+01   2.6165115043e+01     1.187133    0.3059168 -54.16  0.002842955    5.449    0.816
        46  -9.6731    187.1591    151.8252   7.7346153542e+01   1.3981537411e+01     0.215387    0.1744113  -3.46  0.001075206    1.344    0.256
        47  99.0000     53.2779    220.8382   1.1840158888e+02   2.1832634575e+01    0.3423264    0.1173884  54.63  0.001473315    2.860    0.650
        48  -9.2048    174.8722    149.1771   7.9418770425e+01   1.7016153269e+01    0.2275999    0.2113444 -88.18 0.0006625082    1.282    0.220
        49  99.0000     48.7150    217.5158   1.1903135060e+02   2.3051805645e+01    0.2426764    0.1710448  25.02  0.001037505    1.840    0.456
        50 -10.7511    106.3498    137.4680   9.3871538824e+01   3.3158415438e+01    0.5428056    0.3383643 -34.12  0.002291345    1.945    0.486
        51 -10.5863    105.8760    130.7786   9.2524285987e+01   3.4847942048e+01    0.4230474    0.3363873 -65.32  0.001332107    1.299    0.230
        52 -11.6707     94.5009    137.2330   9.7101222901e+01   3.5234183312e+01    0.2934629    0.2546557 -39.18 0.0003911686    1.195    0.163
        53 -10.1042    135.6698    128.9124   8.4040249102e+01   2.9545618660e+01    0.5249728    0.1443739 -48.26  0.001464375    3.655    0.726
        54 -10.4586    114.1475    128.9647   8.9810414561e+01   3.3767386960e+01    0.3617385    0.2896683 -25.72 0.0008312157    1.411    0.291
        55  -9.1790    160.4581    127.7361   7.7607363519e+01   2.4558059481e+01    0.3144775    0.1492845 -47.95  0.001140542    2.165    0.538
        56 -10.3212    101.5933    124.7163   9.2346233157e+01   3.7060446961e+01     0.283724    0.2438238 -21.00  0.000544715    1.295    0.228
        57 -10.6645    120.0509    122.8856   8.6721961230e+01   3.4062937280e+01    0.4480268    0.3133876 -16.31  0.001875889    2.008    0.502
        58  -9.3700    109.6860    118.1360   8.8444411825e+01   3.7156270706e+01    0.2318868     0.207329  55.31 0.0003066376    1.200    0.167
        59 -10.0036    231.2622    113.8175   6.0075476403e+01   1.2010411916e+01    0.2777874    0.2510945 -15.50 0.0007325205    1.095    0.087
        60  -9.2862    167.8320    112.7252   7.2037798858e+01   2.6061235089e+01    0.3094651      0.20386 -64.56  0.001229708    2.120    0.528
        61 -11.3243    118.4352    109.9951   8.3861209007e+01   3.7346764746e+01    0.5751561    0.4280404  69.89  0.002559723    1.800    0.444
        62  -9.7852    134.5619    105.2828   7.8172955256e+01   3.5038291682e+01    0.4833423    0.1509333 -44.97  0.001439777    3.142    0.682
        63  -9.3639    205.2873    110.0471   6.3654886715e+01   1.8165970613e+01    0.2461885    0.2190217  45.10 0.0006520086    1.199    0.166
        64  -9.9144     65.1409    100.1164   9.7735126675e+01   4.8643481798e+01    0.3177559     0.210092  30.50  0.001062433    1.681    0.405
        65 -10.9799     62.9089    250.4528   1.1890717111e+02   1.5026028252e+01    0.2314636    0.1062235  45.08  0.001318932    1.709    0.415
        66  -9.2597     66.4019     70.9048   8.9197142190e+01   5.5065337112e+01    0.2027989     0.189175  22.83 0.0003738001    1.199    0.166
        67  -9.0705    167.6693    231.6797   9.6435379720e+01   2.9168116646e+00    0.2322057    0.1704027  14.90 0.0008201252    1.414    0.293
        68 -12.1242     48.9921    248.3448   1.2124197278e+02   1.7091006478e+01     0.186507    0.1336295  89.10 0.0006170111    1.307    0.235
        69 -12.7872    178.8507     52.8879   5.2927246269e+01   3.4120995502e+01     0.724381    0.6644304  -3.92   0.00087071    1.213    0.176
        70 -10.5616     71.8730    245.5355   1.1688447246e+02   1.4765839662e+01    0.3377334    0.1588506 -71.01  0.001852141    2.326    0.570
        71 -19.5086     14.8603    145.5838   1.2014241134e+02   4.2617780210e+01     19.27761     4.570634 -76.36   0.06523543    3.966    0.748
        72  -9.7025    184.5038    212.0492   8.9882993451e+01   3.3785596898e+00    0.1896397    0.1296985 -38.77  0.001029781    1.581    0.367
        73 -10.5816    163.7049    211.9331   9.4152121118e+01   6.9045745945e+00    0.2723137    0.2129606  22.28  0.001559831    1.227    0.185
