#   1 NUMBER                 Running object number                                     
#   2 MAG_AUTO               Kron-like elliptical aperture magnitude                    [mag]
#   3 X_IMAGE                Object position along x                                    [pixel]
#   4 Y_IMAGE                Object position along y                                    [pixel]
#   5 X_WORLD                Barycenter position along world x axis                     [deg]
#   6 Y_WORLD                Barycenter position along world y axis                     [deg]
#   7 A_WORLD                Profile RMS along major axis (world units)                 [deg]
#   8 B_WORLD                Profile RMS along minor axis (world units)                 [deg]
#   9 THETA_WORLD            Position angle (CCW/world-x)                               [deg]
#  10 FWHM_WORLD             FWHM assuming a gaussian core                              [deg]
#  11 ELONGATION             A_IMAGE/B_IMAGE                                           
#  12 ELLIPTICITY            1 - B_IMAGE/A_IMAGE                                       
         1 -13.2194    119.4802     39.0691   3.6340316223e+01   4.8920754527e+01      1.71264    0.5745476 -33.00  0.006721823    3.384    0.705
         2 -12.2293    104.8271     13.0125   3.1076243988e+01   5.5061995914e+01    0.4222344    0.3515055 -44.26  0.002180803    1.394    0.282
         3 -12.1943    105.8497     20.8183   3.3388034004e+01   5.4083060034e+01      0.31846    0.2806184 -74.55 0.0006809786    1.213    0.175
         4 -12.2554    160.0651     29.8103   2.7615531241e+01   4.0967357921e+01    0.3729035    0.2527553 -37.07 0.0004953262    1.616    0.381
         5 -11.8148     26.4944     28.1550   6.3795430253e+01   6.9134291825e+01    0.4747283    0.3190635 -33.66  0.001555144    1.588    0.370
         6 -12.0189     20.1815     22.1474   6.4635126567e+01   7.0906293516e+01    0.5214357    0.3279543 -23.34  0.001979157    1.655    0.396
         7 -11.4356    135.8080     22.4628   2.8902414767e+01   4.7117536760e+01    0.5327362    0.2726553  63.39  0.002041698    1.669    0.401
         8 -11.2253    134.8146     14.8907   2.6995458154e+01   4.8098993802e+01    0.5665258    0.2282425  63.84  0.002765552    2.031    0.508
         9 -10.4795    127.2857     16.2035   2.8396685754e+01   4.9666091061e+01    0.2609695    0.1785833  53.40 0.0009041244    1.448    0.309
        10 -10.9437    178.8284     20.8578   2.3601832010e+01   3.8015549820e+01     0.414387    0.2173348  44.98  0.002090814    3.093    0.677
        11 -11.9435     48.2162     12.9694   4.6365284593e+01   6.7290623788e+01    0.7328593    0.2569339  52.01  0.003193987    2.419    0.587
        12 -11.8365     35.5552     18.2165   5.4409527020e+01   6.9031232140e+01     0.532303    0.2797039 -25.59  0.002070032    2.226    0.551
        13 -12.8134    164.2195     18.5538   2.4501219632e+01   4.1303576537e+01    0.4049175    0.2530459  47.26  0.001295582    2.082    0.520
        14 -11.4926     68.2728     18.4111   4.1735199211e+01   6.2654011859e+01     0.394064    0.3584958  30.35  0.001888386    1.139    0.122
        15 -11.3531    122.3789      5.5811   2.6066166636e+01   5.1729617087e+01    0.2836176    0.2129472 -33.59  0.001882723    1.588    0.370
        16 -10.3111    127.3311     11.6722   2.7117370287e+01   5.0081185063e+01    0.3417268    0.1806685 -77.17  0.001691502    2.291    0.563
        17 -11.0042      6.3471     10.1494   6.7563201633e+01   7.4363892208e+01    0.5700779    0.3251348  22.57   0.00314976    1.453    0.312
        18 -10.1655     12.2156      7.8763   6.2294336117e+01   7.3914173484e+01    0.3348724    0.2582625 -67.15  0.001910473    3.082    0.676
        19 -12.0355     16.2507     14.1097   6.3039301414e+01   7.2558472159e+01     0.638728    0.3648801  -3.74   0.00334645    2.206    0.547
        20 -11.7119     22.6210     11.2749   5.7738326485e+01   7.1983212832e+01    0.4511398    0.2591501  20.23  0.002113017    1.705    0.413
        21 -12.1025    228.6862     15.9498   1.9000614366e+01   2.9156605146e+01    0.3239115     0.173714  68.18  0.001215225    1.996    0.499
        22 -11.6148     85.9526     13.7821   3.5217453758e+01   5.9248213797e+01    0.4553408    0.3974046 -61.26  0.001996213    1.350    0.259
        23 -10.5150     87.7116      7.6524   3.2615703924e+01   5.9390117405e+01    0.5582992    0.2406939  67.12  0.002676102    1.993    0.498
        24 -11.1810    192.2265      9.1005   2.0066551179e+01   3.6553499780e+01    0.4188272    0.2775989  -4.57  0.002393076    3.309    0.698
        25 -10.9324    218.4927      3.8798   1.7456697953e+01   3.2177827534e+01    0.2438635    0.1554146  78.85 0.0007702482    1.494    0.331
        26 -11.6608    224.2043      2.6418   1.6942166226e+01   3.1296239304e+01    0.3167785    0.1584257  81.64 0.0003407061    1.798    0.444
        27 -10.8581    211.2356     11.1763   1.9197649184e+01   3.2751386846e+01    0.2283419    0.2081331  82.97  0.001334311    1.449    0.310
        28 -11.2872    213.4043      5.7894   1.8081593875e+01   3.2901207304e+01    0.2215149    0.2166358 -31.82  0.001928686    1.632    0.387
        29 -10.4084    121.2034     11.8623   2.8044296722e+01   5.1447823536e+01    0.3101752    0.1462512  71.18 0.0009685207    1.789    0.441
        30 -11.0201    170.0039      9.3230   2.1859885417e+01   4.1010139767e+01    0.2901014    0.1529636  63.63  0.001717928    1.801    0.445
        31 -10.1159    145.0955      9.9069   2.4448058055e+01   4.6287342331e+01    0.1731494    0.1404196  76.70 0.0004261807    1.118    0.105
        32 -11.3443    225.5942     13.8011   1.8805650116e+01   2.9918180121e+01    0.2677859    0.1429465 -45.22 0.0009446635    1.578    0.366
        33 -10.1857      1.0000      8.2454   7.0472356255e+01   7.5230362561e+01    0.3379553    0.1006223 -42.16  0.001508648    3.421    0.708
        34 -10.8923      2.5583      1.8808   6.5676215135e+01   7.5901736781e+01    0.3648153    0.1871606  16.88  0.002055283    1.802    0.445
        35 -12.0544    247.1230      5.8822   1.6386357561e+01   2.7154931071e+01    0.3326973    0.1997685 -39.18  0.002537861    1.707    0.414
        36 -11.4809    244.0000      2.7136   1.6020151670e+01   2.7973899816e+01    0.3487019    0.1951797  58.33  0.002437077    2.630    0.620
        37 -10.7881    232.5052      7.4958   1.7348308293e+01   2.9388243476e+01    0.1870904    0.1174143 -67.35 0.0008936031    1.154    0.133
        38 -12.3709    234.3627      3.4253   1.6576406011e+01   2.9485882837e+01    0.6015207     0.205071 -70.32  0.002515104    2.938    0.660
        39 -10.1263     62.1288      7.7666   3.9197786805e+01   6.4959272118e+01    0.2052898    0.1681043  11.71 0.0006682057    1.370    0.270
        40 -10.7999    185.2293      7.2943   2.0207031383e+01   3.8108537182e+01    0.1966746    0.1381464  89.95 0.0006649388    1.164    0.141
        41  -9.5340     78.0126      7.5089   3.4763950987e+01   6.1556257001e+01    0.1898158    0.1018259  63.33 0.0005639296    1.544    0.352
        42 -11.0058     74.4549      3.5145   3.4078448433e+01   6.2658532990e+01    0.4929972    0.2310095  61.87  0.002557035    1.698    0.411
        43 -10.2411    176.6203      5.8201   2.0551268925e+01   3.9982502865e+01    0.3115521    0.1235607  83.13  0.001103959    2.332    0.571
        44  -9.9806    163.4306      5.8815   2.1660178814e+01   4.2710099266e+01     0.223451    0.1462636  49.15 0.0007678702    1.942    0.485
        45 -10.2277     41.6383      4.0923   4.4743960717e+01   6.9411349822e+01    0.2569228    0.1352195  30.81 0.0005888615    1.880    0.468
        46 -11.1446    205.9493      2.8313   1.7970050826e+01   3.4557471060e+01    0.3430619    0.2004868 -89.13  0.002392424    1.422    0.297
        47 -11.5603    133.9445      2.6710   2.3826910109e+01   4.9384634260e+01    0.3519527    0.2282824  79.72  0.002223851    1.252    0.201
        48  -9.3901    128.7780      1.3673   2.4075827696e+01   5.0640533509e+01    0.1831028   0.09654117  76.70 0.0006951758    1.558    0.358
        49  -9.5918     25.8364      3.6434   5.1856909013e+01   7.2308097625e+01     0.157468    0.1216024  32.38 0.0001076254    1.083    0.077
        50 -10.6187     22.1012      2.9907   5.3523403641e+01   7.2993195778e+01    0.2099525    0.1333244  33.08 0.0004833461    1.234    0.190
        51 -10.9918    113.5347      2.4109   2.6365079489e+01   5.3981566447e+01    0.3188319    0.1872245  76.63  0.001545864    1.422    0.297
        52 -10.9084    105.2815      2.1051   2.7513393386e+01   5.5870375790e+01    0.2995504    0.1929006  90.00  0.001469056    1.532    0.347
        53 -10.1812    141.4879      3.2210   2.3140634445e+01   4.7672856638e+01    0.2323901    0.1373839  76.63  0.001409631    1.377    0.274
        54  -9.9157    152.6669      1.3777   2.1578449002e+01   4.5401361652e+01    0.2070795   0.09107768  80.10 0.0006841371    1.942    0.485
        55 -11.3016     29.9400    133.1246   9.1715798174e+01   4.5415008224e+01    0.4242632    0.2857917 -29.70 0.0008007592    1.583    0.368
        56  -9.5890    188.4350    250.2414   6.7399969803e+01  -2.4655503933e+00    0.1535732    0.1099104 -45.78 0.0009543264    1.669    0.401
        57  -9.6628     47.4639    135.0091   8.5522207754e+01   4.2980098000e+01    0.2360045    0.1466331 -61.41 0.0009192565    1.573    0.364
        58 -10.2133     72.7190    133.8100   7.6293387138e+01   3.9760521026e+01    0.2628666    0.1904409 -36.37  0.001172947    1.437    0.304
        59 -10.0177     39.4114    133.4415   8.8215585268e+01   4.4343384878e+01    0.2566671    0.1504032  13.82 0.0006260742    1.866    0.464
        60 -10.1676    103.8870    131.1604   6.5696146262e+01   3.5073634714e+01    0.2290616    0.2205292 -14.29 0.0009046201    1.026    0.026
        61  -9.0204    142.7036    152.6790   6.0103295366e+01   2.3025316471e+01     0.151922    0.1128217 -15.45 0.0003584825    1.617    0.382
        62  -9.7710     93.1554    129.8575   6.8674838450e+01   3.7329887942e+01    0.2439656    0.2213311  74.18  0.001239321    1.252    0.201
        63 -10.7129     66.6320    149.2548   8.1476246612e+01   3.6620488213e+01    0.4204819     0.241295   6.10  0.001293311    2.406    0.584
        64 -10.9556     10.9762    126.5863   9.7984731509e+01   4.8743049004e+01    0.3839268    0.2163459 -64.54  0.001110226    1.585    0.369
        65 -10.3120     26.9769    126.4042   9.1737597338e+01   4.7506989861e+01    0.3973931    0.1589188 -55.72 0.0009079893    2.160    0.537
        66  -9.3045     22.7213    127.0406   9.3495805388e+01   4.7717515368e+01    0.2029932    0.1727877 -60.97  0.000441569    1.112    0.100
        67  -9.8823      1.9954    125.9816   1.0136683184e+02   4.9451517107e+01    0.2288848    0.1549993  61.11  0.001129164    1.711    0.416
        68  -9.9004     83.1598    124.6439   7.0689875557e+01   4.0356084100e+01    0.4086279    0.2229727 -10.49  0.001023221    5.692    0.824
        69 -11.4146     12.4982    136.0978   9.8670566099e+01   4.6067896599e+01    0.6066377    0.3128244 -48.49  0.002650153    1.792    0.442
        70 -12.1753    103.8360    122.4153   6.3630049767e+01   3.7139883449e+01    0.3701243    0.3445845  44.47  0.001957071    1.091    0.083
        71  -9.4372     78.5018    123.4471   7.1977571975e+01   4.1442803241e+01    0.1538054    0.1500269   8.15 0.0008081685    1.025    0.024
        72 -10.7223     49.5376    123.1388   8.2400487237e+01   4.5859171008e+01    0.3607831    0.2146461  15.48  0.001513881    1.848    0.459
        73  -9.5117     56.5014    122.4735   7.9631629535e+01   4.5092060534e+01    0.1515847    0.1475299 -12.85 0.0003904152    1.031    0.030
        74  -9.6071     13.0162    122.4926   9.6603796926e+01   4.9698575181e+01    0.2043914    0.1414362   8.12 0.0007296032    1.540    0.351
        75 -10.2479     48.9198    112.3375   8.0281823166e+01   4.8715765809e+01    0.4248445    0.2677841 -40.66   0.00189688    1.582    0.368
        76 -10.4515     44.8292    119.8526   8.3527457184e+01   4.7310910466e+01    0.2969415    0.2456036 -81.61 0.0007357125    1.384    0.278
        77 -10.3616     43.5433    116.4845   8.3323177628e+01   4.8342037010e+01    0.3076321    0.2500426  -2.24 0.0007638787    1.271    0.213
        78 -12.4877      2.6068    111.6438   9.9259105043e+01   5.3214049116e+01    0.6387309    0.4122655  73.34 0.0006860455    1.925    0.481
        79 -11.4881      4.9526    105.2477   9.7314497062e+01   5.4745466079e+01    0.4807891    0.3511139   8.64  0.002591137    1.438    0.305
        80 -10.0123     79.0319    114.6582   6.9667561567e+01   4.3495338583e+01    0.2949844    0.2245776 -42.22 0.0008771057    1.319    0.242
        81  -9.6510     58.1393    114.9750   7.7319418169e+01   4.6765334790e+01    0.2539875    0.1814158  81.46  0.001083293    2.078    0.519
        82 -10.4636     35.2600    103.2331   8.3815895974e+01   5.2687242066e+01    0.7306442    0.3377429   7.64  0.002535921    2.939    0.660
        83 -11.6325     25.6573    106.8767   8.8688741285e+01   5.2759153536e+01    0.8359405    0.4538008 -38.63  0.003406062    1.816    0.449
        84 -11.4347     21.6374    114.4952   9.1816514898e+01   5.1144692335e+01    0.5684004    0.2769956   4.50  0.002086295    2.444    0.591
        85 -11.1037     28.2653    113.1913   8.8837472762e+01   5.0878663298e+01    0.3561948    0.2818407 -15.63 0.0006495443    1.282    0.220
        86  -9.2353     86.3132    113.6818   6.6962886697e+01   4.2435818481e+01     0.155048    0.1228319  74.09 0.0004564488    1.647    0.393
        87  -9.7609    107.4998    112.5047   6.0087370470e+01   3.8679294046e+01    0.1498499    0.1485141  29.68  0.000810646    1.013    0.013
        88  -9.6396     93.6625    112.3672   6.4247453223e+01   4.1381774123e+01     0.237471      0.18723  76.18 0.0009125958    1.668    0.400
        89 -10.2957     67.1899    110.1457   7.2761392110e+01   4.6565694422e+01    0.3737289    0.2788977 -29.27  0.001767696    1.436    0.303
        90 -11.2852     79.7392    108.3544   6.7820913234e+01   4.4862566342e+01    0.5727131    0.3478104  29.70  0.001067869    1.688    0.408
        91  -9.5235    120.8206    108.7750   5.5460341918e+01   3.6810791912e+01    0.2592279    0.1717056  -0.68  0.000966112    2.903    0.656
        92 -10.5059    103.2453    108.6493   6.0345155988e+01   4.0368249431e+01    0.4975652    0.2685371  22.81  0.001730304    2.932    0.659
        93 -10.7556     15.7647    108.7697   9.3263784383e+01   5.3113474595e+01     0.286716    0.2388764  -7.81 0.0006005849    1.205    0.170
        94 -10.4111    182.0633    104.7778   4.1647180244e+01   2.5335357710e+01    0.3240515    0.2722506  13.00  0.001392559    1.638    0.389
        95  -9.8130    143.2679    106.1234   4.9380178603e+01   3.2750172071e+01     0.266579    0.1884456  82.69  0.001217339    1.980    0.495
        96  -9.6280    118.2551    105.5538   5.5315500507e+01   3.8008599643e+01    0.1965817    0.1426861  33.61 0.0003937217    1.477    0.323
        97 -10.3750     85.8372    103.8246   6.4556405602e+01   4.4789556003e+01    0.2295687    0.2054502  -4.75 0.0006078025    1.173    0.148
        98 -10.7387     35.3451     92.7691   8.1292049517e+01   5.5239024414e+01    0.3805664    0.2807943 -65.08  0.001253959    1.503    0.335
        99 -12.0935     42.4097     85.2986   7.6187688477e+01   5.6091474417e+01     1.037437    0.3675431  21.44  0.003096925    3.523    0.716
       100 -11.7702      9.8986     97.4136   9.3793516446e+01   5.6436289078e+01    0.6282452    0.4762461   9.33  0.001601958    1.354    0.262
       101 -11.7682     27.4132     84.9585   8.2939398908e+01   5.7972591525e+01    0.7639947    0.5021166   7.98  0.003780852    1.549    0.354
       102 -12.7477     17.6010    100.2495   9.0879082445e+01   5.5151490898e+01    0.3898305    0.3156933  -3.31 0.0005235211    1.228    0.186
       103 -12.1208     21.1695     93.0159   8.7756658309e+01   5.6648630613e+01    0.9402086    0.5555171  59.87   0.00317773    2.651    0.623
       104  -9.4808     64.8127    102.0673   7.1576204424e+01   4.8876170411e+01    0.2099307    0.1690192 -16.92 0.0003641998    1.334    0.251
       105 -10.6679     51.7274     99.7029   7.6095725142e+01   5.1438861341e+01    0.6448708    0.2032473 -44.16  0.002027842    3.316    0.698
       106  -9.1990    120.4570    101.5038   5.3687973114e+01   3.8387612936e+01    0.1450496     0.143409  78.64 1.880033e-05    1.004    0.004
       107  -9.9682     28.6524     99.6657   8.5871737782e+01   5.4287544593e+01    0.2780661    0.1766646 -39.46 0.0008340333    1.497    0.332
       108 -10.6820     30.5440     96.4996   8.4319338161e+01   5.4872793631e+01    0.3826779    0.3111102  77.23  0.001895447    1.605    0.377
       109  -9.4916    210.1493     98.1384   3.6156017364e+01   2.1397001874e+01    0.1704588    0.1273939 -66.53 0.0004722798    1.300    0.231
       110 -12.0975     68.6570     95.7831   6.8430877943e+01   4.9680620207e+01    0.3893772      0.29787  20.40 0.0004300468    1.331    0.249
       111 -10.7261     42.7778     94.6044   7.8518142681e+01   5.3880038026e+01    0.3966753    0.3386705 -38.46  0.002155293    1.128    0.113
       112 -12.1988    125.7706     94.7478   5.0581861525e+01   3.8612252230e+01    0.2777194    0.2757894  20.64 0.0002807219    1.063    0.059
       113 -11.0955    121.7618     93.9667   5.1372682189e+01   3.9611404861e+01    0.5602454    0.4109893 -71.33  0.002035749    1.706    0.414
       114 -10.5002     82.8030     93.3940   6.2706688532e+01   4.7649718132e+01    0.3775496    0.1464164  38.97 0.0008173647    2.498    0.600
       115 -11.0042     78.5991     92.6343   6.3943040631e+01   4.8600612940e+01    0.6022492    0.3938742 -41.03  0.002773988    1.587    0.370
       116 -11.3784     89.9282     88.8929   5.9058749802e+01   4.7207644254e+01    0.6510747    0.3547762 -35.76  0.002317988    2.116    0.527
       117 -10.5190     49.0657     91.3964   7.4999935213e+01   5.3771777630e+01    0.3402342    0.2487126  30.57  0.001346658    1.340    0.254
       118 -10.5446     98.6648     91.0126   5.6942187401e+01   4.5016852857e+01    0.3267162    0.2100045  47.66 0.0005230479    1.525    0.344
       119 -11.8129      6.9764     88.8990   9.3535788621e+01   5.8741810610e+01    0.6414439    0.3779318   8.94  0.002249473    1.738    0.425
       120 -10.0862     66.1733     88.7628   6.7380645874e+01   5.1660683734e+01    0.3540741    0.2243682   0.36  0.001414364    2.416    0.586
       121 -10.2629    104.2824     87.3133   5.4245531814e+01   4.4590117271e+01    0.2528026    0.2244199   5.95 0.0008488721    1.271    0.213
       122 -11.1015    143.1980     84.6151   4.4050421943e+01   3.6757522045e+01    0.2388102    0.2244772 -65.49 0.0002837249    1.049    0.047
       123  -9.8067    133.3457     84.8322   4.6208421114e+01   3.8837108612e+01    0.2606733    0.1795107  80.77 0.0007060894    1.897    0.473
       124  -9.9354    120.6150     85.1091   4.9274504746e+01   4.1533418800e+01    0.2986231    0.1802986  36.17   0.00122856    1.922    0.480
       125 -10.1650     72.1714     77.8491   6.1850786173e+01   5.2859106661e+01    0.3195252    0.2835625  84.15  0.001736907    1.421    0.296
       126 -10.6301     80.2674     84.0852   6.0868622440e+01   5.0074936676e+01    0.3803741     0.327559  17.08  0.002039277    1.181    0.153
       127 -11.0538     76.3223     79.8037   6.0955641447e+01   5.1689443495e+01    0.6160201    0.3114598 -52.33  0.001427137    2.298    0.565
       128  -9.1364    165.6856     84.3411   3.9791212647e+01   3.2079230977e+01    0.1410374    0.0965075 -73.39 0.0007047515    1.704    0.413
       129 -10.5334    113.1999     82.6986   5.0497827117e+01   4.3573376266e+01     0.286367    0.2668305 -83.90 0.0003889664    1.120    0.107
       130 -10.2525     66.9721     81.7490   6.4995529580e+01   5.3011891472e+01    0.3155037    0.2309837  16.92  0.001260773    1.469    0.319
       131 -11.3583     58.6848     77.7543   6.7033146016e+01   5.5266170797e+01    0.4781363    0.4198703  -0.67  0.002126456    1.106    0.096
       132 -11.3071     53.4869     76.2262   6.8710037301e+01   5.6432667668e+01    0.6095737    0.4874795 -72.78  0.003155888    1.700    0.412
       133  -9.6286      1.3365     80.7752   9.4687035050e+01   6.1036063147e+01    0.1884536    0.1005107 -53.29 0.0003928956    1.584    0.369
       134 -10.4609     93.7143     76.6208   5.4240983487e+01   4.8828556540e+01    0.6568691    0.3400743  32.41  0.002058892    2.378    0.579
       135  -9.9140     88.1898     77.3899   5.6204518900e+01   4.9820640091e+01    0.3094414    0.1961232  48.87  0.001229557    1.536    0.349
       136 -11.7672     13.0837     73.9480   8.7191159011e+01   6.1851405127e+01    0.5565346    0.4660105 -79.66  0.002640243    1.489    0.328
       137  -9.2695     14.5132     67.5899   8.4772693098e+01   6.3155848936e+01     0.492377    0.2167099  15.87  0.002133303    2.256    0.557
       138 -10.0459    233.4869     77.5152   2.9605413693e+01   2.0636972881e+01    0.1146381    0.0876558 -58.02 -2.589317e-06    1.011    0.011
       139  -9.0981     19.3245     76.2796   8.4622480714e+01   6.0779532568e+01    0.1456134   0.09141745 -24.07 0.0006994515    1.591    0.371
       140  -9.1837    112.4834     75.4882   4.8634363118e+01   4.5026794456e+01    0.1421804      0.13367  67.62 6.526059e-05    1.030    0.029
       141  -9.8474    103.3754     74.6779   5.0838198513e+01   4.7139026528e+01    0.2917284    0.2191366  84.03  0.001416585    1.770    0.435
       142 -11.0304      2.0359     71.7425   9.2429267549e+01   6.3116759882e+01    0.3912891    0.1916974 -55.45  0.001470507    1.757    0.431
       143 -11.3114    186.9746     71.3590   3.3666796380e+01   2.9853939981e+01    0.4344476    0.2839982 -48.58  0.001758297    1.369    0.270
       144 -11.3318     35.0739     71.8184   7.5626486191e+01   6.0021436510e+01    0.5508478    0.2576423  34.97  0.002364251    2.101    0.524
       145 -10.4819     41.2374     73.0387   7.3115262978e+01   5.8936445300e+01      0.25349    0.2141966 -28.58 0.0006957441    1.146    0.128
       146 -11.3398     40.6063     69.1346   7.2179615347e+01   5.9837725349e+01    0.3319535    0.2471862  23.23 0.0008577341    1.256    0.204
       147  -9.7023     24.5100     74.1021   8.1447916006e+01   6.0757221513e+01    0.2051324    0.1299156 -53.14 0.0008788345    1.560    0.359
       148  -9.9827    153.6790     72.7462   3.9080774567e+01   3.6492533958e+01    0.3089522    0.1581329  44.94  0.001369307    2.303    0.566
       149 -10.6192     88.4541     73.2163   5.4835984738e+01   5.0543096231e+01     0.477729    0.2108749 -51.07  0.001796562    2.787    0.641
       150  -9.6384     92.1504     72.1180   5.3343286255e+01   4.9975939085e+01    0.2160709    0.1935226  22.67  0.001087601    1.147    0.128
       151 -11.5483    123.0179     68.8607   4.4197089996e+01   4.3833182777e+01    0.4774872    0.2668782  51.39  0.001829364    1.691    0.409
       152 -10.7913     78.9811     67.8915   5.6266682350e+01   5.3428670485e+01     0.451198    0.3273014  70.12  0.002165317    1.897    0.473
       153 -10.6372    219.5363     66.8824   2.9008029441e+01   2.4476230450e+01    0.3412684    0.1598677  69.91   0.00183905    2.432    0.589
       154 -12.6573      6.5781     62.1403   8.7600114888e+01   6.4974748289e+01    0.7256402    0.4166698   0.57  0.003694069    1.719    0.418
       155  -9.3617     52.1751     65.6658   6.5852584908e+01   5.8758297825e+01    0.2010993    0.1206849  25.60 0.0006971617    1.659    0.397
       156  -9.4226     25.8087     65.6248   7.8304940836e+01   6.2450722890e+01    0.1832956    0.1161523  30.96 0.0004202036    1.575    0.365
       157 -10.4048    157.4103     63.4087   3.6153948620e+01   3.7129792274e+01     0.440319     0.164803  49.48  0.001623213    2.970    0.663
       158 -10.3122    154.9813     60.9542   3.5942237083e+01   3.8015549288e+01     0.195021    0.1680862 -79.71            0    1.061    0.058
       159 -10.9468     91.8513     62.5470   5.0423260392e+01   5.1689768746e+01    0.4181279     0.264933  65.31  0.001467421    1.923    0.480
       160 -10.0890     58.5169     63.0757   6.2313284284e+01   5.8164978992e+01    0.3655782    0.2763893  67.24  0.001826996    1.933    0.483
       161  -9.2368     65.5089     61.5782   5.9033219874e+01   5.7164064433e+01    0.1398781    0.1264227  34.47 5.461598e-06    1.074    0.069
       162 -10.0663    105.7212     63.4293   4.6825471740e+01   4.8539052715e+01    0.2726096    0.1295174  55.40  0.001134799    2.028    0.507
       163 -10.3299     51.7864     48.1319   5.9741681662e+01   6.1947423760e+01    0.2841443    0.2040785  45.93 0.0006673054    1.418    0.295
       164 -11.3062     45.7514     48.5378   6.2569723877e+01   6.2910171759e+01    0.5198477    0.3761205 -29.25  0.002904634    1.456    0.313
       165 -11.1573     40.5346     56.9574   6.8107857101e+01   6.2236866043e+01    0.5742069    0.3181691  20.14  0.000924675    1.916    0.478
       166 -10.3865     50.5402     61.4862   6.5135027987e+01   5.9819446577e+01    0.3461249    0.2193273  42.14  0.001428693    1.582    0.368
       167 -11.3262     44.0450     43.9710   6.1583950684e+01   6.3947014156e+01    0.3030812     0.234352  31.54            0    1.157    0.135
       168 -10.8926     39.4435     44.1464   6.3833166329e+01   6.4662125225e+01    0.4065511    0.2565842   8.76  0.001410174    1.869    0.465
       169 -11.2536     43.1676     62.2945   6.8730301394e+01   6.0828242917e+01    0.2818316    0.2364037 -19.78 0.0004987711    1.162    0.139
       170 -10.9009     46.1489     59.1624   6.6278964781e+01   6.0961547746e+01    0.3203038     0.273986 -29.99  0.001024131    1.208    0.172
       171 -11.3010    234.9772     60.8403   2.6467836980e+01   2.2695896588e+01     0.299746    0.2408663  82.31  0.002304524    1.353    0.261
       172  -9.7705     85.0058     61.7438   5.2270703264e+01   5.3265575005e+01    0.2108805    0.1729404  46.85  0.001165028    1.124    0.110
       173 -10.5075    110.0681     40.3490   3.8674075095e+01   5.0896343523e+01    0.5583891    0.4687906 -41.81  0.003427083    1.331    0.249
       174 -10.7208    112.3940     50.8037   4.1356352305e+01   4.8964383271e+01    0.2888114    0.2362377 -37.04 0.0009119408    1.362    0.266
       175 -11.5766    115.9924     49.1303   4.0050280612e+01   4.8387505236e+01    0.3957212    0.2921669 -49.46  0.000370022    1.464    0.317
       176 -10.9542    174.5107    247.1377   6.9738258471e+01  -4.8365818152e-01    0.2892021    0.2647943 -11.04  0.002008073    1.326    0.246
       177  -9.8459    113.7369     60.8487   4.4049145624e+01   4.7172320533e+01    0.2625702    0.1690559 -43.17   0.00131535    1.658    0.397
       178 -10.1134    106.9311     59.3573   4.5274292580e+01   4.8916391503e+01    0.2899716    0.1609797 -57.13   0.00124118    2.418    0.586
       179 -11.2486     32.5269     52.8597   7.0581818327e+01   6.4146273311e+01    0.8453499    0.4282053  14.05  0.003579268    2.442    0.590
       180 -10.2708     20.5074     55.4718   7.7856341205e+01   6.5116047741e+01    0.2787944     0.272251  33.41  0.001821149    1.328    0.247
       181 -11.2509     24.9557     59.5380   7.6813723096e+01   6.3803106582e+01    0.7362419    0.2064302  29.75  0.002654164    3.186    0.686
       182 -10.5080     25.1931     56.1983   7.5574850040e+01   6.4441679476e+01    0.4041019    0.2267077 -10.09  0.001686378    2.275    0.560
       183 -11.0296     83.0395     47.1470   4.7952657566e+01   5.5956632121e+01      1.58933    0.8699178  -1.13  0.004246552    7.669    0.870
       184 -12.3038     74.0240     51.0012   5.2235460761e+01   5.7256590727e+01    0.6091369    0.3357764 -49.32  0.001642383    2.275    0.561
       185  -9.0768    135.6999     58.6462   3.8734128424e+01   4.2594873231e+01    0.1307628    0.1043402  24.18 0.0007037405    1.700    0.412
       186 -10.4958     87.9504     56.2777   4.9554147531e+01   5.3531946334e+01     0.397261    0.2001616 -28.87  0.001657024    2.597    0.615
       187  -9.9953     91.8598     57.2266   4.8703255497e+01   5.2545920982e+01    0.2741517    0.1786679  52.19 0.0009757832    1.410    0.291
       188 -11.2273     72.5319     47.5116   5.1499651305e+01   5.8092017985e+01    0.2416024     0.222803  38.62 0.0007215245    1.064    0.060
       189  -9.7806    125.0184     56.6913   4.0323821056e+01   4.5273779420e+01    0.1967263    0.1628545  61.99 0.0007850077    1.112    0.101
       190 -10.7109    158.4067     55.2578   3.4006010722e+01   3.8092844834e+01    0.4859236    0.2803582 -85.68  0.002282158    2.282    0.562
       191 -10.0768    154.4861     50.9828   3.3546340301e+01   3.9532546633e+01      0.27048    0.1319356 -25.24  0.001131593    3.182    0.686
       192  -9.3552     66.7848     55.0347   5.6264313372e+01   5.8043750802e+01    0.1703127    0.1129898 -39.44 0.0008348544    1.653    0.395
       193  -9.5779     81.1911     73.8379   5.7412903669e+01   5.1896506009e+01    0.1978044    0.1638903  12.63 0.0005865386    1.315    0.239
       194 -11.4076     60.9530     48.0512   5.5951633565e+01   6.0285462702e+01    0.7346168    0.3236467 -34.49  0.003096917    2.639    0.621
       195  -9.8702     57.0123     41.6753   5.5078279581e+01   6.2003941359e+01    0.2492635    0.1449364  45.70  0.001246285    1.569    0.363
       196 -10.3877    240.4882     50.4935   2.4205225753e+01   2.3143953985e+01    0.1559364    0.1453511 -17.81 0.0009926405    1.698    0.411
       197  -9.7901     51.0884     56.6626   6.3195280440e+01   6.0609052240e+01    0.5682665    0.2850356  54.21  0.002142944    3.248    0.692
       198  -9.8200      1.8964     49.1094   8.6609261475e+01   6.8044424387e+01     0.182025    0.1627717   9.99 0.0007448244    1.244    0.196
       199  -9.9120    173.4429     48.5744   3.0356704511e+01   3.5816185916e+01    0.3678896     0.118069  74.84  0.001142923    5.407    0.815
       200 -10.1908    146.4749     47.3465   3.3869020202e+01   4.1780188318e+01    0.2239506    0.1754299 -43.96 0.0007285273    1.344    0.256
       201 -10.9197     20.7023     45.7740   7.4334226267e+01   6.6954907934e+01    0.4162101    0.2379616 -20.98  0.001012002    1.942    0.485
       202 -10.3405     26.3230     42.9891   7.0141560097e+01   6.6758225431e+01    0.2359495    0.1727336   8.77 0.0007450369    1.229    0.186
       203 -10.1849     22.9313     37.7566   6.9938621468e+01   6.8098447562e+01    0.4777055    0.3338302  57.01  0.002134221    2.506    0.601
       204  -9.8535     13.3458     46.6948   7.8924663389e+01   6.7570897376e+01     0.255307    0.1126866 -34.92  0.001140577    2.272    0.560
       205 -10.4355    200.2903     44.9748   2.6614526674e+01   3.0925295456e+01    0.3613088    0.1553817  81.33  0.001704814    2.842    0.648
       206 -10.6526    137.1942     44.7447   3.4709803402e+01   4.4190970722e+01    0.6953975    0.1634478  52.99  0.002341194    3.872    0.742
       207  -8.8659    101.2987     44.6476   4.2074080742e+01   5.2307742857e+01    0.1349574    0.1007847 -78.89 0.0007036265    1.693    0.409
       208  -9.5172    161.1363     43.7793   3.0833875389e+01   3.9044623044e+01    0.2750208   0.09844486  73.07  0.001039545    3.380    0.704
       209 -10.4353    155.7795     42.3828   3.1228768012e+01   4.0381656888e+01    0.2293764    0.2119319  27.13  0.001040309    1.448    0.310
       210 -10.2737     92.3081     41.6920   4.3417050859e+01   5.4702114393e+01    0.3726658    0.1988427  59.89  0.001501042    1.778    0.437
       211  -9.4244     17.4945     41.9798   7.4753397440e+01   6.8013993360e+01    0.1924651   0.08619072 -29.47 0.0008101052    2.629    0.620
       212 -10.3447     79.2799     38.9800   4.6209573399e+01   5.7891202584e+01    0.4522346    0.2740012  73.24   0.00203689    2.430    0.589
       213 -11.5647     80.1052     33.2886   4.3890088178e+01   5.8443131845e+01    0.6543078     0.305366  42.67  0.002971251    2.018    0.504
       214 -10.1904    231.5416     38.4979   2.2766022403e+01   2.6105922365e+01    0.2274378   0.08597892 -39.99  0.001236865    2.271    0.560
       215 -11.4279     61.0026     36.2416   5.1389582433e+01   6.2012254289e+01    0.4073871    0.2995062  -1.26  0.001647489    1.635    0.388
       216  -9.5777     70.8045     34.4077   4.7212484444e+01   6.0273022847e+01    0.1920072    0.1770958  57.72  0.000484597    1.158    0.137
       217 -10.2607     67.5389     31.9680   4.7366529680e+01   6.1258513574e+01    0.3487059    0.2196191  30.82  0.001234948    1.656    0.396
       218  -8.9069    194.3301     38.3250   2.5833625042e+01   3.2905278231e+01    0.1033534   0.08910627  41.16 0.0007050445    1.703    0.413
       219 -11.2614      4.8075     35.8814   8.0292605528e+01   7.0381394436e+01    0.4052295    0.2431017   7.46  0.001946905    1.504    0.335
       220  -8.9387    206.4586     37.4616   2.4554668573e+01   3.0694427454e+01    0.1138065    0.0880905 -69.80 0.0002257946    1.004    0.004
       221  -9.4295    132.3137     36.7380   3.3347455017e+01   4.6296826511e+01    0.2830335    0.1367115 -84.88 0.0009632516    4.354    0.770
       222 -10.7994    176.2089     34.4054   2.6840590055e+01   3.7021482817e+01    0.4701579    0.1817552 -47.28   0.00174052    2.336    0.572
       223  -9.5919     94.0800     35.8143   4.0965882701e+01   5.5063078973e+01    0.1968195    0.1640458  83.29 0.0006303889    1.294    0.227
       224 -10.1189    142.5089    249.5425   7.6984252995e+01   2.7237385008e+00    0.1314238    0.1080168   3.37 0.0001514159    1.009    0.009
       225  -9.2671    113.3288    249.3327   8.3708922695e+01   6.2453604952e+00    0.1400971   0.09213638 -13.64 0.0007051837    1.719    0.418
       226 -11.5373    106.5001     32.5592   3.7001647417e+01   5.2657367897e+01    0.5085563    0.3022244  24.75  0.002198755    2.787    0.641
       227 -12.3404    113.7426     24.9804   3.3195487714e+01   5.1854711223e+01    0.6715102    0.2835162  57.80  0.002088993    1.960    0.490
       228 -10.6528    239.9537     32.8088   2.1205995624e+01   2.5381473898e+01    0.2169434    0.1445959  61.79  0.001591342    1.931    0.482
       229 -10.0516    213.7408    248.4104   6.2372684085e+01  -4.6503845224e+00    0.1554599   0.09058829   5.60 0.0009434414    1.604    0.377
       230 -12.0258    164.3499     27.6737   2.6611949178e+01   4.0291154351e+01    0.2542442    0.1983486 -83.74 0.0004690906    1.077    0.072
       231 -11.1813     57.4140     30.4741   5.0425619404e+01   6.3479544843e+01    0.4039166    0.2863565   1.25  0.001320267    1.726    0.421
       232 -11.7040     49.0223     30.4772   5.3819638137e+01   6.5070932951e+01    0.6392156    0.2234811  42.44  0.001820938    2.439    0.590
       233 -10.2456     43.1147     28.1231   5.5401970096e+01   6.6450644556e+01    0.1902412    0.1544621  24.97            0    1.025    0.024
       234 -10.9867     32.4966     31.1157   6.1893793246e+01   6.7792753119e+01    0.2258116    0.1857944  11.89  0.000272725    1.032    0.031
       235 -10.0497      7.3022     30.4247   7.6499812971e+01   7.1120588120e+01    0.3044626    0.1512038  11.04  0.001523056    1.974    0.493
       236  -9.5221    230.0053     30.7296   2.1501818433e+01   2.7285280588e+01    0.1450939    0.1069983 -73.89 0.0003686672    1.092    0.084
       237 -12.1826    126.5916    242.0147   7.9601223309e+01   6.0620269600e+00    0.3931844    0.3462177 -74.26  0.001903439    1.543    0.352
       238 -11.4973    167.4023    237.9230   6.9834291349e+01   1.9146187969e+00    0.2807281     0.196665 -31.82 0.0009524822    1.313    0.239
       239 -10.3419    197.6716     28.9991   2.3632189284e+01   3.3363479071e+01    0.2479115    0.1802803  59.59  0.001385176    1.641    0.391
       240 -11.2783    188.8688     28.0235   2.4207769856e+01   3.5198418724e+01    0.2785747    0.2332263 -50.86  0.001257289    1.280    0.219
       241 -11.1518    182.9220     25.6087   2.4245304494e+01   3.6662920584e+01    0.2801031    0.1968773  76.74  0.001159255    1.302    0.232
       242 -12.2298    126.2833     28.6642   3.2086763724e+01   4.8600315211e+01    0.4818251    0.3292286  81.03  0.002781111    1.378    0.274
       243 -10.3230     88.6046     29.1679   4.0069696977e+01   5.7071933274e+01    0.3524769    0.1759903  52.90  0.001720334    1.671    0.401
       244 -10.0320    155.5095     31.5265   2.8593732230e+01   4.1756799994e+01     0.226876    0.1570678  73.79 0.0008803109    1.277    0.217
       245 -10.4500    155.1249     24.3974   2.6895437451e+01   4.2638773464e+01    0.3117345    0.1499777 -85.37  0.001185635    2.585    0.613
       246 -11.6422    145.2728     24.2609   2.8089160718e+01   4.4816038604e+01    0.6035113    0.1871506  54.65  0.002479514    3.092    0.677
       247  -9.5775    244.2892    235.3370   5.5251283667e+01  -5.4410773171e+00    0.1161901   0.06166258 -19.66 0.0005616473    1.637    0.389
       248 -11.2626    197.2520    232.8261   6.3021265986e+01  -5.4154815795e-01    0.4119062    0.2690702  20.62  0.002517945    1.505    0.336
       249 -11.0677     67.5396    240.7316   9.3963955332e+01   1.3514808460e+01    0.2751939     0.214057  -8.41 0.0008941813    1.449    0.310
       250 -10.4507     90.9027     22.5161   3.7166228744e+01   5.7286897019e+01    0.2719292     0.219796 -23.48   0.00171384    1.491    0.329
       251 -10.0467     59.7770     23.5920   4.6692525224e+01   6.3848611767e+01    0.1927523    0.1714921 -11.93 0.0003926598    1.273    0.215
       252  -9.1201     15.6346    233.6984   1.0635682735e+02   2.0481973019e+01    0.1272732   0.09374018 -30.30 0.0007034819    1.733    0.423
       253 -11.9401    147.0407    237.8984   7.4289816988e+01   4.3442570101e+00    0.5136785    0.3671476  39.71  0.002250065    1.619    0.382
       254 -10.4397     38.8151     22.1838   5.4716454518e+01   6.7976328362e+01    0.1894929    0.1660848   1.49 0.0004356271    1.175    0.149
       255  -9.5840     57.6563    225.3315   9.4926862452e+01   1.8157668989e+01    0.1519693   0.09319726  54.66 0.0007050685    1.755    0.430
       256  -9.7311    223.6019     22.2756   2.0425899180e+01   2.9350364206e+01    0.1787285    0.1007077 -84.56  0.000581737    1.603    0.376
       257  -9.7735      5.8079     21.9270   7.3804899382e+01   7.2677114165e+01    0.1864106    0.1317662  -5.88 0.0005987994    1.199    0.166
       258  -9.6421     75.3980    224.2019   9.0114142293e+01   1.6312795533e+01    0.1879769     0.137531 -84.37 0.0009505087    1.673    0.402
       259  -9.8908    233.9830    223.4884   5.5059773818e+01  -2.7580126552e+00    0.1515732    0.1016536  15.41 0.0006491169    1.559    0.359
       260 -11.1746    246.4233     19.7254   1.8647968897e+01   2.5810372282e+01    0.1893329   0.06731606 -44.03  0.001132537    2.077    0.519
       261  -9.4781    216.5154     20.5210   2.0575446836e+01   3.0801499579e+01    0.1075124   0.08044624 -69.99 0.0001659943    1.020    0.019
       262  -9.5762    144.6928    214.6735   7.1209779011e+01   9.2284567883e+00    0.1470073   0.09718809 -15.88  0.000703699    1.652    0.395
       263  -9.8572     74.5677     19.6494   4.0358948611e+01   6.1180675370e+01    0.2249278    0.1619187  47.19 0.0005969034    1.168    0.144
       264  -9.8977     47.1243     19.2825   4.9700068297e+01   6.6815354476e+01    0.2127308    0.1616305   4.65  0.001318748    1.418    0.295
       265  -9.7348    164.6527    212.0362   6.6267413535e+01   7.0917623395e+00    0.2084244     0.176166  25.47 0.0005686503    1.271    0.213
       266 -10.0160    152.9832    207.4782   6.8093751221e+01   9.5716490319e+00    0.2804882    0.1844107 -69.16  0.001259001    2.488    0.598
       267  -9.4172     61.4928    206.5315   9.1772244563e+01   2.2271798299e+01    0.1435934    0.1359967  34.32 0.0004322842    1.007    0.007
       268  -9.5440      4.3588    205.2142   1.0747423504e+02   2.8270002010e+01    0.1903345     0.113811  85.37  0.000906681    1.647    0.393
       269  -9.5294     78.5683    203.7733   8.6622048429e+01   2.0803183903e+01     0.191603    0.1452993 -82.09 0.0006580912    1.567    0.362
       270  -9.8289     19.6827    202.7263   1.0312856805e+02   2.7636137339e+01    0.1346489    0.1003515 -34.00 0.0001840955    1.565    0.361
       271 -10.1483    139.3921    199.1805   6.9854382578e+01   1.3245482220e+01    0.2001117    0.1380376 -61.32 0.0009532935    1.768    0.435
       272  -9.8261    233.8250    196.8531   5.0765976188e+01   1.4579916753e+00    0.2155588    0.1281447 -41.67  0.001038521    1.404    0.288
       273  -9.9429    147.5095     16.2771   2.5780239047e+01   4.5146719270e+01    0.2576362    0.1072831  59.42  0.001273742    2.152    0.535
       274 -10.5040    186.8801     15.0053   2.1671611843e+01   3.7008035887e+01    0.1785313    0.1321479 -87.62 0.0003306613    1.113    0.102
       275 -10.0918     79.4863    190.4954   8.4433627251e+01   2.4003781563e+01    0.1494389    0.1439959  14.80 8.106323e-06    1.006    0.006
       276  -9.6205     74.7403     13.5529   3.7939689393e+01   6.1740179621e+01    0.1752553    0.1069496  69.09 0.0009439572    1.628    0.386
       277 -11.7475      5.0514    185.7816   1.0596385123e+02   3.3195938442e+01    0.5035488     0.402779 -77.15  0.002621989    1.174    0.148
       278  -9.2759     95.6492    185.6898   7.9019841930e+01   2.2907353040e+01    0.1622171    0.1134889 -18.15 0.0007044668    1.717    0.418
       279  -9.0165     86.3199    185.6677   8.1693206510e+01   2.4270687577e+01    0.1582978    0.1153674  62.28 0.0007048935    1.696    0.410
       280  -9.4556     28.0240    175.9820   9.8138673808e+01   3.3907183969e+01    0.1754928     0.166781 -84.35 0.0006525958    1.016    0.016
       281 -10.3292     51.8790    173.2887   9.0268234626e+01   3.2088230017e+01    0.4855428    0.2439146 -85.82  0.001687545    2.944    0.660
       282  -9.8356     39.5079    173.5279   9.4226326408e+01   3.3420800389e+01    0.1451658    0.1426099 -87.16 0.0001286604    1.002    0.002
       283 -11.9605      9.6156    165.5815   1.0289602349e+02   3.8250361402e+01    0.6702941    0.3453546 -52.36  0.002468792    1.856    0.461
       284 -10.5164     14.0432    159.2406   1.0082390924e+02   3.9644572770e+01    0.2657983    0.2018884 -87.52 0.0005454199    1.301    0.231
       285  -9.7004     66.3154     10.4255   3.9059334430e+01   6.3838752931e+01    0.2564205   0.09056348  54.01  0.001143052    2.149    0.535
       286 -10.1333     18.5315    164.9754   9.9963708516e+01   3.7727836472e+01    0.2784056    0.1998548 -15.57  0.001375789    1.614    0.380
       287  -9.6660    204.9801    163.4108   4.9584472320e+01   1.0816343178e+01    0.2021734    0.1463157 -39.98 0.0006445493    1.161    0.138
       288 -10.6536     28.1720    161.8115   9.6430862599e+01   3.7744787790e+01     0.383063    0.2149996 -55.59  0.001686187    1.667    0.400
       289  -9.7968     38.0340    160.5016   9.2969296061e+01   3.7121329942e+01    0.2413828    0.1993154 -65.17  0.001093697    1.174    0.148
       290 -10.7100      9.1794    155.6089   1.0206515347e+02   4.0986903223e+01    0.2939107    0.1849725 -66.63  0.001424264    1.439    0.305
       291 -10.6468    105.0100    154.3653   7.0457896734e+01   2.9228625701e+01    0.4980315    0.3295979   5.99  0.002035273    2.039    0.510
       292 -12.4923     22.5159    149.3077   9.6772095623e+01   4.1676720952e+01    0.7518741    0.3670881 -34.13   0.00221286    2.430    0.588
       293 -10.9663     16.5153    148.0295   9.8711922814e+01   4.2516855082e+01    0.2816058    0.2649711 -67.34 0.0003731543    1.011    0.011
       294 -10.3552      4.5679    153.6901   1.0341731864e+02   4.1813898929e+01    0.2472568    0.1469279  42.44 0.0009880449    1.763    0.433
       295 -11.3356     47.1946    147.1324   8.7771358141e+01   3.9740675043e+01    0.7807311    0.4043533 -44.91   0.00311339    1.948    0.487
       296 -10.4813     30.4518    152.0183   9.4371356236e+01   4.0210683062e+01    0.2908115    0.2059624 -13.11  0.001370676    1.624    0.384
       297 -11.5215      5.8256    142.1312   1.0180109514e+02   4.4872847029e+01    0.5991132    0.3104485  77.14 0.0002794034    2.397    0.583
       298 -11.1205      2.1847    140.1769   1.0288617183e+02   4.5619729196e+01    0.4639653    0.2284326 -72.92  0.001181828    1.830    0.453
       299 -10.3012      3.0912    147.6751   1.0333168380e+02   4.3535936845e+01    0.1929832    0.1785322 -44.00  0.001138247    1.092    0.084
       300  -9.7768     74.1111    146.1137   7.8375116061e+01   3.6349751367e+01    0.2461277    0.2011221 -24.46 0.0004901372    1.303    0.232
       301 -11.0955     33.2224    144.2865   9.2269687801e+01   4.2054309390e+01    0.3156036    0.2979116 -53.67 0.0007439615    1.013    0.012
       302  -9.4746    217.4783    138.9430   4.3006207432e+01   1.3358430122e+01    0.1885489    0.1025758 -44.12 0.0004283506    1.504    0.335
       303 -10.3115     79.5840    138.0279   7.4890625898e+01   3.7588457617e+01    0.3162479    0.3033957 -75.58  0.001666704    1.113    0.102
       304 -10.7340     40.0228    137.6754   8.8729892049e+01   4.3132631426e+01    0.3108336    0.2602274  42.54 0.0007402457    1.262    0.208
       305 -11.8392     22.9246    136.3881   9.4846236226e+01   4.5171259886e+01    0.7006065    0.3806571  30.94  0.003065184    1.872    0.466
       306 -10.0056     31.8431    137.4460   9.1703334801e+01   4.4056413799e+01    0.3969559    0.2000522  32.41  0.001225504    1.984    0.496
