#   1 NUMBER                 Running object number                                     
#   2 MAG_AUTO               Kron-like elliptical aperture magnitude                    [mag]
#   3 X_IMAGE                Object position along x                                    [pixel]
#   4 Y_IMAGE                Object position along y                                    [pixel]
#   5 X_WORLD                Barycenter position along world x axis                     [deg]
#   6 Y_WORLD                Barycenter position along world y axis                     [deg]
#   7 A_WORLD                Profile RMS along major axis (world units)                 [deg]
#   8 B_WORLD                Profile RMS along minor axis (world units)                 [deg]
#   9 THETA_WORLD            Position angle (CCW/world-x)                               [deg]
#  10 FWHM_WORLD             FWHM assuming a gaussian core                              [deg]
#  11 ELONGATION             A_IMAGE/B_IMAGE                                           
#  12 ELLIPTICITY            1 - B_IMAGE/A_IMAGE                                       
         1 -10.7831     32.1845     64.2234   9.6410048355e+01   6.0730697037e+01     1.554987    0.4796805 -36.64  0.005228494    3.979    0.749
         2 -11.1345     23.7733     31.9826   8.9304759952e+01   6.7751801164e+01     1.380087    0.4514804 -35.27  0.004249879    2.994    0.666
         3 -10.3253      9.9654     19.1245   9.1274260120e+01   7.1126179814e+01     1.294404    0.4545529 -21.02  0.003800273    7.405    0.865
         4 -10.7473     37.2620      9.8262   7.2578432317e+01   6.9469736058e+01    0.7998495    0.3436177 -37.08  0.002774099    2.437    0.590
         5 -10.4245     26.7843     11.1836   7.8441174802e+01   7.0651405144e+01     0.744072     0.358596  31.24  0.003842763    2.023    0.506
         6  -9.4894      2.2345     14.3178   9.3637767542e+01   7.2477151067e+01    0.4269054    0.2144791 -58.12  0.002232647    2.682    0.627
         7 -10.5517      5.6470      4.3660   8.6897021617e+01   7.3749937912e+01    0.4893666    0.3607161  -2.26  0.002083861    1.151    0.131
         8 -10.1890     69.6423     39.6993   7.2466661170e+01   6.0276009451e+01     1.041854    0.4118254 -33.90  0.003521065    2.549    0.608
         9  -9.8660     73.6909     17.8478   6.1820683455e+01   6.2482934348e+01    0.8369097      0.23696 -27.75  0.003086169    3.762    0.734
        10  -8.6029     72.1461      8.4248   5.8124215809e+01   6.3768266932e+01    0.2078062    0.1635145  -8.21 0.0005821984    1.270    0.212
        11  -9.4586     78.1059      4.1455   5.4362332608e+01   6.2984802105e+01    0.4921057    0.2827191  -7.43  0.002134788    1.943    0.485
        12  -9.7703     79.1036     24.1541   6.2731922133e+01   6.0700306825e+01     0.568404    0.2771808  26.28     0.001584    2.625    0.619
        13 -10.1582     35.8924     37.9926   8.5871121935e+01   6.5428845366e+01    0.5028348    0.2089784 -34.11 0.0003567295    2.312    0.568
        14 -10.2764     62.9696      3.3126   5.8816161038e+01   6.5977255211e+01    0.4891408    0.3802715 -14.50  0.003237629    1.327    0.246
        15  -9.6776     63.0135     20.9353   6.7005221928e+01   6.4057034233e+01    0.4964004    0.2713124 -44.56   0.00190681    2.503    0.601
        16  -9.8497     64.6478     13.3644   6.2955435811e+01   6.4658221996e+01    0.3115208    0.2632823   6.49 0.0002395777    1.082    0.075
        17  -9.4263     91.7473     27.2201   6.0050121849e+01   5.7782698659e+01    0.5206074    0.2356309 -39.24  0.002268353    2.509    0.601
        18 -10.4004     51.0841     15.3869   6.9180071153e+01   6.6724710198e+01    0.9801715    0.4967503   8.19  0.004028346    3.216    0.689
        19 -10.2007     46.2721     29.6535   7.7739203893e+01   6.5472868886e+01    0.4482891    0.2795626 -45.87 0.0009662885    1.912    0.477
        20  -9.2966    102.8666     21.6838   5.4812763450e+01   5.6039119957e+01    0.4010948    0.2731669 -30.62  0.001641889    1.592    0.372
        21  -8.7576    120.0834     16.1772   4.8791947336e+01   5.2691546344e+01    0.4161554    0.2465197  22.80  0.001936128    2.143    0.533
        22  -9.1720    133.6828     11.7917   4.4697928850e+01   4.9890525979e+01    0.3358979    0.2019803 -47.33  0.001052913    1.938    0.484
        23  -9.3127     96.1615     15.0924   5.3967226115e+01   5.8194627502e+01    0.5318731    0.2645709 -12.89  0.001941636    2.499    0.600
        24 -10.3596     18.3223      5.3807   8.0004815102e+01   7.2391499422e+01    0.5764062    0.4394543 -41.10  0.002925745    1.755    0.430
        25  -9.4074    110.5360      5.1437   4.6759453359e+01   5.5894491752e+01    0.8271785    0.2487177 -21.99   0.00318563    3.697    0.729
        26  -8.8167    115.4382      4.3437   4.5482500475e+01   5.4833287447e+01    0.2750802    0.2050179 -39.68 0.0008265348    1.562    0.360
        27  -8.9686    114.1183      9.9296   4.7780709168e+01   5.4662532654e+01    0.3046531    0.1901513  39.61  0.000284641    1.513    0.339
        28  -9.3962     85.4378     13.2239   5.6154402196e+01   6.0645811124e+01    0.4104903    0.2426966 -51.56  0.001641511    2.730    0.634
        29  -8.4022    104.8198     14.5285   5.1579980085e+01   5.6345936445e+01     0.272503     0.145854  15.24  0.000923662    2.725    0.633
        30  -8.9145    102.3572      8.1848   4.9709321189e+01   5.7481850203e+01    0.3838288    0.2401336 -54.24   0.00103906    2.303    0.566
        31  -8.1141    104.5296      2.2225   4.6919569209e+01   5.7488793214e+01    0.2990973    0.1441712  36.79  0.001419127    2.072    0.517
        32  -8.4348    120.9377      5.7850   4.4948389349e+01   5.3436040115e+01    0.3171298    0.1128218  60.31  0.001217034    2.265    0.558
        33  -8.7226    125.0381     12.8490   4.6636609287e+01   5.1847628844e+01    0.3421839    0.1759831 -33.81  0.001130496    2.117    0.528
        34  -8.0646    126.9898      8.7646   4.4869101648e+01   5.1756855703e+01    0.2059065     0.154965  45.82 0.0005206171    1.219    0.179
        35  -9.1847    125.7187      5.3888   4.3942019092e+01   5.2345657111e+01    0.3642344     0.228436  21.50  0.001892923    1.955    0.489
        36  -8.0123     80.5980     12.6118   5.7328105837e+01   6.1691837345e+01    0.2439874    0.1403155 -32.24 0.0007072015    1.915    0.478
        37  -7.9784    141.8303     12.1451   4.3443661633e+01   4.7898700334e+01    0.1965127    0.1694978 -73.58 0.0005535495    1.238    0.192
        38  -8.9363    137.8507      9.5185   4.3250434659e+01   4.9098640754e+01     0.238474    0.1871178 -37.56 0.0007981397    1.419    0.295
        39  -7.5474    193.1173      7.8146   3.5719682715e+01   3.6001928422e+01    0.1567738    0.1365917  60.01 0.0003380695    1.260    0.207
        40  -8.1903    155.9861      7.1470   3.9823691762e+01   4.4934011183e+01     0.250376    0.1295114 -33.54   0.00124001    2.056    0.514
        41  -8.7218    131.6149      5.6999   4.3032204979e+01   5.0922237429e+01    0.3012599    0.2232857  52.90  0.001520269    1.187    0.158
        42  -8.9782     96.8505      4.5231   4.9558387109e+01   5.9007997773e+01    0.3651877    0.2519167 -42.45  0.002089514    1.801    0.445
        43  -6.8926    214.6978      3.2977   3.2750754287e+01   3.1537430358e+01    0.1275885   0.07434256 -65.67 0.0002779309    1.581    0.367
        44  -8.6996     89.1289      2.5470   5.0653161392e+01   6.0834568234e+01    0.2188416    0.1665427  -5.19 0.0007471038    1.398    0.285
        45  -8.3361    136.6851      1.6361   4.0894844001e+01   5.0045450734e+01    0.3399628    0.1488777  75.29  0.001111408    2.312    0.567
        46 -11.5575    120.8622    110.6589   7.9087344105e+01   3.6590982098e+01     1.232573    0.9573459 -67.57  0.004349333    1.516    0.341
        47  -9.8533    206.5302    250.1702   8.7646098752e+01  -6.3743160129e+00    0.3739119    0.1328728  31.49  0.001680425    2.503    0.600
        48  -8.0954    194.7166    132.8770   6.7206351411e+01   1.6004601217e+01    0.2433473    0.2018945  29.08  0.000600002    1.297    0.229
        49  -7.8010    142.6575    131.9992   7.8747177160e+01   2.7224966215e+01    0.3624477    0.2202585  78.68  0.001070912    4.214    0.763
        50 -10.9784     70.3604    126.7735   9.8003751181e+01   4.1559728289e+01    0.8191819    0.6592295 -28.72  0.002624087    1.389    0.280
        51 -10.1909     58.2042    124.4328   1.0128965730e+02   4.3768176469e+01    0.7096633    0.4186439  81.47   0.00239186    2.795    0.642
        52 -10.0249     98.1797    128.5341   9.0052062963e+01   3.6705611784e+01    0.6697175      0.40646  64.09  0.002372949    2.484    0.598
        53  -7.5381    160.7845    129.5808   7.3751013641e+01   2.3903055436e+01    0.2185954    0.1504941  56.59 0.0005243444    1.648    0.393
        54  -9.9753     42.0539    122.7737   1.0602535247e+02   4.6036322273e+01    0.7021996    0.3653944  87.90  0.002652175    3.154    0.683
        55 -10.0669     27.1864    123.0300   1.1067745500e+02   4.7377274895e+01    0.6114413    0.3497087  73.04  0.002080516    2.318    0.569
        56 -10.2836    108.6449    114.4086   8.3555618895e+01   3.8159001510e+01     1.041646    0.4777628 -58.09  0.002537519    2.671    0.626
        57  -7.2219    218.4565    122.4737   6.0360264608e+01   1.3115489006e+01     0.144387    0.1297523 -32.76 9.584529e-05    1.016    0.016
        58  -7.8321    158.0545    122.0091   7.2502260719e+01   2.6118239221e+01    0.2460089    0.1948777 -86.94 0.0008153088    1.682    0.405
        59  -8.6656     99.3690    119.6673   8.7604584678e+01   3.8638618552e+01    0.6041744    0.3668052 -13.06  0.002035638    3.396    0.705
        60  -9.8747    140.7049    118.4025   7.5832574289e+01   3.0676580169e+01    0.4677526    0.3528908 -79.92  0.001298334    1.826    0.452
        61  -8.6433      1.6173    116.7326   1.1762030577e+02   5.0692388567e+01    0.3542366    0.1395392 -84.85  0.001274105    2.671    0.626
        62 -10.3108     91.9585    112.9955   8.8193727781e+01   4.1540616473e+01    0.6283213    0.4984998  87.12  0.001838257    1.634    0.388
        63  -9.0724     91.7221    104.1522   8.5984404897e+01   4.3663454381e+01    0.5824236     0.417139  -2.57   0.00258678    1.926    0.481
        64 -10.2973     78.3397    113.1427   9.2489505867e+01   4.3738288679e+01    0.5479589    0.3541358 -79.83  0.001830774    2.243    0.554
        65  -8.2481    152.9922    115.5149   7.2038441712e+01   2.8619007598e+01    0.2335974    0.1562376  49.30 0.0007315587    1.547    0.354
        66  -7.6167    167.4493    113.9415   6.8283259537e+01   2.5725400694e+01    0.2354629    0.1486189 -43.76 0.0004483442    1.538    0.350
        67  -9.8048     14.1841    111.2954   1.1300788596e+02   5.1247668278e+01    0.5440375     0.292569  87.69  0.001869841    2.231    0.552
        68  -8.2549     14.3154    105.3088   1.1206203160e+02   5.2688148281e+01    0.2371557    0.1500352 -41.55  0.000757738    1.530    0.347
        69  -8.6225     63.1581     81.2261   8.9259661381e+01   5.3400655052e+01     0.275174    0.2004627 -56.31 0.0009893856    1.406    0.289
        70 -10.6113     62.9559     95.7004   9.3284668903e+01   5.0142538182e+01    0.9340362      0.55571 -81.31  0.001988642    3.166    0.684
        71  -9.0402     65.0596     85.7892   8.9879092888e+01   5.2118777316e+01    0.6060429    0.3408746 -12.33  0.002203753    3.334    0.700
        72 -10.2772     65.7513    110.1927   9.5860547656e+01   4.6297070709e+01    0.8649945    0.4800046 -65.60   0.00144413    1.940    0.485
        73  -9.6460     58.9688    109.2668   9.7885837056e+01   4.7423629745e+01    0.5364675    0.2978895 -66.01  0.001548646    1.871    0.465
        74  -9.2708     36.2331    111.3568   1.0584644752e+02   4.9447282983e+01    0.3487702    0.2053552  66.95  0.001472037    2.495    0.599
        75  -8.3445    158.8620    111.9616   6.9721588623e+01   2.8059457682e+01    0.2368567    0.2237595 -42.10 0.0004635661    1.034    0.033
        76  -8.7560    149.9487    110.5750   7.1473360299e+01   3.0344232220e+01    0.4263016    0.1813739 -54.98 0.0008454889    3.333    0.700
        77  -8.2325    140.7486    111.6299   7.4043271808e+01   3.2149867198e+01    0.3446327    0.2651849 -71.87   0.00154911    1.636    0.389
        78 -10.9307     21.6603    102.0745   1.0905949529e+02   5.2950768663e+01     1.285125    0.7026592  84.73  0.003525234    2.698    0.629
        79  -8.6531     40.0337    107.2683   1.0379890961e+02   5.0076619317e+01    0.2444494    0.1786267 -89.79 0.0006915155    1.607    0.378
        80 -10.7982     44.6206    102.1713   1.0118020951e+02   5.0837174912e+01    0.8504402    0.4849263  72.30   0.00285455    3.490    0.714
        81  -9.6715    244.0605    105.2824   5.2480160037e+01   1.1098949487e+01    0.3414551    0.2088242  73.56   0.00161412    2.423    0.587
        82  -8.4847     78.3185    105.1073   9.0521069727e+01   4.5669294296e+01    0.3617387      0.25217   5.82  0.001644548    1.915    0.478
        83  -9.5169     81.5284    100.3096   8.8227882260e+01   4.6282602193e+01    0.4139839    0.3002692 -72.78  0.001103315    1.744    0.426
        84  -8.3929     81.8010     94.7458   8.6627271261e+01   4.7516712025e+01    0.3409472    0.2253602 -19.27  0.001482192    1.992    0.498
        85  -9.5716      5.6253    103.9465   1.1471881850e+02   5.3541433017e+01    0.3969885    0.3454461  27.70  0.001640787    1.417    0.294
        86  -9.5584    149.5094    103.2986   6.9617323431e+01   3.1965053743e+01    0.4325042    0.3022351 -61.71  0.001122734    1.726    0.421
        87  -8.3428    166.0567    103.8832   6.5954627217e+01   2.8075200974e+01    0.2696387    0.2113835 -45.68 0.0004737533    1.249    0.199
        88  -8.2088     73.8659    102.6709   9.1364561118e+01   4.6932344231e+01    0.3319118    0.1802472 -54.66  0.000598435    1.740    0.425
        89  -8.9431    159.0768    100.7111   6.6665475519e+01   3.0309368986e+01    0.5262328    0.2104897 -39.95  0.001342456    2.463    0.594
        90  -9.0647     83.1387    131.0822   9.5047229140e+01   3.8578315534e+01    0.7359665    0.4403924 -88.76  0.002331451    2.985    0.665
        91  -9.4695     94.3798     97.2257   8.3256030224e+01   4.4772424285e+01    0.3710402    0.3125528 -74.30 0.0007570354    1.417    0.295
        92  -9.8735     97.4433     88.6836   7.9824916725e+01   4.6084064752e+01    0.5482106    0.3224831 -20.63 0.0006303027    2.616    0.618
        93  -9.8572    240.2636     96.1566   5.0982324357e+01   1.3336748015e+01    0.4096191    0.2743807   3.99  0.001820545    2.779    0.640
        94  -8.2173    150.2880     96.6862   6.7603661522e+01   3.3134477370e+01    0.3194357    0.1816155  29.43 0.0007370366    2.512    0.602
        95  -8.5322    164.3759     94.0959   6.3678171361e+01   3.0381947681e+01    0.3645913    0.2338015 -38.83   0.00107469    1.533    0.348
        96  -8.9602    150.0743     90.1961   6.5823635635e+01   3.4466739409e+01    0.5991984    0.2269471 -32.71  0.001832559    3.319    0.699
        97  -7.9146     23.3186     69.0852   1.0142312757e+02   6.0454236717e+01    0.1785691    0.1369735 -50.42  0.000335974    1.109    0.098
        98 -10.1417     20.3566     84.7335   1.0621034932e+02   5.7149286820e+01    0.5163045    0.1380232 -49.60  0.001782625    2.731    0.634
        99 -10.5251     25.3183     78.0615   1.0282657438e+02   5.8298002120e+01    0.7051033    0.5101306  89.81  0.003250915    1.860    0.462
       100  -7.8060    248.3112    249.6973   8.0070754449e+01  -1.1715398567e+01   0.09429239   0.08519798  15.69 0.0005471355    1.609    0.379
       101  -9.1131     38.5931     58.4843   9.1952751943e+01   6.1265664320e+01    0.3405543    0.2918019  18.21  0.002168712    1.282    0.220
       102  -9.9646     34.4273     90.4828   1.0223270807e+02   5.4644185779e+01     0.574135    0.3008562 -79.54  0.002341956    2.866    0.651
       103 -10.1743     36.7082     81.1568   9.9168035512e+01   5.6580159129e+01    0.8445263    0.3973607 -17.42  0.002990904    4.061    0.754
       104 -10.0328      4.5280     89.5040   1.1289899596e+02   5.7011703361e+01    0.6193428    0.3064007  88.73  0.002005972    2.768    0.639
       105  -9.5943      5.9452     78.9526   1.1052495758e+02   5.9371262362e+01    0.5828934    0.2099237 -33.31  0.002448884    3.114    0.679
       106  -8.7630    157.6823     90.9112   6.4276013318e+01   3.2556572995e+01    0.4752358    0.1840007 -33.40  0.001513908    3.025    0.669
       107  -9.9157    110.8003     90.0309   7.6162364410e+01   4.3167188964e+01    0.9389544    0.4747141  25.82  0.003108691    3.232    0.691
       108  -8.4025    193.7728     89.7578   5.6722230626e+01   2.4365314509e+01     0.356126    0.2055073 -30.42  0.001278632    1.859    0.462
       109  -8.4060     47.2585     90.3592   9.7519083913e+01   5.3349988919e+01    0.3804987    0.2373717  53.90  0.001787798    2.248    0.555
       110 -10.1332     47.9325     84.2817   9.5726056720e+01   5.4671524263e+01     0.532615    0.3762523  78.36  0.001618698    2.320    0.569
       111  -9.4208     48.3505     77.5050   9.3729758326e+01   5.6140531268e+01    0.7159063    0.3541157   8.52  0.002762099    3.305    0.697
       112 -10.2640     85.3377     86.5760   8.3110328054e+01   4.8734983608e+01    0.5380766     0.382843  60.39 0.0008300802    1.907    0.476
       113  -9.7097     87.4211     78.7760   8.0040707131e+01   5.0022806737e+01    0.7017444      0.41504  13.46  0.002392165    2.709    0.631
       114  -8.1284    163.4914     87.0601   6.1923235714e+01   3.1922199687e+01    0.2326549    0.1487584 -38.57 0.0004664431    1.544    0.352
       115  -9.9652    242.0161     85.1193   4.8290777418e+01   1.4774574019e+01    0.3544764    0.2258148 -20.84  0.001733477    1.999    0.500
       116 -10.2980    103.8299     82.3605   7.5928247830e+01   4.6168902338e+01    0.5807411     0.306769 -51.23  0.001092098    2.094    0.522
       117  -9.6091    105.1724     71.5821   7.2096282707e+01   4.8022581060e+01    0.7557804    0.3925286 -31.44  0.003023919    2.143    0.533
       118  -8.5970    157.9049     83.0799   6.2012004660e+01   3.3979392292e+01    0.4530907    0.2165669 -37.43  0.001330629    2.095    0.523
       119  -8.5858    157.0926     76.5729   6.0317423664e+01   3.5350096429e+01     0.343681    0.2161008 -58.92 0.0005405654    1.971    0.493
       120  -9.1169    140.5804     82.4822   6.5860633188e+01   3.8150906102e+01     0.477341    0.2773851 -39.92  0.001382583    1.715    0.417
       121  -8.8737    139.8653     75.3590   6.3896455218e+01   3.9640860133e+01    0.4961504    0.2750358 -36.73  0.001680753    1.830    0.453
       122  -7.5640    170.5284     83.5201   5.9474453730e+01   3.0908229979e+01    0.1516826    0.1435082 -69.21 0.0003088814    1.054    0.051
       123  -8.5200    149.9076     80.7089   6.3123086414e+01   3.6305208377e+01     0.323437    0.2266513 -61.27 0.0006066021    1.727    0.421
       124  -9.0382     74.3415     80.4609   8.5032268811e+01   5.1885663468e+01    0.3808389    0.2691521 -71.58  0.001177511    2.047    0.511
       125  -8.2547     74.3429     75.3238   8.3447050885e+01   5.2971104106e+01    0.3057347    0.2120729  -3.51  0.001440849    1.830    0.453
       126  -9.2752    115.3451     72.3936   6.9389570076e+01   4.5722011505e+01    0.5829074    0.3352071 -32.15  0.001733699    1.849    0.459
       127  -8.7136    118.9808     80.5270   7.0929919954e+01   4.3378707736e+01    0.3215383    0.2294197 -52.49 0.0007679139    1.537    0.350
       128  -8.3579    119.9176     75.8212   6.9201823782e+01   4.4081684580e+01     0.277488    0.2196027  50.31 0.0007024815    1.289    0.224
       129  -7.9531     69.2838     79.1408   8.6427893558e+01   5.2956061955e+01    0.3040886    0.1063608 -43.74  0.001080928    2.666    0.625
       130  -8.1706    166.4943     78.9163   5.9011872242e+01   3.2690607341e+01    0.2244876    0.1450028 -40.72 0.0005295557    1.522    0.343
       131  -8.0912    184.0812     78.0564   5.5395492065e+01   2.8661358021e+01    0.2234842    0.2105613 -59.84 0.0006385511    1.015    0.015
       132  -7.9032    174.1209     78.5176   5.7383720924e+01   3.0942992117e+01    0.2256317     0.147412  58.73  0.001021117    1.567    0.362
       133  -9.4298    127.2886     75.0717   6.6980732294e+01   4.2582455345e+01    0.4542505    0.2955478 -54.83 0.0009174329    1.826    0.452
       134  -8.0980    129.4722     68.5546   6.4366038458e+01   4.3265104952e+01    0.3118285    0.1995458  23.25  0.001282588    2.154    0.536
       135  -8.7768    131.0751     65.5391   6.3003812626e+01   4.3419952565e+01    0.5261949    0.2906588 -52.49  0.001999662    2.254    0.556
       136  -7.9374     18.3405     77.2808   1.0538064448e+02   5.8998757267e+01    0.1338708   0.07748506 -35.20  0.000700944    1.627    0.385
       137  -9.8981     81.6410     72.2972   7.9928759252e+01   5.2366025876e+01    0.4158936    0.3143249 -70.09  0.000937183    1.896    0.473
       138  -9.2539     83.4411     64.6157   7.6750186958e+01   5.3545395423e+01    0.5838683    0.3571891   2.62   0.00232472    2.707    0.631
       139 -10.5833     54.9141     70.8510   8.9246226653e+01   5.6756923897e+01    0.7044153    0.3837694  49.47  0.001165375    2.710    0.631
       140  -9.4855     55.3705     63.2696   8.6651855062e+01   5.8254765069e+01     0.457351    0.2926181   5.23  0.002240629    1.920    0.479
       141 -10.1186     62.8375     60.7720   8.2906659433e+01   5.7682512361e+01    0.7272551    0.2432393  35.54  0.002467989    3.110    0.678
       142  -8.2690    162.7777     72.7531   5.8020209207e+01   3.4655542339e+01     0.294894    0.1889561 -49.77 0.0008736362    1.636    0.389
       143  -9.6465     15.9132     70.4412   1.0479055237e+02   6.0694684377e+01    0.4299286    0.2092724 -58.03  0.001307717    1.653    0.395
       144 -10.4912    179.7531    249.3315   9.2639934036e+01  -2.4274759917e+00    0.4205006    0.1872367  34.85  0.002080426    1.885    0.469
       145  -8.1564    242.3114    133.6928   5.8948410763e+01   6.6260134580e+00    0.1318808    0.1009086 -62.11 0.0004974362    1.619    0.382
       146  -9.9697     16.9310     60.8249   1.0196135787e+02   6.2709950583e+01    0.6628498    0.4903748   9.14  0.004216338    1.497    0.332
       147 -10.8878     21.6791     53.3597   9.7742426360e+01   6.3902434020e+01    0.7325202    0.4867919 -89.13  0.002955269    3.029    0.670
       148  -9.7125    194.8775    246.1929   8.9243677883e+01  -4.1736970058e+00    0.3136646   0.08681469  42.86  0.001110328    4.055    0.753
       149 -10.3994    164.5675    248.6953   9.5535072677e+01  -7.3010746386e-02    0.4525314    0.2917134  61.08  0.002332016    2.443    0.591
       150 -10.1361     13.2838     45.2948   9.9145844469e+01   6.6143280917e+01     0.624321    0.3146919 -18.56   0.00227534    2.201    0.546
       151 -10.2864      4.8234     41.9250   1.0219851441e+02   6.7334752253e+01    0.7058349     0.317967 -56.35  0.003108624    1.837    0.456
       152 -10.7454    108.7598     99.5997   7.9531139026e+01   4.1508479238e+01     1.012992    0.7056546  70.56  0.004248993    2.148    0.534
       153  -9.9359    168.3064    244.2921   9.4164558708e+01   5.0962618045e-02    0.3048695    0.1769261 -45.40  0.001667263    2.019    0.505
       154  -9.7352      6.7899     32.6623   9.8221790569e+01   6.8985481152e+01    0.2927794    0.1909861 -22.61 0.0006927698    1.308    0.236
       155 -10.0649      7.4595     28.1833   9.6261856546e+01   6.9755864346e+01    0.3088306    0.2570606  31.16 0.0009961226    1.638    0.390
       156  -7.3387    175.3050     72.6225   5.5531998364e+01   3.1670472728e+01    0.1593413    0.1100692 -67.71 0.0001345382    1.774    0.436
       157  -8.2021    169.4514     70.9805   5.6187772981e+01   3.3351599957e+01    0.2199124    0.1437375 -37.28 0.0003912511    1.525    0.344
       158  -9.2870    147.0513     69.3143   6.0384560766e+01   3.9014008891e+01    0.3857467    0.2616313 -60.59 0.0007674521    1.826    0.452
       159  -8.5125    156.6380     69.5689   5.8369988756e+01   3.6674769588e+01    0.3574028    0.1471842 -31.44  0.001241728    2.747    0.636
       160  -9.7833     94.8142     68.3465   7.4245199036e+01   5.0708826558e+01     1.013793    0.2629865 -42.59 0.0007959873    3.815    0.738
       161  -8.3792     95.6706     60.6815   7.1361813427e+01   5.1946621114e+01    0.2754669     0.203247  16.22 0.0008257391    1.517    0.341
       162  -9.1555     98.2044     57.1880   6.9348246546e+01   5.2045254563e+01    0.4811061    0.3600474  14.09   0.00221923    1.496    0.331
       163  -9.2111    138.1016     66.1791   6.1493864477e+01   4.1670230335e+01    0.3189693    0.2546079 -63.56 0.0005322797    1.464    0.317
       164  -8.9733    121.1493     65.9060   6.5690661609e+01   4.5618052438e+01    0.3423871    0.2519845 -53.52 0.0006933014    1.560    0.359
       165  -8.5355    122.0329     61.0613   6.3868104589e+01   4.6250595740e+01    0.3196277    0.2420343  14.11  0.001161717    1.585    0.369
       166  -8.1728    170.5230     64.9477   5.4280673136e+01   3.4085358085e+01    0.2212211    0.1427153 -36.55   0.00040163    1.556    0.357
       167  -9.4206    109.7018     63.6880   6.8144392517e+01   4.8516228185e+01    0.3638302    0.2829005 -59.56  0.000667955    1.593    0.372
       168  -8.6773    110.9303     57.8300   6.5807334627e+01   4.9256248379e+01    0.3268051    0.2626952  13.03 0.0008012505    1.356    0.263
       169  -8.4330    157.6146     63.2210   5.6296231566e+01   3.7490223834e+01    0.2529674    0.2125518 -67.16 0.0007740889    1.289    0.224
       170  -9.1296    147.1268     59.9305   5.7506257166e+01   4.0551416675e+01    0.6219557    0.2844574 -40.65  0.002445922    2.213    0.548
       171  -8.3687    147.4572     53.7669   5.5534188813e+01   4.1429771992e+01    0.4321854    0.1963415 -22.71  0.001518189    3.121    0.680
       172 -10.0211     73.1512     59.2561   7.8522362545e+01   5.6337051106e+01    0.5462183    0.2873374 -52.09 0.0009003013    2.323    0.570
       173  -9.3897     75.2232     50.8833   7.4738685886e+01   5.7479733791e+01    0.5169187    0.3148487   9.99  0.002194038    2.297    0.565
       174  -7.9385    164.6125     59.8546   5.3935321017e+01   3.6326656756e+01    0.2058215     0.129479 -46.35 0.0009350723    1.625    0.385
       175  -7.2972    152.4163     60.2390   5.6475857096e+01   3.9226181262e+01    0.2143752    0.1319094 -46.81 0.0009498057    1.712    0.416
       176  -8.7810     87.6019     58.2711   7.3135877231e+01   5.3939398987e+01    0.4511278    0.2863899 -62.56  0.001152545    2.689    0.628
       177 -10.4345     85.6629     48.5525   7.0247891088e+01   5.5958664463e+01     0.597841    0.4270699 -66.87  0.001523129    2.408    0.585
       178  -9.0857    130.1068     56.6504   6.0376690952e+01   4.5114662695e+01    0.5600157    0.2416092 -29.59   0.00158742    2.651    0.623
       179  -9.4430    138.8553     55.8658   5.8068761051e+01   4.3173811352e+01    0.6292498    0.2232433 -38.40   0.00165465    2.817    0.645
       180  -9.5881    141.9999     47.8075   5.4815830807e+01   4.3627140084e+01     0.637697    0.2606589 -27.66  0.001664633    2.871    0.652
       181  -9.7019    130.7432     46.1321   5.6761466844e+01   4.6555556574e+01    0.9873978    0.4739683 -17.47  0.001665307    3.280    0.695
       182  -9.0242    139.4447     39.9415   5.2829407183e+01   4.5331749393e+01    0.4978211    0.2985049 -54.91  0.001124182    2.098    0.523
       183  -8.8392    132.8594     36.0469   5.2935418485e+01   4.7419725292e+01    0.3346434    0.3045808  39.14  0.001231016    1.066    0.062
       184 -10.7892    134.0229     30.9942   5.1011590494e+01   4.7767985382e+01    0.3423629    0.2675166  10.32  0.001855195    1.513    0.339
       185  -8.3757    122.6634     41.0167   5.6932753752e+01   4.9164918405e+01    0.4434759     0.234212  17.92    0.0014451    4.143    0.759
       186  -9.6660    118.1762     54.7832   6.2785134772e+01   4.8149694919e+01    0.5541485    0.3877824 -35.65  0.001420347    1.469    0.319
       187  -8.9205    120.9908     46.7914   5.9330208440e+01   4.8732751209e+01    0.3181393    0.2224692 -31.57 0.0005360891    1.492    0.330
       188 -10.0321     49.9280     54.1752   8.5750773130e+01   6.0756841329e+01    0.5218081    0.3453099 -60.46  0.001829584    2.043    0.511
       189  -9.7685     55.9763     43.6365   7.9356670672e+01   6.1820056980e+01    0.8387146    0.4326344   2.32  0.002822732    4.555    0.780
       190  -7.6649    169.0238     55.3495   5.1825260308e+01   3.5943048647e+01    0.2042077    0.1865397  82.75 0.0005987204    1.064    0.060
       191  -9.2101     44.1439     54.0107   8.8110981245e+01   6.1514632265e+01    0.3587309    0.1878954 -28.14 0.0006704413    2.051    0.513
       192  -8.9467    162.6640     53.7506   5.2523292567e+01   3.7732788614e+01    0.3394818    0.2179422 -42.86  0.001004422    1.578    0.366
       193  -8.9093    105.5562     52.1810   6.5379355882e+01   5.1338031481e+01    0.5397339    0.2504483 -34.78  0.001876947    2.207    0.547
       194  -7.8841    152.7915     53.6161   5.4392905605e+01   4.0158827073e+01    0.2005368    0.1356906  71.49  0.000495981    1.614    0.381
       195  -7.4213    172.6559     51.3105   5.0044349945e+01   3.5654511565e+01    0.1509884    0.1051311 -72.13 0.0005068781    1.701    0.412
       196  -8.6487    157.4816     48.7172   5.2002372350e+01   3.9733904312e+01    0.2803273    0.2268795 -58.71 0.0008289316    1.312    0.238
       197  -8.4940    111.9591     46.9874   6.1750621429e+01   5.0744413099e+01    0.2246222     0.202074 -30.05 0.0004655229    1.165    0.142
       198  -8.5999    113.9618     41.3118   5.9208583631e+01   5.1115805541e+01    0.5492575    0.3168762  -1.25  0.002145704    2.943    0.660
       199  -8.0550    149.7497     47.9126   5.3255137246e+01   4.1734693404e+01    0.2507406    0.1820416 -50.40 0.0004094089    1.482    0.325
       200  -8.9351     71.0229     26.1148   6.6332747230e+01   6.1972828799e+01    0.4676537    0.2333605  32.50  0.001513008    2.016    0.504
       201  -7.8901     94.4501    246.6567   1.0937046000e+02   1.0713418908e+01    0.1418111    0.1159614 -55.24 0.0009290926    1.481    0.325
       202  -8.7944    206.1690    242.3230   8.6487082141e+01  -5.2381632805e+00    0.1922188    0.1765302   4.65 0.0002944873    1.289    0.224
       203  -7.3340    245.2609    236.3905   7.8403995954e+01  -9.6923796830e+00    0.1230721   0.07218724  -5.91 0.0006973175    1.697    0.411
       204  -9.5754    188.2920    234.0507   8.8627663560e+01  -1.3844992072e+00    0.2634166    0.2399696 -67.05  0.000966899    1.596    0.373
       205  -9.7672     76.1745     32.1424   6.7048851455e+01   6.0215787205e+01    0.4087488    0.3008288  59.02  0.001018513    1.772    0.436
       206  -9.1000    205.2102    224.7583   8.3776995225e+01  -2.5078109252e+00    0.2894555    0.2542562 -82.27  0.001208506    1.963    0.490
       207  -8.9227     84.7723     21.5099   5.9825586419e+01   5.9890943207e+01    0.2419082    0.2124828  17.04 0.0005828681    1.043    0.041
       208  -8.6352     40.0263     35.0000   8.2781819555e+01   6.5443872597e+01    0.3257704     0.227503  26.20  0.001291514    1.455    0.313
       209 -10.0207     37.9431     42.2349   8.6568108999e+01   6.4441990495e+01     0.356874     0.310767 -81.66  0.001490725    1.883    0.469
       210 -10.3550    225.1241    218.4682   7.8910959456e+01  -4.4968165370e+00    0.2216861    0.1935489 -10.19 -6.848731e-06    1.192    0.161
       211  -9.1181    153.5259     41.1956   5.0467266400e+01   4.1742048091e+01    0.3491768     0.249447 -18.88  0.001688941    1.641    0.391
       212  -8.1643    110.3341     27.0779   5.4964691259e+01   5.3760888884e+01    0.3229969    0.1777012  -2.26  0.001218134    2.808    0.644
       213  -9.1787    110.4072     33.1444   5.7178165766e+01   5.3004089314e+01    0.3463668     0.254079 -35.38 0.0009078693    1.472    0.321
       214  -9.0603    104.9322     41.0690   6.1553354178e+01   5.3148978735e+01    0.3811869    0.2321189 -43.04 0.0009657122    1.852    0.460
       215  -8.5101    105.9976     36.4936   5.9574583402e+01   5.3546692771e+01    0.2970053    0.2054111  44.12 0.0008028315    1.329    0.248
       216 -10.1584     90.3016     38.1420   6.4783271352e+01   5.6632813595e+01    0.8422729    0.2828441  37.53  0.002711708    3.538    0.717
       217  -9.1178    158.9379     35.0068   4.7641526044e+01   4.1217965786e+01    0.2484229    0.1966995 -39.71 0.0003313709    1.322    0.243
       218  -7.1446    189.7234     37.3408   4.3648877717e+01   3.3440008150e+01    0.1425924   0.09326106 -63.92 0.0004488761    1.619    0.382
       219  -7.6420    166.8030     37.0715   4.6948145769e+01   3.9029954155e+01    0.2254201    0.1780072 -76.17  0.001223267    1.337    0.252
       220  -8.9752    144.2357     36.4625   5.0755048237e+01   4.4625020831e+01    0.2715723    0.2088757 -61.65 0.0006508026    1.485    0.326
       221  -9.2686    100.9892     32.3301   5.9390122931e+01   5.5182974562e+01    0.4523067    0.2160912 -28.49  0.001583749    2.221    0.550
       222  -8.9326    193.5062    219.1531   8.5118318724e+01   1.8579548943e-01    0.2728821    0.1809404  40.03  0.001491101    1.503    0.334
       223  -9.5526     60.2445     33.7201   7.3629125898e+01   6.2755317499e+01    0.4014623    0.3195696 -48.01  0.001522536    1.635    0.388
       224  -8.5391     62.3187     26.7848   6.9855560990e+01   6.3409859227e+01    0.3373032    0.2004163  23.09  0.001041691    1.733    0.423
       225  -7.1249     56.0000    216.0018   1.1430112758e+02   2.2029369922e+01    0.2049917   0.06623178 -69.34 -9.487337e-05    3.070    0.674
       226  -8.8432    194.6267    214.5564   8.4094289799e+01   7.6595690825e-01    0.2198576    0.1975659   9.86 0.0004459262    1.093    0.085
       227  -8.5443    118.8738     34.5944   5.5601031921e+01   5.0891808510e+01    0.2449445     0.189918 -34.90 0.0005522878    1.386    0.279
       228  -8.4548     53.5632     39.0159   7.8522240365e+01   6.2947036634e+01     0.256041    0.1457853 -37.97  0.001181313    1.667    0.400
       229  -7.1506    116.2160    214.9581   1.0095939265e+02   1.3591679180e+01    0.1593671    0.1105899 -60.38 0.0003583023    1.584    0.369
       230  -8.4587     91.8812     20.8701   5.7462056458e+01   5.8497068070e+01    0.2487355     0.156128  32.25 0.0008645324    1.536    0.349
       231  -8.0971    195.1154    209.9457   8.3177311885e+01   1.4602796630e+00    0.1961572    0.1683649   4.36 0.0003327596    1.027    0.026
       232  -8.6843     45.4181     15.7769   7.1794868596e+01   6.7546625353e+01    0.2306536    0.1436049  -7.53  0.001098194    1.627    0.385
       233 -10.1751     10.7393    206.9735   1.2299173414e+02   2.8896424686e+01    0.5982754    0.2974679  25.29  0.003258087    2.520    0.603
       234  -8.5929     42.1381     27.9105   7.8828670470e+01   6.6304232877e+01    0.1955923    0.1266572  -3.43 0.0002510705    1.590    0.371
       235  -8.3421    147.0081     29.0284   4.7891642102e+01   4.4859869486e+01    0.2343895     0.149466  37.08  0.001134674    1.763    0.433
       236  -9.3089    151.2516     26.3593   4.6324794365e+01   4.4132838362e+01    0.4849634    0.2433704  76.23  0.002031586    2.305    0.566
       237  -8.9714    155.6080     23.7755   4.4825564277e+01   4.3358597561e+01    0.2991235    0.1294787 -27.93  0.001263919    2.519    0.603
       238  -8.6131    128.7173     24.8911   5.0043344866e+01   4.9741386736e+01    0.4767207    0.3028856  -3.99  0.002055936    2.075    0.518
       239  -7.5483    222.1930    206.4880   7.7285123294e+01  -2.2348748436e+00    0.1560334    0.1185687  41.11 0.0003100094    1.539    0.350
       240  -9.0719    118.7724     21.4530   5.0951363554e+01   5.2455171504e+01    0.2673116    0.2313416  25.33  0.000579863    1.158    0.137
       241 -10.3371    162.3587    204.3800   8.9057195774e+01   7.9642670647e+00    0.2440451    0.2329788  18.08 0.0002649332    1.072    0.067
       242  -8.6051    232.1158     21.7210   3.5356923475e+01   2.5728061778e+01    0.1977319    0.1596612 -44.30 0.0003204738    1.246    0.197
       243  -7.8806    111.5306     21.2208   5.2510562906e+01   5.4146583772e+01    0.2834739    0.1305098 -26.64  0.001257298    2.348    0.574
       244  -9.1161     40.8449     20.6997   7.6176016374e+01   6.7538378299e+01    0.2560516    0.1555344 -37.69 0.0009722369    1.695    0.410
       245  -8.6313    144.1376     25.8790   4.7412680891e+01   4.5920433021e+01     0.257799    0.1738377 -32.89 0.0009176708    1.594    0.373
       246  -8.3054    139.9012     18.2685   4.5727827640e+01   4.7764576164e+01    0.2179317    0.1769682 -45.79 0.0005762454    1.353    0.261
       247  -7.7563    249.6070     17.7245   3.3152884723e+01   2.2575172778e+01    0.1074577   0.08614442  48.57 0.0006992999    1.737    0.424
       248  -8.4581    244.0333     16.5644   3.3327229222e+01   2.3837964855e+01    0.1890614    0.1608485 -22.70  0.000593685    1.552    0.356
       249  -8.6268    155.3256     16.8286   4.2786794578e+01   4.4165617169e+01    0.2647637    0.1003342 -35.69  0.001097775    2.655    0.623
       250  -8.8634    132.8210     17.1031   4.6617130523e+01   4.9585223163e+01    0.2218726     0.181031 -33.89 0.0007054835    1.357    0.263
       251  -8.5630    114.5635    201.6190   9.9396133510e+01   1.6655434125e+01    0.2246673    0.2137646  46.35 0.0005104928    1.050    0.047
       252  -9.0014    191.7378    193.8895   8.0891698806e+01   4.8374748435e+00    0.6721991    0.3464074 -61.15  0.002187944    4.743    0.789
       253  -9.2080     46.8424    192.0531   1.1399341249e+02   2.8491707747e+01    0.1939658    0.1761473  56.02  0.001266789    1.181    0.153
       254  -8.4553    184.4364    189.5260   8.1574008161e+01   6.9177761833e+00    0.2267938    0.2040491  13.48 0.0002847679    1.035    0.034
       255  -7.5090    169.7931    186.9090   8.4223436215e+01   1.0050037261e+01    0.1868077     0.113249 -42.16 0.0008519215    1.686    0.407
       256  -8.6226    112.2230     15.5145   5.0242749291e+01   5.4574531058e+01    0.2324424    0.2009345 -49.58 0.0005947819    1.366    0.268
       257  -7.3995    111.7866    178.5864   9.6344716924e+01   2.2272283044e+01    0.1460222    0.1062396 -33.65 0.0005038746    1.659    0.397
       258  -8.7436     48.3861    176.5874   1.1193801762e+02   3.1965826723e+01    0.2213004    0.1966824 -76.09 0.0006496801    1.116    0.104
       259  -7.7404    230.3385    167.6816   6.8172370179e+01   2.8629876566e+00    0.1274463      0.10859 -69.76 0.0005018239    1.707    0.414
       260  -7.2013    143.2696    159.7314   8.4892142550e+01   2.0829455304e+01    0.1438627    0.1202968  80.73  0.000173875    1.472    0.320
       261  -8.6401    133.3130    144.7688   8.4123077032e+01   2.6206156967e+01    0.4533708    0.1987827 -55.78  0.001541251    2.624    0.619
       262  -9.4288     66.9740    144.1757   1.0230868930e+02   3.7658892892e+01    0.6723945    0.3721551  65.80  0.002580481    2.678    0.627
       263  -8.4109    234.5189    146.5107   6.2979327391e+01   5.7998836196e+00    0.1384759    0.1202233 -28.53 -1.116376e-05    1.032    0.031
       264  -9.6924    189.6588    136.1098   6.8991444395e+01   1.6415130111e+01    0.2999901    0.2453166 -40.35 0.0003618139    1.165    0.142
       265  -9.3478    135.6806    132.6384   8.0683608891e+01   2.8526196897e+01    0.9453796    0.3439771 -43.85  0.003049729    2.752    0.637
       266  -9.6220    131.8164    131.2156   8.1347200162e+01   2.9643915277e+01    0.6085368    0.3435555 -64.94  0.002178408    2.569    0.611
       267  -8.6096    112.2151    133.6516   8.7231333868e+01   3.2916772552e+01    0.4071389    0.2973959 -81.49  0.001694237    1.819    0.450
       268 -10.7323    123.6613     90.2554   7.2570394780e+01   4.0410463508e+01     1.360932    0.7238127 -29.15  0.003028161    2.379    0.580
       269  -8.0781    153.3995     34.7559   4.8524869686e+01   4.2605471361e+01    0.1789399     0.137089 -13.10 0.0007246644    1.558    0.358
       270 -10.3735    117.7118    123.7660   8.3337932621e+01   3.4206801480e+01      1.05337     0.604892 -44.55  0.002511013    1.709    0.415
       271  -9.9612    138.6078     92.6955   6.9339236296e+01   3.6600035635e+01    0.9277423    0.3917537 -42.89  0.002512123    2.340    0.573
       272  -9.5344    139.4276    104.5344   7.2460465086e+01   3.3963133481e+01    0.6203856    0.3608902 -51.00 0.0007791152    1.815    0.449
       273 -10.2384    127.6820    102.5349   7.4994721843e+01   3.6952799277e+01     0.552461    0.4691827 -44.08  0.001752023    1.158    0.137
       274 -10.6357    131.7316    119.6072   7.8476395926e+01   3.2313665862e+01    0.8829498    0.5881302  80.19  0.002487349    2.704    0.630
       275 -11.1410    133.4498    109.7271   7.5423992209e+01   3.4148275827e+01     1.682886    0.5480853 -49.89  0.004904683    3.439    0.709
