#   1 NUMBER                 Running object number                                     
#   2 MAG_AUTO               Kron-like elliptical aperture magnitude                    [mag]
#   3 X_IMAGE                Object position along x                                    [pixel]
#   4 Y_IMAGE                Object position along y                                    [pixel]
#   5 X_WORLD                Barycenter position along world x axis                     [deg]
#   6 Y_WORLD                Barycenter position along world y axis                     [deg]
#   7 A_WORLD                Profile RMS along major axis (world units)                 [deg]
#   8 B_WORLD                Profile RMS along minor axis (world units)                 [deg]
#   9 THETA_WORLD            Position angle (CCW/world-x)                               [deg]
#  10 FWHM_WORLD             FWHM assuming a gaussian core                              [deg]
#  11 ELONGATION             A_IMAGE/B_IMAGE                                           
#  12 ELLIPTICITY            1 - B_IMAGE/A_IMAGE                                       
         1 -11.3212      2.0946     21.7556   9.4221149579e+01   7.1365183842e+01    0.2808874    0.1827432 -46.27 0.0007887561    1.413    0.292
         2 -10.5225    229.4521     21.4667   3.4028086357e+01   2.6101784097e+01    0.2959766    0.1315199 -63.49  0.001039539    2.400    0.583
         3 -11.3196     74.0493     18.5058   5.9652561441e+01   6.2093315880e+01    0.4531947    0.2390506  41.69  0.002314141    1.655    0.396
         4 -10.4783     22.5127      9.4957   7.7122254075e+01   7.1340222178e+01    0.3508839    0.1662574  15.64  0.001765834    2.441    0.590
         5  -9.7567     27.8100      1.7060   7.0233309055e+01   7.1608911660e+01    0.2200585    0.1392418 -30.84 0.0006066059    1.680    0.405
         6 -11.3579     36.7414     18.5114   7.4466000758e+01   6.8328199717e+01    0.3570521    0.2619457  41.62  0.001291004    1.722    0.419
         7 -11.3984     34.4617     12.6033   7.2668491535e+01   6.9411717623e+01    0.4186835    0.2711894  -3.45  0.002363741    1.444    0.308
         8 -11.7472     30.5113      7.3821   7.1922681543e+01   7.0590520322e+01    0.3933107    0.2481964  27.73  0.001922369    1.419    0.295
         9 -11.2182     13.6353     15.6818   8.5027435941e+01   7.1413142287e+01    0.3408929    0.2464443 -29.53  0.001573002    1.225    0.183
        10 -10.9094     14.4630      7.4476   8.0495525325e+01   7.2508834345e+01    0.3183785    0.2649831  14.91  0.001349424    1.405    0.288
        11 -11.5347    234.8467     15.1289   3.2270996365e+01   2.5688854690e+01     0.222659    0.1715236 -71.86 0.0002866709    1.051    0.048
        12 -10.4982     84.1867     14.3027   5.4747463254e+01   6.0492571361e+01    0.4401482       0.2017  29.49  0.001876247    2.616    0.618
        13  -9.9785     89.3284     13.4978   5.2983682489e+01   5.9489615318e+01    0.2493739     0.163446  38.33  0.001039464    1.336    0.251
        14 -10.9169     38.1223      7.0599   6.8140664128e+01   6.9546225394e+01    0.3639882    0.2940101   2.24  0.001776359    1.101    0.092
        15 -11.2451     66.0986     13.6893   6.0198762671e+01   6.4124282323e+01    0.2790305    0.2475156 -53.68 0.0006677224    1.634    0.388
        16 -10.7813    208.0560     13.0347   3.4019115245e+01   3.1721768725e+01    0.1900632    0.1561631 -75.95 0.0004121082    1.024    0.023
        17 -10.6158    126.0024     11.0360   4.3939206740e+01   5.1392908465e+01    0.1955545    0.1667831  52.73            0    1.045    0.043
        18  -9.9891    123.4944      7.5222   4.3199640237e+01   5.2288944432e+01    0.1944884    0.1295238 -20.41  0.001047946    1.730    0.422
        19  -9.8392      3.9710     10.7308   8.8293205034e+01   7.3002027019e+01    0.1440872    0.1072423  -3.50 0.0003555513    1.157    0.135
        20 -10.0800     45.8562     10.1080   6.6279205171e+01   6.8015037523e+01     0.167131    0.1456687   8.26 0.0003691397    1.207    0.171
        21 -11.4052    188.0127      7.1850   3.4513612323e+01   3.6910145624e+01    0.4195364    0.2349533  41.92  0.002090874    2.379    0.580
        22 -10.6744     56.9218      8.3915   6.1027806248e+01   6.6335693559e+01    0.2745988    0.2112871 -31.64 0.0006158464    1.558    0.358
        23 -11.2885     57.7377      2.6134   5.7930086707e+01   6.6736750257e+01    0.4293002    0.2485124  26.03  0.000254892    1.583    0.368
        24 -10.8741    217.5646      6.2637   3.1718670251e+01   3.0321593633e+01    0.2279905   0.09475315 -38.43  0.001142176    2.180    0.541
        25 -11.1195    134.8270     10.7987   4.2339786128e+01   4.9308755897e+01    0.2501047     0.215598  53.32  0.001310598    1.077    0.071
        26 -10.3602     65.7953      6.6876   5.7086067303e+01   6.4872464210e+01    0.2718587    0.1464041  49.08  0.001464756    1.658    0.397
        27 -10.9123    151.2489      6.0392   3.8432105445e+01   4.5773249520e+01    0.1721523    0.1573675  84.60 0.0003176681    1.074    0.069
        28  -9.6350    135.6310      4.2736   4.0127320600e+01   4.9671286988e+01    0.1306722   0.09014512 -76.66 0.0007002897    1.675    0.403
        29 -10.3534    119.7690      3.5349   4.2496585160e+01   5.3486343127e+01    0.2547081    0.1980801  80.56 0.0006590296    1.307    0.235
        30 -10.4240    102.1889      1.7865   4.5267634248e+01   5.7659373547e+01    0.3634385    0.1570858  60.59  0.001306514    1.929    0.482
        31  -9.9518     83.6990      4.2923   5.0667439264e+01   6.1493744601e+01    0.2913369    0.1720453  67.39   0.00151977    1.926    0.481
        32 -11.5329     80.4061      1.4865   5.0350456531e+01   6.2403857260e+01    0.2982909    0.1446947  54.60 0.0005731496    1.740    0.425
        33  -9.3175     49.6318      2.8616   6.1095112942e+01   6.8139962334e+01    0.1436156    0.1022333 -25.73 0.0003777178    1.546    0.353
        34 -10.7628     20.8873      2.2048   7.4118421929e+01   7.2445856749e+01    0.3122083    0.1586268  20.17  0.001609792    1.887    0.470
        35  -9.9736    176.1717      2.3311   3.4481737597e+01   4.0138976163e+01    0.2025398    0.1360628  59.16  0.001179237    1.418    0.295
        36 -10.0443      2.5097      6.4940   8.7118741281e+01   7.3748552392e+01    0.1969862   0.09428569  20.00 0.0006231869    2.033    0.508
        37  -9.6396     71.7848      1.8156   5.2950538987e+01   6.4130002356e+01    0.1445278    0.1397211  -9.28 0.0003967313    1.307    0.235
        38 -10.6491     11.6876      1.8195   7.9100483212e+01   7.3538513672e+01    0.1777288    0.1359436  17.99 0.0005994266    1.368    0.269
        39  -9.4777      1.1965      2.0720   8.5670861755e+01   7.4486506884e+01    0.1426194   0.06869728 -37.74 0.0007945285    1.764    0.433
        40 -10.3862      1.4277    191.5076   1.2258434029e+02   3.3263610280e+01    0.2554038    0.1086828 -89.91 0.0006666995    2.116    0.527
        41 -10.4486     30.9368    250.5842   1.2040786999e+02   1.8060320004e+01    0.2244985   0.09069686  37.00 0.0006627268    2.167    0.539
        42 -11.9961     17.8891    249.0747   1.2267508462e+02   1.9745342527e+01    0.2774877    0.2508345   6.52  0.002150663    1.755    0.430
        43 -10.8093      1.8953    247.7468   1.2541069210e+02   2.1580730933e+01    0.3371995    0.1457626 -86.93  0.001983664    2.058    0.514
        44 -10.0240      5.7872    191.9700   1.2167992981e+02   3.2798784790e+01    0.1729841    0.1315759  85.96  0.001162734    1.042    0.041
        45  -9.3477     22.0526    180.0107   1.1707631273e+02   3.4106516836e+01    0.1500572    0.1278224  78.65 0.0005408326    1.064    0.060
        46 -10.3727      4.2557    167.5720   1.2025529880e+02   3.8558503311e+01    0.1427043    0.1215075  -2.39 0.0009554148    1.622    0.383
        47  -9.6790    226.4504    163.9961   6.6149852539e+01   4.1846922740e+00    0.2084872    0.1212735 -35.97  0.000675095    1.541    0.351
        48  -9.6491     14.3219    164.3175   1.1751771966e+02   3.8537252790e+01    0.1259481   0.08381027 -48.55 0.0004447876    1.665    0.400
        49 -10.9004      4.7070    153.6596   1.1896988594e+02   4.1842374098e+01    0.4631915    0.1585821  22.11  0.002017598    3.475    0.712
        50 -10.9808     22.4440    146.7910   1.1353509542e+02   4.2130305279e+01    0.2498035    0.2203609 -17.67 0.0007965925    1.414    0.293
        51  -9.4372    236.3451    139.3124   5.9220968786e+01   6.7398443934e+00    0.1387728    0.1007211  -2.42 0.0005270282    1.709    0.415
        52 -10.1567    212.5051    133.9293   6.2097023738e+01   1.2163120950e+01    0.2446099    0.2070616  74.76 0.0006898653    1.497    0.332
        53  -9.3395     95.9892    133.9813   8.9858398393e+01   3.5827309454e+01    0.1852157    0.1768906 -54.58 0.0005401242    1.010    0.010
        54 -10.1236      3.1136    133.1213   1.1739383654e+02   4.6916442297e+01    0.2605992    0.1315131  57.67  0.001281101    2.319    0.569
        55 -10.3389     12.0055    129.7562   1.1444292838e+02   4.7149657531e+01     0.192022    0.1232396  83.13 0.0008291801    1.615    0.381
        56  -9.8012     28.5219    128.1309   1.0925610582e+02   4.6235520432e+01    0.1974031    0.1147485 -67.12 0.0003695246    1.464    0.317
        57 -10.8317     24.2945    121.8908   1.0961637035e+02   4.8148292365e+01    0.2173307    0.2129316 -76.97 0.0004147218    1.157    0.136
        58 -10.1932     17.9658    121.7173   1.1156909456e+02   4.8692006578e+01    0.2342542    0.1428753 -49.46  0.000765342    1.495    0.331
        59 -11.0454     10.5164    120.5445   1.1371426949e+02   4.9506233453e+01     0.276241     0.173442 -56.08  0.001142405    1.347    0.257
        60  -9.8414     69.1782    116.8219   9.4197106554e+01   4.4328498773e+01    0.2012861    0.1619608 -32.01 0.0002654883    1.289    0.224
        61 -10.3050      1.9861    114.0724   1.1552626914e+02   5.1591118511e+01    0.1895541    0.1501679 -67.40 0.0003159402    1.011    0.011
        62  -9.2150    139.3605    112.1867   7.2426649393e+01   3.2252727045e+01    0.2135604    0.1446943 -53.11 9.485282e-05    1.565    0.361
        63  -9.5604    127.5625    112.5330   7.5609731562e+01   3.4724847732e+01    0.1553284    0.1520012 -38.57 8.885279e-05    1.019    0.019
        64 -10.4354     65.0654    110.0585   9.3979056072e+01   4.6559221124e+01    0.2430504    0.2057386 -68.67 0.0003813419    1.221    0.181
        65 -10.7319     13.3180    109.0153   1.1117135133e+02   5.2123660253e+01    0.1866075    0.1427839 -66.47  0.000486366    1.083    0.077
        66 -10.7974      2.7982    109.2700   1.1464379535e+02   5.2700327173e+01    0.1835841    0.1504804  57.35 0.0008838617    1.422    0.297
        67 -10.1298     26.6750    107.3143   1.0640176963e+02   5.1526780956e+01    0.1312545   0.09672731  71.74 0.0003158722    1.665    0.399
        68 -10.6685     57.7186    107.7463   9.5902571244e+01   4.8108562886e+01    0.2397243    0.1776791  21.28 0.0007017932    1.507    0.337
        69 -10.0831     17.2179    104.6538   1.0915755825e+02   5.2907368408e+01    0.1595378    0.1175864 -10.03 0.0002546422    1.617    0.381
        70  -9.4633    186.7375    103.0312   5.9462104757e+01   2.3401794237e+01    0.1936916    0.1250272 -40.34 0.0006337703    1.474    0.321
        71 -10.2328      3.2142     95.4527   1.1250025349e+02   5.5961523683e+01    0.2212886    0.1401542 -66.33  0.000281838    1.269    0.212
        72 -12.1922     20.7494     92.9068   1.0575476654e+02   5.5449286641e+01    0.3811316    0.2369832 -38.17 0.0005000759    1.516    0.341
        73 -10.6007     24.3502     88.1253   1.0342417135e+02   5.6285881001e+01    0.4070903     0.191322 -55.21  0.001950101    1.701    0.412
        74 -11.9349    125.2315     93.3068   7.0870698898e+01   3.9329539726e+01    0.2705939    0.2659791  24.01 0.0002173921    1.025    0.024
        75  -9.5194     78.9390     93.9834   8.5169822706e+01   4.8204255448e+01    0.2234398    0.1676925 -12.88 0.0003838123    1.567    0.362
        76 -11.6728     57.9726     91.6363   9.1826531769e+01   5.1873212713e+01    0.3221343    0.2505133 -27.19 0.0003943646    1.281    0.219
        77 -11.5913     10.3814     86.3913   1.0833032470e+02   5.7674450801e+01    0.3577026    0.2471928 -86.17 0.0009473808    1.652    0.395
        78 -10.4783     64.5085     88.0579   8.8504210558e+01   5.1772440778e+01    0.3323408    0.1312675 -51.38  0.001259287    2.354    0.575
        79 -10.2265     50.8086     91.7995   9.4460330875e+01   5.2751322394e+01     0.183841    0.1663531  79.88 0.0009810365    1.350    0.259
        80  -9.8779     28.7746     91.9809   1.0261002544e+02   5.5013600095e+01    0.2233241    0.1574071  37.67 0.0008728535    1.672    0.402
        81 -10.6326      6.9516     91.1825   1.1046514040e+02   5.6760577264e+01    0.2197779    0.1401288 -56.44            0    1.233    0.189
        82 -10.2125     44.5803     89.6612   9.6206625310e+01   5.3975495870e+01    0.2879794    0.1830957  59.53  0.001313388    2.445    0.591
        83  -9.1852     84.9848     88.0449   8.1431154347e+01   4.8479825879e+01    0.1712816    0.1611209 -14.44 0.0009464462    1.014    0.014
        84  -9.6321     19.2277     86.8785   1.0509231953e+02   5.6970125566e+01    0.1726057   0.09366049 -64.50 0.0008629468    1.625    0.385
        85  -9.6016    124.4651     86.4630   6.9054679079e+01   4.0874129887e+01     0.152061    0.1477742   4.55 0.0001101684    1.011    0.010
        86 -11.8279     55.4142     85.7725   9.1170141706e+01   5.3540380100e+01    0.2479844    0.2359468  25.89 0.0002480443    1.182    0.154
        87  -9.3054     34.6886     84.6456   9.8687567178e+01   5.6165455790e+01    0.1465481   0.08522437 -33.31 0.0004941092    1.730    0.422
        88  -9.7956    146.0201     83.3505   6.2713832569e+01   3.6540932848e+01    0.2091729    0.1874598  54.36 0.0003902281    1.116    0.104
        89 -10.0429    139.1223     82.8362   6.4209263783e+01   3.8245082352e+01    0.2179172    0.2046591  85.82            0    1.142    0.124
        90  -9.3164     76.3875     83.2671   8.2915240375e+01   5.0974661600e+01    0.1505247    0.1085034  -4.87 0.0006985521    1.704    0.413
        91  -9.8003     42.6160     82.4674   9.5090730979e+01   5.5831912316e+01    0.3062015    0.1165529 -55.30  0.001222862    2.332    0.571
        92 -10.0043     66.8193     92.1230   8.8816087218e+01   5.0519279599e+01    0.2727282    0.1905224  45.72  0.001341013    1.654    0.395
        93  -9.7561    250.2652     80.9957   4.4675200000e+01   1.3748846913e+01    0.1696325   0.09653855 -39.47 0.0005643301    1.492    0.330
        94  -9.7818     88.6983     79.8322   7.7691727233e+01   4.9533600914e+01    0.3635835    0.2397546  77.01  0.001319557    3.461    0.711
        95  -9.3818    124.4060     79.2769   6.6886556042e+01   4.2273610779e+01    0.1939204    0.1431399 -49.14 0.0003460948    1.440    0.306
        96 -11.0426      7.6831     76.8769   1.0748876352e+02   6.0003312425e+01    0.3317083    0.1991966  58.96  0.001029916    2.581    0.613
        97  -9.9958    176.6978     76.9325   5.4507637711e+01   3.0395519472e+01    0.2118632    0.1911645 -51.91 0.0008093691    1.080    0.074
        98 -10.1869    159.8070     77.0627   5.7857666762e+01   3.4402464756e+01    0.2449903    0.2097811  56.33 0.0003188768    1.160    0.138
        99 -11.3290     54.5999     75.4906   8.8509179843e+01   5.5895828990e+01    0.4179537    0.2853776 -17.20 0.0005189906    1.639    0.390
       100  -9.8230     28.1346     77.1095   9.9372851133e+01   5.8474350922e+01    0.1915409    0.1449807 -34.37 0.0003113962    1.170    0.145
       101 -11.4517     15.6095     75.3581   1.0398499299e+02   5.9848008802e+01    0.3714675    0.2341239  15.47  0.002124342    1.814    0.449
       102 -11.3090     35.5087     73.7531   9.5522586002e+01   5.8513729461e+01     0.435931    0.3527406  28.32  0.002640134    1.406    0.289
       103 -12.5963    106.0296     70.9153   6.9391070534e+01   4.7832538162e+01     0.335405    0.3114617 -83.41 0.0005206548    1.290    0.225
       104  -9.6107    100.0255     70.5075   7.1068471608e+01   4.9150971020e+01    0.2094573    0.1849571 -29.21  0.001133382    1.121    0.108
       105 -11.0179     10.3822     69.5899   1.0479834011e+02   6.1463810592e+01    0.3588653    0.1620456 -55.00  0.001047421    1.695    0.410
       106 -10.8089     45.8344     69.6076   9.0156237912e+01   5.8251975611e+01    0.2496389    0.2061291  13.34 0.0006354042    1.254    0.203
       107 -10.7784      5.1135     68.4174   1.0673025736e+02   6.2022211504e+01    0.2422337     0.154146 -84.49  0.001327903    2.009    0.502
       108  -8.7697    120.2802     68.7030   6.4658641953e+01   4.5125973074e+01     0.142482    0.1184335 -77.77 0.0001783899    1.538    0.350
       109 -10.3870     80.6040     67.2035   7.6300607487e+01   5.3496223915e+01    0.3112451    0.2266881 -16.95 0.0009741207    1.486    0.327
       110 -10.1922     77.5860     67.1887   7.7347485671e+01   5.4032441924e+01    0.2919206    0.1938171 -30.71 0.0009825589    1.499    0.333
       111 -10.0769     51.9158     65.9832   8.6583443805e+01   5.8226297362e+01    0.2026393    0.1732697 -22.63 0.0003108612    1.018    0.018
       112 -10.9370     14.8361     63.7366   1.0146573070e+02   6.2439189159e+01    0.3281128    0.2347392 -39.44  0.001021127    1.134    0.118
       113  -9.4317      1.4411     66.4417   1.0783741250e+02   6.2639225455e+01    0.1223726   0.09470052 -48.21 9.892879e-05    1.000    0.000
       114 -10.4595     96.7960     64.0583   6.9902849537e+01   5.0980775599e+01    0.2610221    0.1978835  31.84  0.001334073    1.302    0.232
       115 -10.6014     62.7015     62.4159   8.1177940615e+01   5.7386477636e+01     0.276563    0.1998161 -34.66  0.001490943    1.283    0.221
       116 -10.7038      4.4075     62.1921   1.0560618700e+02   6.3406838298e+01    0.1647731    0.1042675 -72.42  0.000791595    1.694    0.410
       117  -9.8162     38.8600     61.4973   9.0486661623e+01   6.0731958728e+01    0.1847874    0.1248831  18.96   0.00102002    1.557    0.358
       118  -9.4998     41.4822     58.4938   8.8397292822e+01   6.1029608782e+01    0.1955944    0.1052072 -38.40  0.000106776    1.656    0.396
       119 -13.0982     20.5455     57.8313   9.7316205042e+01   6.3246403138e+01    0.4074436    0.2499996 -56.71   0.00111399    1.538    0.350
       120 -10.9363     83.5257     56.5135   7.1565100634e+01   5.4895926264e+01    0.3917211    0.2749893 -53.43  0.001938272    1.806    0.446
       121 -11.7720     86.7231     54.1983   6.9660996746e+01   5.4676976552e+01    0.4570012      0.30485  21.64  0.001227092    1.671    0.402
       122 -10.9045      9.9808     59.1481   1.0239442982e+02   6.3730504191e+01    0.2580063    0.1915343  32.96  0.001639025    1.692    0.409
       123 -10.2115     49.1778     58.3142   8.5127535156e+01   6.0102628377e+01    0.2948265    0.1521548  32.78   0.00140634    2.023    0.506
       124 -10.9885      4.7530     57.5455   1.0431668588e+02   6.4372411295e+01     0.200963    0.1465191 -28.13  0.001273072    1.223    0.182
       125 -10.0665     71.6066     56.7317   7.5837634898e+01   5.6997849341e+01    0.2349377    0.1260667 -37.94 0.0008297501    1.809    0.447
       126 -10.2529     32.4151     56.3956   9.1612314159e+01   6.2446083694e+01    0.3027776    0.1359282 -29.44  0.001285214    2.569    0.611
       127 -10.4857     96.3255     55.8883   6.7205738254e+01   5.2478838421e+01     0.259775    0.1961306  34.10 0.0005141546    1.275    0.216
       128 -10.7733    114.5768     53.8354   6.1252528533e+01   4.8871939620e+01    0.2973391    0.2579267   7.68 0.0007448847    1.202    0.168
       129 -11.7087     66.0467     52.7610   7.6455037808e+01   5.8628380463e+01    0.4124879    0.2062895  38.06  0.001698214    2.007    0.502
       130  -9.9355    149.3035     52.2457   5.2698430836e+01   4.0919610628e+01    0.2533742    0.1691684  56.07 0.0005752698    1.414    0.293
       131 -11.2910    106.5022     50.1771   6.2188038107e+01   5.1225320915e+01    0.4774298    0.2844585  -5.11   0.00131717    2.680    0.627
       132  -9.7771      4.0090     50.9611   1.0292858873e+02   6.5773697665e+01    0.2051002    0.1019655 -35.27 0.0006246064    1.692    0.409
       133 -10.8858     10.2894     47.6325   9.8992561457e+01   6.6060084536e+01    0.4084533    0.3022029   4.46  0.002701641    1.414    0.293
       134  -9.8619     37.5039     48.8789   8.6785524435e+01   6.3333987941e+01    0.2563264    0.1501346   6.73  0.001290361    1.999    0.500
       135 -10.1282    101.9555     48.2818   6.2806072427e+01   5.2497310772e+01    0.1989357    0.1659887  38.67 0.0004174693    1.122    0.109
       136  -9.6265     52.6165     48.1851   8.0051259880e+01   6.1495131197e+01      0.24457   0.09492201  37.21  0.001014537    2.647    0.622
       137 -10.5832    152.8446     45.3551   4.9931846723e+01   4.1028178988e+01    0.4210781    0.2467735 -66.20  0.001348821    2.478    0.596
       138  -9.8654    136.0201     46.6346   5.3703632618e+01   4.4930258273e+01     0.211035    0.1695067  58.94  0.001126947    1.181    0.154
       139 -10.5761     78.9569     45.7159   6.9117545148e+01   5.7526967365e+01    0.2220908    0.1872016 -30.61 0.0002701215    1.234    0.189
       140  -9.5806     30.9879     46.0210   8.8697400761e+01   6.4586100664e+01    0.1537752    0.1249677 -20.24  0.000465533    1.008    0.008
       141 -11.0752     17.5702     44.3707   9.4445114138e+01   6.6153162731e+01    0.3893301    0.2334158  34.17  0.002221545    2.061    0.515
       142 -10.5299     25.5027     43.9103   9.0495531748e+01   6.5532283834e+01    0.2518645    0.2041113 -73.56  0.001093547    1.911    0.477
       143  -9.8602     69.0214     42.0285   7.1227232295e+01   5.9898637087e+01    0.2025542    0.1756744   7.47            0    1.016    0.016
       144 -10.2752     59.1908     41.7015   7.4865223692e+01   6.1589760003e+01    0.2307535    0.1635084  42.48 0.0007240454    1.575    0.365
       145 -10.3667     35.8739     41.7541   8.4866030727e+01   6.4811277814e+01    0.2174907    0.1763456 -13.58 0.0006669403    1.021    0.021
       146  -9.9113     76.4484     49.6072   7.1468806629e+01   5.7366077927e+01    0.2305172    0.1984897  31.28  0.000538995    1.160    0.138
       147  -9.9300    140.1350     40.7734   5.0974710308e+01   4.4731644885e+01    0.2759885    0.1620526  76.05  0.001192933    2.094    0.523
       148 -10.8292    128.1101     38.8322   5.2873999609e+01   4.7867866251e+01     0.273394    0.2008632 -49.87  0.000805284    1.554    0.356
       149  -9.7975     43.0113     40.5251   8.1179848630e+01   6.4135014474e+01     0.183677    0.1170536  26.55  0.000962787    1.557    0.358
       150  -9.6261    168.4734     38.9686   4.5402002012e+01   3.8053516243e+01    0.1920227    0.1351499 -34.31 0.0004344655    1.496    0.331
       151  -9.7910    152.3360     39.0415   4.8123712141e+01   4.1986478838e+01    0.1878518    0.1804539 -47.86 0.0004983488    1.111    0.100
       152 -11.9522    121.2290     37.3391   5.3924497694e+01   4.9680651554e+01     0.410543      0.36185  32.61  0.001171759    1.099    0.090
       153 -10.4418     22.0911     38.2633   9.0068090590e+01   6.6887192714e+01    0.2047893    0.1471713 -36.74 0.0006109224    1.193    0.161
       154 -10.5755     96.9977     37.6769   6.0334317026e+01   5.5071130236e+01    0.2416389    0.1974378 -19.40  0.001379246    1.264    0.209
       155 -10.8059     47.6259     33.1022   7.6114604452e+01   6.4694458594e+01    0.4036756    0.3087575  35.75  0.002482703    1.444    0.307
       156 -10.9931     45.5153     26.7699   7.4281586219e+01   6.5940133069e+01    0.3613948    0.2039445  30.40  0.001322942    1.680    0.405
       157 -12.9711     39.8693     32.4401   7.9274236847e+01   6.5868594477e+01    0.3829207    0.2718018 -17.84 0.0005303275    1.245    0.197
       158  -9.7061     35.1517     28.8713   7.9931745876e+01   6.7031957804e+01    0.1672199     0.131481  -2.86            0    1.055    0.052
       159 -10.8635     91.1025     33.9045   6.0624978049e+01   5.6812521294e+01    0.4238048    0.2724047   5.71  0.001501777    1.976    0.494
       160 -10.1440      7.4863     34.4142   9.6052257670e+01   6.8768757443e+01    0.1893887    0.1836189  40.78  0.001009137    1.523    0.343
       161 -10.8912      2.1673     35.0017   9.9027803591e+01   6.8996026085e+01    0.2104623    0.1876944  10.76  0.001340341    1.394    0.282
       162  -9.5524    241.8188     33.1575   3.5439693180e+01   2.2115834463e+01    0.1433284    0.1359461 -61.84 0.0003138303    1.271    0.213
       163  -9.1300     55.3367     33.2788   7.2955640439e+01   6.3500473179e+01    0.1331632   0.08810753   6.06 0.0003346704    1.614    0.381
       164 -10.3710     17.3898     32.6676   9.0284460185e+01   6.8305450935e+01    0.3134399    0.1584704   4.17  0.001305949    2.325    0.570
       165 -10.9323     27.2383     34.7021   8.6171044758e+01   6.6996866334e+01    0.3082948    0.1726673 -20.73  0.001034262    1.807    0.447
       166  -9.9212     73.3385     32.2758   6.5726118619e+01   6.0537726651e+01    0.1374866   0.09075361  17.12 0.0002174234    1.612    0.380
       167  -8.9732    166.6308     31.2825   4.3517632761e+01   3.9450317059e+01    0.1431991   0.09642492 -74.61 0.0007015686    1.696    0.410
       168  -9.3816    128.2317     30.9044   5.0194695719e+01   4.8817013632e+01     0.341543    0.1832956  80.56  0.001243807    2.892    0.654
       169 -11.6788      9.5935     29.3257   9.3063675987e+01   6.9528889006e+01    0.4133992    0.2504338  42.98  0.002308235    2.701    0.630
       170 -10.2380    225.0509    247.6688   8.1944546526e+01  -8.5549394299e+00    0.2451258    0.1546305 -28.03  0.001535165    1.561    0.360
       171  -8.6346      6.4594     20.5646   9.1251709705e+01   7.1254239407e+01    0.2815595    0.1750034 -26.52   0.00183246    1.268    0.212
       172 -10.9817     69.6177     27.5608   6.5063348191e+01   6.1849106358e+01    0.3626493    0.2641305 -51.90  0.001981089    2.018    0.504
       173 -10.0415    141.7377     28.0363   4.6637291034e+01   4.5896427798e+01    0.4051542     0.196157  85.85  0.001249003    3.893    0.743
       174 -10.6578    113.8002     26.1259   5.1706065824e+01   5.2748540876e+01    0.2788079    0.2020739 -37.04  0.001188343    1.536    0.349
       175  -9.6974    102.0386     25.4900   5.4342762029e+01   5.5480045260e+01    0.2158327    0.1216211  55.43  0.000505963    1.633    0.388
       176 -11.2430     15.0292     22.1508   8.7189136251e+01   7.0277970301e+01    0.4356557    0.2904686  27.42  0.002824539    1.683    0.406
       177  -9.2636     20.1732     17.4061   8.2265851115e+01   7.0499442665e+01    0.2697537    0.1384444 -26.46  0.001503734    1.767    0.434
       178  -9.6670     36.1187     22.9655   7.6839328616e+01   6.7790517716e+01    0.2348841    0.1439217  33.30  0.001370906    1.650    0.394
       179 -12.3903      9.7392    245.1116   1.2392262640e+02   2.1323238150e+01    0.3743377    0.2672172  50.00   0.00276474    1.258    0.205
       180 -12.1043      4.5994    240.5614   1.2461797780e+02   2.2696552421e+01    0.4669676    0.1811299  44.20  0.002675108    2.017    0.504
       181  -9.3772     54.5087     22.0026   6.8344689298e+01   6.5192043468e+01    0.1706458    0.1126204 -21.46 0.0003455209    1.461    0.315
       182  -9.7869    190.1171     21.0871   3.7751613045e+01   3.4979844214e+01    0.1810774    0.1332822 -74.77 0.0004184889    1.291    0.225
       183 -10.1506    181.5173     20.9944   3.8726119548e+01   3.7027089289e+01    0.1809114    0.1284766 -31.17 0.0005217462    1.546    0.353
       184  -9.5149    100.9832     21.2067   5.2982369580e+01   5.6181520099e+01    0.1961841     0.135954  12.66 0.0009720623    1.639    0.390
       185 -10.4991     30.5432     21.0774   7.8659446336e+01   6.8773618884e+01    0.2445635    0.1488974  22.13  0.001223165    1.545    0.353
       186  -9.1578     84.0029     21.0000   5.7584942451e+01   5.9831518310e+01    0.2133204   0.06718095  52.98 0.0007964064    2.901    0.655
       187  -9.9738    229.7865    247.8975   8.1126798445e+01  -9.1960017890e+00    0.1728165    0.1256749   0.25  0.000510322    1.109    0.098
       188  -9.3515    170.6117    247.1971   9.2291688170e+01  -7.9888829995e-01      0.16047    0.1110837 -25.41 0.0006357763    1.647    0.393
       189  -9.4830    116.1525    246.7560   1.0332925533e+02   7.5136636038e+00    0.1574737    0.1397943  10.83  0.001035747    1.292    0.226
       190 -10.5238      5.8390    250.1853   1.2483871670e+02   2.0745207085e+01    0.1955435    0.1398021  43.68  0.001108887    1.391    0.281
       191  -9.3951     39.6737    243.3446   1.1831242317e+02   1.8458985523e+01    0.1283347   0.06618593  63.23 0.0007050608    1.743    0.426
       192  -9.9768     59.1286     18.9970   6.5161464740e+01   6.4783585983e+01    0.3190927    0.1539181  42.69  0.001593211    1.903    0.475
       193 -10.7303    209.0056     18.4552   3.5175864023e+01   3.0920155795e+01    0.1864619    0.1106337  76.77 0.0005145988    1.555    0.357
       194 -10.7145    140.8062     18.0464   4.3652582125e+01   4.7184181289e+01    0.2530953    0.1934057  68.45 0.0006962656    1.176    0.150
       195  -9.8522     97.1376     21.9202   5.4252234428e+01   5.6950705127e+01    0.1798013    0.1670516  45.46  0.001140602    1.124    0.110
       196 -10.0994    125.1864     17.2052   4.6178944353e+01   5.1012472450e+01    0.1963757    0.1584585  43.30  0.000357569    1.161    0.138
       197  -9.5017    202.4494    240.4665   8.5003278521e+01  -4.4689995391e+00    0.1256246    0.1000084   9.70 0.0001201722    1.024    0.023
       198  -9.8287     35.9312    240.4720   1.1883084619e+02   1.9450281230e+01    0.1677216   0.09742628  40.72 0.0005310965    1.542    0.351
       199 -11.0929     14.6750    239.5420   1.2275149712e+02   2.1909358439e+01    0.2034591    0.1008354  73.87  0.001180146    1.789    0.441
       200 -10.2552    202.4801     16.4398   3.5330307336e+01   3.2620698771e+01    0.1269963     0.105779 -80.30 4.472051e-05    1.017    0.017
       201  -9.7306    117.5118    239.5213   1.0216825336e+02   8.6195250255e+00     0.128723    0.1101029  42.06 7.247181e-05    1.010    0.010
       202  -9.2838    148.7612    237.9953   9.5416257560e+01   4.0563892810e+00    0.1554671    0.1104902 -47.42 0.0008866244    1.630    0.387
       203 -10.0386     91.0820    237.3055   1.0745370348e+02   1.2954133775e+01    0.1854582    0.1672234 -56.61  0.000436236    1.319    0.242
       204 -10.5109    156.5008     15.2019   4.0384816826e+01   4.3659144148e+01    0.3371802    0.1468292  63.19  0.001515154    1.947    0.486
       205 -11.6163     25.7337    236.1229   1.2049224540e+02   2.1437283801e+01    0.2563594    0.1767781  38.65 0.0009072095    1.467    0.318
       206  -9.3340      7.5270     14.3483   8.7887940020e+01   7.2160146989e+01    0.1149548   0.08121014 -13.63 -8.487317e-05    1.099    0.090
       207 -10.2813    222.4505     13.5192   3.2900071227e+01   2.8495559479e+01    0.1218838   0.09933531 -73.79 4.508815e-05    1.007    0.007
       208  -9.6961    249.3140    233.9020   7.5368557959e+01  -9.8461570425e+00     0.162339    0.1187551  -7.62 0.0004605111    1.070    0.066
       209 -11.9820      3.9163    232.6718   1.2436622351e+02   2.4310341695e+01    0.2478011    0.1764291  71.04  0.001799769    1.047    0.045
       210 -11.6182      9.5286    231.5208   1.2327445223e+02   2.4008415058e+01    0.1981305    0.1436826  58.15 0.0006495256    1.153    0.133
       211 -12.5211      9.7357    227.4310   1.2301664583e+02   2.4816033638e+01    0.3788159    0.2988015  82.09  0.002801634    1.109    0.099
       212  -9.0988    243.4587    230.4587   7.5790031600e+01  -8.6577930968e+00    0.1206598   0.09190594  -1.69 0.0002241625    1.003    0.003
       213  -9.6894    209.4888    229.5273   8.1842796152e+01  -3.8739684101e+00    0.1276311    0.1035395   6.50 1.398199e-05    1.002    0.002
       214 -10.7706    140.4094    228.2781   9.5773837617e+01   7.1113943055e+00    0.2857576    0.2133616 -70.51  0.001582382    1.772    0.436
       215  -9.5998     47.5374    229.6082   1.1573378026e+02   2.0282210817e+01    0.1244849   0.09403294  63.76 0.0007976991    1.093    0.085
       216 -10.0209    223.1415    226.8692   7.8818402824e+01  -5.4339763547e+00    0.1762558    0.1510183   2.01 0.0003734753    1.154    0.133
       217 -11.2501      1.5068    224.9201   1.2443114594e+02   2.6093155426e+01    0.2567262    0.1466137  81.96  0.001127765    1.427    0.299
       218 -11.0236      2.5130    220.5154   1.2401898768e+02   2.6907453624e+01    0.3042512    0.1243711  85.17  0.001277475    2.280    0.561
       219  -8.9885    167.3099    221.6836   8.9012219887e+01   3.9418171217e+00    0.1271541    0.1040665  64.10 0.0004583705    1.636    0.389
       220 -10.4221      8.5656    217.9406   1.2271226721e+02   2.6890713558e+01    0.2550167    0.2051059  23.25  0.001753775    1.666    0.400
       221  -9.1030     37.3403    216.7344   1.1679715162e+02   2.4185819333e+01    0.1292621   0.07344224  61.29 0.0003099937    1.597    0.374
       222  -9.8439    205.6822    212.5881   7.9609920686e+01  -6.6103516676e-01    0.2238763    0.1444436 -24.46 0.0007337183    1.548    0.354
       223  -9.8953     15.8586    213.4557   1.2098871511e+02   2.7148851814e+01    0.1658645    0.1021578  40.64  0.001018591    1.571    0.363
       224  -9.1777    249.3185    211.3487   7.1392382361e+01  -6.7859890473e+00    0.1305562   0.07869685  -5.06 0.0007048355    1.733    0.423
       225  -9.5743    209.4070    211.2502   7.8642464749e+01  -1.0223416672e+00    0.1710711    0.1203044 -43.11 0.0006694883    1.610    0.379
       226  -9.9212     20.2130    209.8724   1.1985449326e+02   2.7495113670e+01    0.1907631    0.1262769  67.11 0.0007686475    1.282    0.220
       227 -10.8643      3.3037    206.4014   1.2309289657e+02   2.9824822986e+01    0.1966917    0.1283168 -76.09  0.001273749    1.373    0.272
       228  -9.4799    193.4232    202.2295   8.0154306010e+01   3.0619302034e+00    0.1755751    0.1290638 -48.47 0.0005453911    1.595    0.373
       229 -10.2193     23.8417    196.6639   1.1808413759e+02   3.0072959173e+01    0.2867005    0.1663757 -50.64  0.001513734    2.078    0.519
       230  -9.9457     13.9122    192.6260   1.1995920129e+02   3.1937666309e+01    0.2069154    0.1269899  70.22 0.0004992348    1.457    0.314
