#   1 NUMBER                 Running object number                                     
#   2 MAG_AUTO               Kron-like elliptical aperture magnitude                    [mag]
#   3 X_IMAGE                Object position along x                                    [pixel]
#   4 Y_IMAGE                Object position along y                                    [pixel]
#   5 X_WORLD                Barycenter position along world x axis                     [deg]
#   6 Y_WORLD                Barycenter position along world y axis                     [deg]
#   7 A_WORLD                Profile RMS along major axis (world units)                 [deg]
#   8 B_WORLD                Profile RMS along minor axis (world units)                 [deg]
#   9 THETA_WORLD            Position angle (CCW/world-x)                               [deg]
#  10 FWHM_WORLD             FWHM assuming a gaussian core                              [deg]
#  11 ELONGATION             A_IMAGE/B_IMAGE                                           
#  12 ELLIPTICITY            1 - B_IMAGE/A_IMAGE                                       
         1 -11.7703     76.1719     21.4280   8.6406379379e+01   6.0551111480e+01    0.4781599    0.2728578  45.22  0.002037644    1.607    0.378
         2 -10.7648     13.6936     16.0035   1.0851401634e+02   6.9595934163e+01    0.3178576    0.1630029  24.26  0.001968514    1.939    0.484
         3 -10.0658     38.6723      2.2292   9.1561710778e+01   6.8392946206e+01    0.2711027    0.1238969 -17.70  0.001502961    2.276    0.561
         4 -11.2610     40.1443     18.6168   9.8095616893e+01   6.6397325012e+01     0.456332    0.3389671   8.66  0.002295649    1.106    0.095
         5 -10.7974     22.5016      9.1720   1.0155976139e+02   6.9607634259e+01    0.3631041    0.1845377  12.81  0.002136775    2.061    0.515
         6 -11.7431     30.3448      7.5629   9.7402204977e+01   6.8903422693e+01    0.3318116    0.2233515  19.65  0.001203806    1.270    0.213
         7 -11.5663     35.1284     12.8453   9.7703281892e+01   6.7718948519e+01    0.3112383    0.2449449 -21.04  0.001277837    1.320    0.242
         8 -12.1294     40.1953      8.4716   9.3739845136e+01   6.7552403736e+01    0.4097292    0.2472407   2.75  0.001130433    1.611    0.379
         9 -10.7701     99.9953     18.7006   7.8714519472e+01   5.6284374635e+01     0.342746    0.2533313 -61.83  0.001944299    2.045    0.511
        10 -10.0578     57.7397     17.2953   9.0888121777e+01   6.4063700644e+01     0.356104    0.1592367 -45.98   0.00148313    4.328    0.769
        11 -11.5758     92.1459      9.0462   7.7218101905e+01   5.8764320529e+01    0.3581193    0.3220793  21.56  0.002537865    1.124    0.110
        12 -10.5376     87.3851     11.9862   7.9557855166e+01   5.9429880431e+01    0.2930162    0.2396017  44.84  0.001422017    1.153    0.133
        13 -11.5107    155.9119     13.7228   6.6107921238e+01   4.4264442305e+01    0.4337111    0.2627369  38.09  0.002252985    1.917    0.478
        14 -10.5503    119.4116     12.0889   7.2054978301e+01   5.2784693421e+01    0.2629572    0.1656755  62.19 0.0002735153    1.425    0.298
        15 -10.9522     90.1809     16.1017   8.0332836462e+01   5.8497534616e+01    0.2729522     0.195018   7.03 0.0004106267    1.467    0.318
        16  -9.9675     10.1981      1.5850   1.0390298962e+02   7.1726242620e+01    0.1759749    0.1154222  -9.52 0.0007356093    1.146    0.128
        17 -11.5304     11.0158      6.8142   1.0586947212e+02   7.1024315095e+01    0.4339981    0.3469098  40.39  0.003249959    2.200    0.545
        18 -10.2053      2.7464      2.6789   1.0811122348e+02   7.2237720944e+01    0.2040532    0.1366969   8.83  0.001139311    1.317    0.241
        19 -11.3240      4.4103      9.8168   1.1038432530e+02   7.1192297084e+01     0.264947    0.1698294  13.21 0.0002177184    1.471    0.320
        20 -10.9156      2.5030      6.4645   1.0990166214e+02   7.1778109379e+01    0.1982972    0.1391153  -9.54 0.0006058611    1.064    0.061
        21 -11.4967    150.8593      7.3489   6.5103791465e+01   4.6043476661e+01    0.3942111    0.2723933  28.95  0.001512242    1.779    0.438
        22 -12.2997     56.5010      5.5358   8.6413861903e+01   6.5455341323e+01     0.533998    0.3692667   4.36  0.002752147    1.311    0.237
        23  -9.9275     50.1968      1.9791   8.7092800788e+01   6.6757990753e+01    0.2435147    0.1354035  39.63  0.001517766    1.569    0.363
        24 -10.4921    210.2490      7.5925   5.8031287638e+01   3.2157344093e+01    0.2162218    0.1296152 -50.66  0.001230837    1.610    0.379
        25  -9.0959    124.4755      8.5263   6.9915464746e+01   5.1976620093e+01    0.1280878    0.1038097  48.91  9.04542e-05    1.063    0.060
        26 -11.7854     80.2296      1.9216   7.7654588663e+01   6.1649219045e+01    0.3674206    0.1706216  49.52   0.00198403    1.759    0.431
        27 -11.3759     71.3911      6.6190   8.2049880917e+01   6.2864283246e+01    0.8031306    0.2197633  49.27  0.003396959    3.015    0.668
        28 -11.1302    194.2554      4.2402   5.8881848141e+01   3.6171170569e+01    0.3387871    0.1540008 -55.73  0.001618586    2.366    0.577
        29  -9.8006    235.6004      4.2446   5.5159474596e+01   2.6915020172e+01    0.1425458    0.1134098 -30.16 0.0009520169    1.690    0.408
        30 -10.8931    160.2183      2.5902   6.2485355635e+01   4.4274143584e+01    0.2801263    0.2224613 -62.35  0.001795492    1.360    0.265
        31 -11.2188    130.1567      3.4926   6.7318192235e+01   5.1121623585e+01    0.2493124    0.1809521  60.93    0.0010037    1.142    0.125
        32 -10.6381    120.7587      4.1195   6.9217561811e+01   5.3164497765e+01    0.2603007    0.1432986  51.43 0.0003632002    1.477    0.323
        33 -10.6335     19.8065      2.2671   9.9664575360e+01   7.0687341484e+01    0.2128616     0.139057   5.09 0.0007715839    1.228    0.186
        34  -9.8395    230.5123      3.4830   5.5412672812e+01   2.8093889874e+01    0.1219438   0.09254104 -80.80 0.0002431348    1.015    0.015
        35 -10.4825    172.1639      2.8662   6.1036069708e+01   4.1453944242e+01    0.1846604    0.1471008 -81.36 0.0003921178    1.194    0.162
        36 -10.1200     16.5511      3.4726   1.0173102518e+02   7.0891987914e+01    0.1767077    0.1056867 -28.92 4.874338e-05    1.511    0.338
        37  -9.6567    100.0231      1.6442   7.2661458012e+01   5.7776807071e+01    0.1711306    0.1326497  49.62 0.0004861128    1.084    0.078
        38  -9.3370    204.2727      1.3264   5.7242359137e+01   3.4157591107e+01    0.1120558   0.08610666  49.80 0.0001845364    1.581    0.368
        39  -9.3761     67.4537      1.4786   8.1155641233e+01   6.3990295530e+01    0.1172333   0.08978989  25.21 0.0001546682    1.033    0.032
        40  -9.6311     29.2451    129.0476   1.3231643255e+02   4.6245419446e+01     0.284906    0.1441154  88.91  0.001153591    3.066    0.674
        41 -11.8295     17.5146    249.1508   1.4684504179e+02   2.0513711436e+01     0.289966    0.2132712  19.19  0.001893524    2.515    0.602
        42 -12.2806      5.0815    240.5735   1.4840477344e+02   2.3517353781e+01    0.4702871    0.2172621  59.28  0.002861961    1.733    0.423
        43 -11.6054      3.1363    248.9286   1.4917452383e+02   2.2092452058e+01    0.4049805    0.2514372  58.95  0.002924057    1.294    0.227
        44 -12.2985      9.0847    245.1806   1.4800506747e+02   2.2198637923e+01    0.4296323    0.2286285  26.64  0.002405561    3.126    0.680
        45 -11.6556     23.4510    121.2770   1.3270951560e+02   4.8571148871e+01    0.5222257    0.2766561  87.70 0.0009282024    2.789    0.641
        46 -10.5282      3.3752    118.8950   1.3803808364e+02   5.0568460939e+01    0.1942528    0.1698293 -30.40  0.000694918    1.343    0.255
        47 -10.2244      5.5081    113.4441   1.3666026472e+02   5.1666919798e+01    0.1414225    0.1112115  39.13 6.248599e-05    1.574    0.365
        48 -10.2287    249.4935    111.9624   7.5943920108e+01   8.0115959531e+00    0.2156782    0.1202038 -42.48  0.001023416    1.564    0.360
        49 -10.0285     65.9634    110.6780   1.1784708201e+02   4.6380694082e+01    0.1895927    0.1837068 -49.00  0.001154358    1.077    0.072
        50 -10.8187     57.5108    108.3618   1.1992521861e+02   4.8023875141e+01    0.3150902    0.2009467 -21.23  0.001485208    2.105    0.525
        51 -11.0781      3.9305    108.9417   1.3644755153e+02   5.2771499229e+01    0.3189758     0.176773  21.35  0.001799658    2.260    0.558
        52 -10.6799     13.1123    108.1460   1.3359185038e+02   5.2359597855e+01      0.19451    0.1373234 -47.67 0.0007895679    1.240    0.193
        53  -9.2763     79.2636    106.9924   1.1289003647e+02   4.5263795363e+01    0.1840589    0.1169602 -51.22 0.0004070149    1.463    0.316
        54 -10.0407     89.4828    105.4749   1.0942091137e+02   4.3931998293e+01    0.1450495    0.1370345 -40.24  8.78256e-05    1.008    0.008
        55  -9.6741     40.5521    105.4847   1.2460697395e+02   5.0615750735e+01    0.1333506    0.1097443 -47.25 5.253058e-05    1.057    0.054
        56  -9.7331    113.5206    102.5124   1.0168344214e+02   4.0103263580e+01    0.1497918    0.1454487 -22.99 0.0001125754    1.022    0.022
        57 -11.0741     57.2855    101.5950   1.1841964273e+02   4.9578169304e+01     0.291919    0.2387213  36.11  0.001254209    1.374    0.272
        58 -11.5681     18.8944     95.4984   1.2949392246e+02   5.4750035841e+01    0.4292432    0.2451806 -89.37  0.002021213    2.800    0.643
        59  -9.1753    129.6798     97.6701   9.6002191405e+01   3.7727829666e+01    0.1563864     0.122207   2.58  0.000704834    1.690    0.408
        60  -8.9871    101.6707     96.6773   1.0345330473e+02   4.3648206493e+01    0.1521911    0.1150557  -6.73 0.0003150902    1.695    0.410
        61 -10.7142     78.9496     94.9734   1.0986140056e+02   4.7950391833e+01    0.2104568    0.1913577 -29.52 0.0003165362    1.027    0.027
        62 -11.0429     27.2605     91.3619   1.2588422463e+02   5.4983574519e+01    0.4498472    0.3268406  49.87  0.002489865    1.805    0.446
        63  -9.9018     25.5551     85.2387   1.2509672979e+02   5.6432990706e+01    0.2005752    0.1677551 -69.62 0.0006753129    1.299    0.230
        64 -10.7339     58.6360     91.2987   1.1541614419e+02   5.1652621774e+01    0.2965117     0.213782 -26.67 0.0002381535    1.432    0.302
        65 -10.8657      1.8333     90.0285   1.3400055337e+02   5.7019013535e+01    0.2591652    0.1258123 -63.88            0    1.611    0.379
        66 -11.4427     11.2034     87.7600   1.3049488913e+02   5.6950464624e+01    0.5432857    0.2314431 -63.81  0.002421359    1.982    0.495
        67 -10.2703     17.5449     88.5002   1.2852426470e+02   5.6360125318e+01    0.3540533    0.1934034 -24.67  0.001496831    2.157    0.536
        68 -11.8335     76.4858     89.2973   1.0908332316e+02   4.9532845549e+01    0.2712271    0.2386511 -29.71 0.0004576384    1.052    0.049
        69 -10.9402     98.7015     89.5545   1.0231600248e+02   4.5677147998e+01    0.2778279    0.1406433  36.28   0.00113543    2.109    0.526
        70  -9.6468     43.8016     89.5746   1.1992018998e+02   5.3777241933e+01    0.1699984    0.1180982  41.41 0.0009469849    1.734    0.423
        71 -10.6773     54.4667     84.7079   1.1506722613e+02   5.3566179905e+01    0.3200916    0.2100309 -52.09 0.0007783263    1.420    0.296
        72  -9.1732     40.3471     87.1972   1.2050407389e+02   5.4646768428e+01    0.1670872    0.1097536 -64.88 -0.000275831    1.631    0.387
        73  -9.2822    124.1937     86.6060   9.4310964378e+01   4.1121210364e+01    0.2112072    0.1375909  36.76 0.0006911092    1.622    0.384
        74  -9.7391     72.0652     84.4468   1.0914332365e+02   5.1206126199e+01    0.3315924    0.1533167 -33.33  0.001297745    2.600    0.615
        75 -10.4685     77.4537     83.3653   1.0708969490e+02   5.0593153087e+01    0.2338531    0.2099067  23.51 0.0005658568    1.154    0.133
        76  -9.3015    129.4184     83.5940   9.2080178613e+01   4.0555318673e+01     0.145922    0.1417349  27.57 5.525722e-05    1.022    0.021
        77 -10.6082      3.7441     82.6377   1.3199631828e+02   5.8474679478e+01    0.2641518    0.1833669 -79.90  0.001496347    1.608    0.378
        78  -9.5623    100.5542     81.7578   9.9488797129e+01   4.6872491718e+01    0.2910437    0.1356165 -38.38   0.00115699    2.186    0.543
        79 -11.3878     63.9019     79.8195   1.1052304703e+02   5.3319987788e+01    0.5245422    0.3835951 -45.43  0.002943784    1.273    0.215
        80 -11.7739     56.1681     75.3780   1.1188210899e+02   5.5235073317e+01    0.4320258    0.2789386  17.74  0.001378929    1.743    0.426
        81  -9.7779    250.2635     81.0034   6.9281774359e+01   1.3151915310e+01    0.1745589    0.1030415 -43.25 0.0006088334    1.503    0.335
        82 -10.1892     89.2798     80.2021   1.0242764737e+02   4.9239802341e+01    0.2524863    0.1920783 -61.96 0.0009592741    1.628    0.386
        83  -9.5589    124.4023     79.1434   9.2075318794e+01   4.2484278712e+01    0.1987535    0.1367851 -52.52 0.0003846142    1.619    0.382
        84 -10.4587    176.5949     77.2276   7.9789151907e+01   3.0617714167e+01    0.3010705    0.2411689  43.54  0.001531616    1.346    0.257
        85 -10.2382     75.0344     75.9264   1.0567732384e+02   5.2435702492e+01    0.1963137    0.1791174 -15.48 0.0003022924    1.017    0.017
        86 -10.4576     15.2940     75.8094   1.2652674996e+02   5.9167123598e+01     0.173891     0.158684  26.76 0.0008048448    1.378    0.274
        87 -11.0608     35.9730     72.0093   1.1810222175e+02   5.8194952029e+01    0.4284657     0.269578 -53.60  0.001419949    1.481    0.325
        88  -9.7289     32.3316     72.7383   1.1961920299e+02   5.8401161895e+01    0.1790676    0.1589767 -45.12 0.0004493954    1.164    0.141
        89 -11.4656      4.5525     73.8688   1.2992654336e+02   6.0232944746e+01    0.3721172    0.2000886  23.23  0.002229766    2.230    0.551
        90  -9.3746    224.1829     74.3580   7.1271940243e+01   1.9867647848e+01    0.1836105    0.1243112  78.93 0.0003708272    1.565    0.361
        91  -9.5416    136.4991     74.5009   8.7665273163e+01   4.0619104205e+01    0.1465138    0.1416313  45.54 -7.903542e-05    1.007    0.007
        92  -9.2001     95.6833     73.2828   9.8366260044e+01   4.9383264788e+01    0.1322656    0.1137054  86.57 0.0003614201    1.581    0.367
        93 -10.7846    106.0325     71.7044   9.4841848934e+01   4.7669395318e+01    0.2682288    0.2499976  37.66  0.000813468    1.086    0.079
        94  -9.2179     92.4944     72.4540   9.9076219219e+01   5.0122637643e+01    0.1378448    0.1303668  -2.78 0.0001858353    1.037    0.035
        95  -9.5208     80.6944     72.3180   1.0273606927e+02   5.2204037805e+01    0.1283065    0.1111751 -87.30 0.0003449218    1.630    0.387
        96  -9.3554     45.9556     68.9342   1.1361557452e+02   5.7726306813e+01    0.2308408    0.1775445 -85.34   0.00126574    2.214    0.548
        97  -9.7259     10.6243     69.2034   1.2667611734e+02   6.0805317574e+01    0.1763106   0.07986265 -50.03 0.0008603934    1.646    0.392
        98  -8.9895    122.3109     68.6929   8.9479501546e+01   4.4791453780e+01    0.1416972    0.1152466 -83.07 0.0003368574    1.618    0.382
        99 -10.5828    114.2845     66.7552   9.1008359385e+01   4.6837435712e+01    0.2329663    0.2075568  77.90 0.0002921088    1.331    0.249
       100 -11.0088     34.3701     64.8955   1.1669471658e+02   5.9729002854e+01    0.6986305    0.3037035 -27.09 0.0006548379    3.142    0.682
       101 -11.2652     39.4200     62.5174   1.1410804888e+02   5.9658002160e+01     0.674252    0.2539928 -32.67  0.002619231    3.261    0.693
       102 -10.2616     15.1909     64.2319   1.2374128274e+02   6.1471843945e+01    0.3044864    0.2426942  17.21   0.00215212    1.462    0.316
       103 -11.5593      4.6441     52.1389   1.2466905734e+02   6.4426730525e+01    0.6978843    0.2106496 -32.29  0.001555075    3.753    0.734
       104 -10.3969     25.4764     57.8833   1.1804196536e+02   6.1862031844e+01    0.2518392    0.1776042 -58.28  0.001072751    1.579    0.367
       105 -12.5422     20.5012     57.2781   1.1980515606e+02   6.2387849803e+01    0.4439394    0.2670657 -58.74  0.002608037    1.765    0.433
       106 -10.7402     20.1738     51.4405   1.1821824254e+02   6.3473911416e+01    0.3410966    0.1604276 -39.89  0.001358058    1.707    0.414
       107 -10.5380     11.7686     47.6640   1.2050181339e+02   6.4776945275e+01    0.2273726    0.1630179  34.63   0.00150051    1.861    0.463
       108 -11.4888     16.6777     45.1493   1.1770475679e+02   6.4853630176e+01    0.4828514    0.3787799 -16.57  0.003523805    1.110    0.099
       109 -10.3705    131.7414     64.4972   8.5841344382e+01   4.3395418679e+01    0.3741376    0.2646509  61.98  0.001833542    1.492    0.330
       110  -9.9179     72.5883     63.3084   1.0254585136e+02   5.5141124414e+01    0.2420263    0.1218621 -46.06  0.000736217    2.038    0.509
       111 -11.1161      9.7398     60.4025   1.2483716343e+02   6.2572003235e+01    0.3487238    0.1789167 -39.48 0.0001515559    1.549    0.355
       112 -10.8601      5.4628     63.5178   1.2724404466e+02   6.2232910538e+01    0.1884909    0.1811763  28.65 0.0006894817    1.394    0.283
       113 -10.6257      3.0740     60.5566   1.2743748906e+02   6.2937553458e+01    0.2697608    0.1679019  44.24  0.001207421    2.426    0.588
       114 -10.3842     62.7301     62.0921   1.0552686099e+02   5.6831994357e+01    0.2790208    0.2166145 -29.07  0.001336851    1.164    0.141
       115 -10.1132     60.4784     58.0620   1.0500579766e+02   5.7855420482e+01    0.2257956    0.1997648 -20.95 0.0007480269    1.098    0.089
       116  -9.9226    101.0362     61.7443   9.3131102363e+01   5.0367497236e+01    0.2643034    0.1702786 -62.62  0.001114736    2.546    0.607
       117  -9.4125     66.9998     60.5387   1.0354226307e+02   5.6481182873e+01    0.1849459    0.1228469  31.39 0.0004657842    1.522    0.343
       118 -11.1664     53.9873     57.8565   1.0726694437e+02   5.8770877849e+01    0.4241441    0.4044062 -87.02  0.002846662    1.500    0.333
       119 -10.3256     83.6255     56.9591   9.6845086385e+01   5.4384667611e+01    0.2030085    0.1982128  83.10  0.001286415    1.312    0.238
       120 -11.9425     88.0689     53.7389   9.4369791755e+01   5.4106711797e+01    0.4723176    0.3057863  39.90  0.001481916    1.491    0.329
       121 -10.4581     99.8484     56.1735   9.1659180102e+01   5.1497722453e+01    0.1864513    0.1818591  -8.86 0.0004452348    1.130    0.115
       122 -11.6786    114.4847     53.8969   8.6883501885e+01   4.8851698890e+01    0.3523123     0.260126  40.29 0.0007910143    1.276    0.216
       123 -12.1580     66.1211     52.6024   1.0118994118e+02   5.7947488650e+01    0.5003008    0.2146263  33.38  0.001395415    2.411    0.585
       124 -10.1207     34.3545     53.4873   1.1324507928e+02   6.1816975547e+01    0.2667475    0.1563342 -25.83  0.001181217    1.629    0.386
       125  -9.9889    105.9678     52.9387   8.8864077074e+01   5.0771194555e+01    0.2097756    0.1953021  32.47 0.0007494678    1.062    0.059
       126  -9.4456    169.5659     52.5557   7.4489860557e+01   3.6265205194e+01    0.1413452    0.1288748  80.19 1.801871e-05    1.013    0.012
       127 -10.2793    225.1931     54.9454   6.6776495578e+01   2.2685861909e+01    0.3798355    0.2826876  -5.50  0.001912362    2.336    0.572
       128  -8.8276    165.5126     54.4481   7.5741947111e+01   3.6971444474e+01    0.1428285    0.1306912  74.53 9.853509e-05    1.006    0.006
       129 -10.2277     76.5898     49.2092   9.6476413222e+01   5.6815103199e+01    0.4028982     0.258963   9.85  0.002042626    1.899    0.473
       130  -9.9822     78.7015     45.6881   9.4554863212e+01   5.6986554325e+01    0.3271075    0.1467715  41.67   0.00111702    2.148    0.534
       131  -9.6416     38.0784     49.1112   1.1036786763e+02   6.2178534702e+01    0.1816099    0.1309076 -17.39 0.0005379285    1.230    0.187
       132 -10.4977    102.8821     47.5238   8.7921520196e+01   5.2193204684e+01    0.3289067    0.1593012  36.23 0.0007502803    2.181    0.542
       133  -9.2222     87.4924     48.4743   9.2751711355e+01   5.5015858001e+01    0.1329704    0.1172671  11.00  0.000224024    1.012    0.012
       134  -9.4937     53.2912     48.5682   1.0439703498e+02   6.0424602816e+01     0.171517    0.1085026  17.87 0.0009530954    1.641    0.391
       135  -9.3157     47.3208     47.2983   1.0619208662e+02   6.1399150795e+01    0.1265057    0.0822272  -9.78 0.0003109282    1.620    0.383
       136  -9.6306     65.0280     46.2444   9.9356605110e+01   5.9117353511e+01    0.1712503    0.1434876  16.85 -0.000430966    1.120    0.107
       137  -9.7014     35.7902     41.3939   1.0862463495e+02   6.3693654662e+01    0.3399205    0.1811589  -2.94  0.001657453    2.614    0.617
       138 -10.1512     30.5549     45.5228   1.1214941637e+02   6.3564177332e+01      0.22494    0.1801022 -30.07 0.0006966688    1.124    0.111
       139 -10.8755     25.8519     44.1121   1.1358764894e+02   6.4249702513e+01    0.2506494    0.2228397   5.92  0.001307516    1.300    0.231
       140  -9.4558     91.1663     44.7692   9.0356768643e+01   5.4872661588e+01    0.1783264    0.1395081  11.13 0.0004517732    1.282    0.220
       141 -10.5482     70.1521     41.9673   9.6059627383e+01   5.8952927685e+01    0.2619575    0.2359902   5.18  0.001745723    1.117    0.104
       142  -9.5770      2.9916     42.0000   1.2248901262e+02   6.6331891490e+01    0.2285945    0.1041404 -15.76   0.00121218    2.564    0.610
       143  -9.4138      5.7969     39.3720   1.2049151603e+02   6.6610445862e+01    0.1522817   0.09328026 -30.01    0.0010179    1.286    0.222
       144 -10.9505    139.0877     40.3758   7.6868245518e+01   4.5225448700e+01    0.3033095    0.2220555  73.37  0.001603896    1.453    0.312
       145  -9.3648     95.3729     42.4888   8.8332548117e+01   5.4386128078e+01    0.1306306    0.1152267  12.41 9.024426e-05    1.045    0.043
       146  -9.3077    181.4363     40.5292   6.9353782739e+01   3.5055406773e+01    0.1374058    0.1214764  85.09 0.0003493667    1.010    0.009
       147  -9.4269    159.7926     40.4210   7.2893642033e+01   4.0304655710e+01    0.1920887    0.1158354  52.31 0.0002359924    1.534    0.348
       148 -10.3383    131.9804     38.4386   7.7784207344e+01   4.7113584217e+01    0.4895611    0.3394214  60.90  0.002600512    1.365    0.267
       149 -11.3049    134.1422     34.0808   7.5976848480e+01   4.7155698271e+01    0.2209162    0.1817084  38.90 0.0002866383    1.181    0.153
       150  -9.3239     43.1462     40.6324   1.0544268703e+02   6.2967644359e+01    0.1550085   0.09959607  14.21 0.0004611352    1.558    0.358
       151 -10.6121     12.9248     38.3035   1.1708402187e+02   6.6295444291e+01     0.294502    0.1349624 -54.43  0.001575821    2.344    0.573
       152 -12.2278    121.8465     36.8820   7.9568278190e+01   4.9590770309e+01    0.5057558    0.4077016  53.58  0.001902684    1.144    0.126
       153  -9.3830    101.4913     39.4861   8.5578938491e+01   5.3577341590e+01    0.1349868    0.1155375  23.95 0.0002738931    1.069    0.064
       154 -11.1204     20.0575     31.6670   1.1170123057e+02   6.6770564968e+01    0.5694337    0.2549433   7.17  0.002732512    3.135    0.681
       155 -10.5264     22.7467     38.5970   1.1300700606e+02   6.5438738419e+01    0.2198969    0.1850019  26.60 0.0009545736    1.517    0.341
       156 -11.2907     26.4465     35.4670   1.1034807310e+02   6.5588806047e+01    0.4867578     0.218879 -25.40   0.00242538    2.419    0.587
       157  -9.3303    236.5479     37.5907   6.1763273755e+01   2.2627856473e+01    0.1280287    0.1044125 -78.17 9.473484e-05    1.018    0.018
       158 -10.2695     69.6269     36.8035   9.4350399436e+01   5.9765075182e+01    0.2169683    0.1127748 -28.57 0.0008290849    1.940    0.484
       159 -10.1646      2.0892     35.7513   1.2096986523e+02   6.7448167447e+01     0.213728    0.1396574 -16.74  0.001514547    1.341    0.254
       160 -10.5263      3.3820     32.2103   1.1925418635e+02   6.7951397607e+01    0.2252496    0.1653211 -55.86  0.001620194    1.636    0.389
       161  -9.5890     99.1839     35.6363   8.4882031884e+01   5.4536164088e+01    0.1902456    0.1026606  39.19 0.0002918743    1.729    0.422
       162 -10.1728     50.4086     33.8485   1.0013348802e+02   6.3039873847e+01    0.1855914     0.174324  22.68  0.000723183    1.418    0.295
       163 -10.5403    145.0358     32.9791   7.3474470396e+01   4.4750996886e+01    0.1957144    0.1745709  60.26            0    1.003    0.003
       164  -9.9642    205.3461     30.6408   6.3702709817e+01   3.0624876845e+01    0.2171299    0.1347679 -71.89  0.001114422    1.668    0.400
       165  -9.3519    166.3965     31.2527   6.9257281116e+01   3.9859950223e+01    0.1734964    0.1208601 -48.01 0.0003475172    1.537    0.350
       166 -10.1565    127.7986     30.3598   7.6156991551e+01   4.9040529763e+01    0.3930676    0.1483062  47.13  0.001458268    2.379    0.580
       167 -11.6283     43.7959     29.1258   1.0087115261e+02   6.4566011146e+01    0.4326689    0.3097257 -12.82  0.002026124    1.205    0.170
       168  -9.9576    150.1558     29.7581   7.1589158409e+01   4.3920162540e+01    0.3336939    0.1588206  72.34  0.001379867    2.388    0.581
       169  -9.0336    105.3011     29.3190   8.1076829407e+01   5.4049606066e+01     0.134667    0.0893679  24.36 0.0007024106    1.623    0.384
       170 -10.5127     69.8366     28.1574   9.1027168663e+01   6.0854610404e+01    0.3398654    0.2184907 -21.35  0.001992198    1.547    0.354
       171 -11.9559     76.6987     25.5492   8.7815105877e+01   5.9991627702e+01    0.2947906    0.2110752  38.21 0.0003843572    1.263    0.209
       172  -9.3540    229.5224    247.9996   1.0639384164e+02  -1.1589540028e+01    0.1669623    0.1118115 -30.98 0.0008041161    1.537    0.349
       173 -10.2439      7.2519     27.7947   1.1599627933e+02   6.8392635900e+01    0.2123259    0.1608641  38.24  0.001524323    2.022    0.505
       174 -10.0119    140.6672     27.0267   7.2535368371e+01   4.6461338247e+01    0.2853132    0.1491763  60.52  0.001360573    1.679    0.404
       175 -10.0882    113.9262     25.0813   7.7539168231e+01   5.2695658661e+01    0.2550624    0.1952359  42.05  0.001044033    1.148    0.129
       176 -10.1450    100.8664     25.5113   8.0893285079e+01   5.5390794572e+01     0.214837      0.17065 -43.64  0.000784207    1.538    0.350
       177  -8.7707     17.5776     26.1154   1.1073103180e+02   6.7825095830e+01    0.2181937    0.1122253  36.86  0.001062887    2.597    0.615
       178 -10.4234    218.8362     24.1667   6.0750488989e+01   2.8313963006e+01    0.2913571    0.1791901 -20.59  0.001478428    2.472    0.596
       179  -9.9883    153.8071     25.5689   6.9756570072e+01   4.3528847740e+01    0.2895315    0.1234771  72.78   0.00112151    2.721    0.632
       180 -10.1676     59.0204     24.3997   9.3289374084e+01   6.3039862893e+01    0.2345229    0.1558222   3.01  0.001161014    1.505    0.335
       181 -10.6767    170.9969     23.4903   6.6487450698e+01   3.9653757583e+01    0.2154275    0.1151922  66.61 8.017806e-05    1.628    0.386
       182 -10.5119      2.0645     22.0658   1.1633061216e+02   6.9623270968e+01    0.2428209    0.1239361 -43.18 0.0009227399    1.607    0.378
       183  -9.7113     22.7079     21.6468   1.0671413982e+02   6.7982672866e+01    0.1776515   0.09641331 -14.94 0.0006458445    1.850    0.459
       184 -11.2436     13.2387     20.5717   1.1055661278e+02   6.9001466610e+01    0.2284568    0.1837036 -30.34 0.0006960402    1.335    0.251
       185 -10.5583     19.9056     16.7601   1.0597722635e+02   6.8918189989e+01    0.1836182    0.1308495   8.57 0.0003993395    1.234    0.190
       186  -9.6054    224.6323    247.1116   1.0714939209e+02  -1.0745389507e+01    0.1675853    0.1033177 -22.40 0.0007794063    1.727    0.421
       187  -9.9388     85.0125     21.0363   8.3609507538e+01   5.8981027573e+01    0.2041734    0.1236489  24.98 0.0005768978    1.682    0.406
       188  -8.8426    170.6977    246.6947   1.1750495187e+02  -2.0302880192e+00    0.1268507   0.09528974   8.91 0.0002973962    1.596    0.374
       189  -9.1928    136.3259    245.6813   1.2424330773e+02   3.9930274937e+00    0.1349221   0.09181879  66.67   0.00051227    1.678    0.404
       190 -10.9166     37.3452    241.8480   1.4293097731e+02   1.9637802594e+01    0.3589195    0.1119327  55.85  0.001556667    2.948    0.661
       191  -9.6147    202.5169    240.4694   1.1024300922e+02  -6.3160374992e+00    0.2026093     0.115981 -28.11  0.001016418    2.046    0.511
       192  -9.2334     60.5651    241.0000   1.3859627547e+02   1.6784378781e+01    0.2562976   0.06147576  38.29 0.0009306428    3.902    0.744
       193 -12.4926     25.7947    235.9856   1.4456021303e+02   2.2195967938e+01     0.372405    0.3234609  73.78  0.001960328    1.298    0.230
       194 -10.7627     31.0166     20.5084   1.0265294541e+02   6.7256416729e+01    0.2155645    0.1326963 -27.66 0.0005063313    1.417    0.294
       195  -9.6212     89.3061     22.9710   8.3102422753e+01   5.7957561347e+01    0.1747233    0.1488754   8.46  0.001143909    1.117    0.104
       196  -9.7905    132.1618     20.1211   7.2065766958e+01   4.9157968958e+01     0.208811    0.1546288  37.51  0.001210309    1.339    0.253
       197 -13.4849     10.0955    229.7413   1.4690560420e+02   2.5179747942e+01    0.7616692    0.4227805  79.63  0.004784053    1.449    0.310
       198  -9.0896     54.3052    236.2958   1.3935178403e+02   1.8594332901e+01    0.1038061   0.09511007 -52.12  0.000424029    1.583    0.368
       199 -10.2734    199.9612     17.2451   6.1243955323e+01   3.3477681837e+01    0.1983697    0.1700605 -70.82 0.0004543923    1.130    0.115
       200  -9.7693    249.2956    234.0434   1.0040796940e+02  -1.2476032037e+01    0.1656831      0.13404  -7.00 0.0004842652    1.058    0.055
       201  -9.4884    140.6690    227.3353   1.2071549928e+02   6.7041252939e+00    0.1431505    0.1004745  70.58 0.0007052157    1.731    0.422
       202 -10.3593     26.4127     16.3411   1.0290932946e+02   6.8303594868e+01    0.2137057    0.1781438   9.86 0.0007968732    1.307    0.235
       203  -9.8946     49.2105     15.9578   9.3453107576e+01   6.5481948366e+01    0.1637802    0.1429309  -6.16 0.0009904425    1.271    0.213
       204  -9.9529    174.4977     14.9869   6.3802077334e+01   3.9732321337e+01    0.1823553   0.08748968 -55.31  0.000809827    2.483    0.597
       205  -9.5777    109.7154    226.6522   1.2714529183e+02   1.2211198282e+01     0.124384     0.107829 -17.78 0.0007018673    1.651    0.394
       206 -10.5129    190.3716     13.9185   6.1563351137e+01   3.6088520561e+01    0.2197834      0.15227  85.55 0.0006187533    1.273    0.214
       207  -9.0111     75.6661     14.7235   8.3965124005e+01   6.1343821559e+01    0.1259572   0.07616197  24.25 0.0001903019    1.604    0.377
       208 -10.1681     69.0392     13.7127   8.5629479321e+01   6.2602947721e+01    0.2188233    0.1446004  52.37 0.0007200813    1.686    0.407
       209 -10.3114     62.6537     14.1153   8.7889896538e+01   6.3626341958e+01    0.1659884    0.1420706 -27.00 0.0004524523    1.431    0.301
       210 -10.2131     33.1551    225.1313   1.4239012601e+02   2.3596154548e+01    0.2877809    0.1105426  47.77  0.001424752    2.243    0.554
       211 -11.9474      4.1492    232.5134   1.4809842169e+02   2.5218935276e+01    0.4071886    0.2046708  78.68 0.0003504425    1.628    0.386
       212 -12.1201      7.7299    217.5941   1.4653492302e+02   2.7943679030e+01    0.3469015    0.2126114  87.72  0.002260145    1.258    0.205
       213 -10.8749     15.8168    212.3656   1.4466480057e+02   2.8246669937e+01    0.2660627    0.1574906 -60.59  0.001602943    1.798    0.444
       214  -9.1015    209.6702    211.6793   1.0374997584e+02  -2.7664708920e+00    0.1413634    0.0998828   1.80 0.0003349172    1.692    0.409
       215  -9.8903     20.5858    209.7090   1.4354546088e+02   2.8326777365e+01    0.2001422    0.1079982  61.30 0.0006313934    1.670    0.401
       216  -9.6098    246.6683    207.1975   9.5953523304e+01  -8.0936307912e+00    0.1858965    0.1045098 -28.83 0.0009439915    1.701    0.412
       217  -9.8475      2.3104    205.6797   1.4672630156e+02   3.0998837976e+01    0.1223219   0.06478984  71.05 0.0003760096    1.646    0.392
       218  -9.5824    197.2345    203.9774   1.0479075478e+02   8.3239536052e-01    0.1792117    0.1156187 -42.06 0.0005715685    1.595    0.373
       219 -11.2284      9.4093    203.4181   1.4521618402e+02   3.0827166527e+01    0.2302493    0.1704444  86.17 0.0007498179    1.005    0.005
       220  -9.5149    180.5437    199.4151   1.0739624340e+02   4.8279446948e+00    0.3365349    0.1335337  43.40  0.001252483    2.426    0.588
       221  -9.3443     23.0037    197.4963   1.4203114544e+02   3.0783443649e+01    0.1638139    0.1142801  42.17 0.0005609628    1.571    0.363
       222 -10.2186      6.7161    191.7557   1.4484712746e+02   3.3651866363e+01    0.2179948    0.1207669  83.34  0.001257535    1.562    0.360
       223  -9.4729     15.3467    185.1354   1.4251059150e+02   3.4348936389e+01    0.1785256   0.09097333 -86.14 0.0009338286    1.719    0.418
       224  -9.3876      1.1969    183.0346   1.4527325839e+02   3.6075974727e+01    0.1577677   0.07178941 -76.21 0.0004906761    1.699    0.411
       225 -11.0957      4.8621    167.2184   1.4313195905e+02   3.9364403463e+01    0.3040423    0.1950028  75.55  0.001517531    1.458    0.314
       226  -9.2584     41.5632    158.4649   1.3343442146e+02   3.7945283246e+01    0.1340581    0.1108004 -82.46 0.0008058466    1.042    0.040
       227  -9.0642    247.4781    155.5296   8.5481507640e+01   5.6445807359e-01    0.1375175     0.121067 -31.98 0.0001106833    1.007    0.007
       228 -10.0175      2.4648    153.4918   1.4234663310e+02   4.2700510754e+01    0.1939092   0.09056985  42.76  0.001037935    2.353    0.575
       229 -10.0202     23.8150    150.6298   1.3683945854e+02   4.1625301213e+01    0.1595076    0.1091582  48.07 0.0004659356    1.614    0.381
       230 -10.1510     21.8859    143.3107   1.3637653141e+02   4.3531645880e+01     0.230738    0.1474043 -79.67  0.001103745    1.381    0.276
       231 -11.0501      3.5111    138.5045   1.4047152198e+02   4.6077972419e+01    0.2301464     0.158893  46.21  0.001476735    1.684    0.406
       232 -11.0596     11.8047    129.6151   1.3719339977e+02   4.7546779989e+01    0.4642544    0.2387886  67.03  0.001751062    2.762    0.638
       233  -9.9567      1.7710    132.6085   1.4022295998e+02   4.7546294766e+01    0.1436265    0.1054977  46.05 0.0009445489    1.614    0.380
       234  -9.1626     35.4455    130.4995   1.3081471498e+02   4.5309999979e+01    0.1337063    0.1079868 -56.71 8.880352e-05    1.101    0.091
