#   1 NUMBER                 Running object number                                     
#   2 MAG_AUTO               Kron-like elliptical aperture magnitude                    [mag]
#   3 X_IMAGE                Object position along x                                    [pixel]
#   4 Y_IMAGE                Object position along y                                    [pixel]
#   5 X_WORLD                Barycenter position along world x axis                     [deg]
#   6 Y_WORLD                Barycenter position along world y axis                     [deg]
#   7 A_WORLD                Profile RMS along major axis (world units)                 [deg]
#   8 B_WORLD                Profile RMS along minor axis (world units)                 [deg]
#   9 THETA_WORLD            Position angle (CCW/world-x)                               [deg]
#  10 FWHM_WORLD             FWHM assuming a gaussian core                              [deg]
#  11 ELONGATION             A_IMAGE/B_IMAGE                                           
#  12 ELLIPTICITY            1 - B_IMAGE/A_IMAGE                                       
         1 -10.3085     39.0831      8.4932   6.0382993964e+01   6.8915086285e+01    0.4851967    0.2850611  -2.93   0.00223611    1.886    0.470
         2 -11.0890     48.1638     35.4148   6.8387312952e+01   6.4112801811e+01    0.8178228    0.6501188 -87.83  0.004225528    2.919    0.657
         3 -12.3298     44.6051     22.3017   6.4352021628e+01   6.6453111248e+01    0.9352471    0.7994483 -40.63  0.005882602    1.616    0.381
         4 -11.7238     78.0011     13.8672   4.8725321828e+01   6.1245446305e+01     1.317283    0.5179746 -13.81  0.005123409    4.164    0.760
         5 -11.7936     84.0934      3.8229   4.3179559963e+01   6.0838657694e+01    0.9539752    0.3637592  59.03  0.003715045    2.151    0.535
         6 -10.7652     71.4558      5.7801   4.7359594630e+01   6.3282633444e+01    0.5068253    0.2552566  56.14  0.002695342    1.732    0.423
         7 -12.1555    154.8988     20.1101   3.5363130075e+01   4.3530282805e+01    0.6272073    0.4843957 -56.24  0.003961981    1.335    0.251
         8 -11.2109    143.8983      3.7603   3.2466802984e+01   4.7554812217e+01    0.6828989    0.3813331  78.27  0.003789817    1.592    0.372
         9 -13.2929    168.7638     13.2618   3.1908910085e+01   4.1100085850e+01     1.502279     1.257083  54.23    0.0100416    1.338    0.253
        10 -12.4432    156.9838      7.0894   3.1733445374e+01   4.4317252620e+01    0.8982515    0.7619349 -11.66  0.006175021    1.564    0.361
        11  -9.2880    129.4683     12.8624   3.7135920127e+01   5.0042912850e+01    0.3583624    0.1935159  40.07  0.001814053    2.102    0.524
        12  -9.1562    114.5201     14.4924   4.0293737100e+01   5.3286223666e+01    0.2325769    0.1991311  59.11  0.001100527    1.015    0.015
        13 -10.1090     69.6305     15.0592   5.1757344399e+01   6.2803285408e+01    0.3424411    0.2125773  -0.32  0.001881386    1.949    0.487
        14  -9.4431    228.5993     15.7836   2.7051741796e+01   2.8364714227e+01    0.1941101    0.1311472 -80.37  0.001340416    1.220    0.180
        15  -9.8114     20.7444     13.7618   7.2071572113e+01   7.0892121548e+01    0.4561579    0.2177568 -17.03  0.002245231    2.557    0.609
        16 -10.1621    250.2553      4.4988   2.3686147123e+01   2.5608437463e+01    0.3159137    0.1342217 -34.45  0.001819615    2.560    0.609
        17 -10.8232    131.0318      3.8543   3.4252466352e+01   5.0459761476e+01    0.6984356    0.2179681  58.28  0.003070831    2.421    0.587
        18 -11.2822    120.8134      4.2790   3.5955382009e+01   5.2736774438e+01    0.7819145    0.3779437  75.25  0.003856074    2.019    0.505
        19 -11.2855    106.3195      4.8841   3.8716788396e+01   5.5936253060e+01      0.53869    0.3151223  85.39  0.002778628    2.127    0.530
        20  -9.5407    192.8323      6.0590   2.7905856787e+01   3.6587930886e+01    0.1889707    0.1280921 -70.28  0.001236399    1.281    0.219
        21  -8.9006    222.5105      4.5081   2.5361786226e+01   3.0737877258e+01    0.1639717    0.1070673 -22.56  0.001036818    2.280    0.561
        22  -9.8422    204.5004      4.5213   2.6646653608e+01   3.4319196650e+01    0.2360511    0.1314452 -68.09  0.001429616    1.605    0.377
        23 -10.5709     60.9054      2.5877   4.9256949386e+01   6.5609421737e+01    0.4790847    0.2397967  38.25  0.002631648    1.659    0.397
        24  -8.7864    217.7146      1.9969   2.5208211770e+01   3.1925191513e+01    0.1567798     0.116785 -71.53  0.001120485    1.046    0.044
        25 -10.1285    112.4729      5.0153   3.7615747184e+01   5.4553824795e+01    0.3462242    0.2632027  66.82  0.001406517    1.117    0.105
        26  -8.4462     17.4197      1.7219   6.7772727923e+01   7.2758459676e+01    0.1448025   0.08917473 -12.67 0.0006584288    1.499    0.333
        27 -11.6371     12.4843     71.4629   9.7058054116e+01   6.1304690640e+01    0.6361371     0.354997 -37.63  0.003020058    1.512    0.339
        28  -8.9127    170.0020     76.2811   4.7523292839e+01   3.2472248363e+01    0.2019166    0.1823965  78.73  0.001170626    1.081    0.075
        29  -9.8778     74.7105     69.3528   7.0340211429e+01   5.4041327297e+01    0.3606033    0.2566568  35.40  0.001490904    1.362    0.266
        30  -9.3848     82.8913     68.8697   6.7310819606e+01   5.2642669971e+01    0.2294054    0.1890377   3.10  0.001238612    1.244    0.196
        31 -10.2303     25.3731     65.3408   8.9499736875e+01   6.1581685662e+01    0.4890372    0.2216002 -47.19   0.00206627    1.878    0.467
        32  -9.4544     45.8200     62.1766   7.9362070388e+01   5.9897754971e+01    0.2002669    0.1445512 -12.93  0.001087717    1.361    0.265
        33  -9.3588    198.2925     54.6517   3.8032052520e+01   2.9622513411e+01    0.2904574    0.1884438 -24.73  0.001515726    2.046    0.511
        34  -8.7936     35.1716     52.8114   8.0904280867e+01   6.3004846113e+01    0.1900816    0.1723498   0.92 0.0009684289    1.197    0.164
        35 -10.1017     87.0007     48.3139   5.8925129210e+01   5.5252099884e+01    0.3260108    0.3000362  28.20  0.001999478    1.061    0.057
        36  -9.6010     83.2024     48.6040   6.0248914026e+01   5.5964982727e+01    0.2603145    0.2029963 -14.27  0.001457593    1.362    0.266
        37 -10.9141     80.8263     38.1166   5.7195184960e+01   5.7921987519e+01    0.8623747    0.3171033 -24.95  0.003030075    4.036    0.752
        38  -8.4767     97.4849     46.5048   5.5145196905e+01   5.3346752545e+01    0.1385731    0.1216444  30.82 8.840529e-05    1.049    0.047
        39  -9.5128     11.9732     33.8942   8.5686916159e+01   6.8748632939e+01    0.3873661    0.1696694 -44.65  0.001729067    2.008    0.502
        40 -10.7719      3.3172     40.9816   9.2944521860e+01   6.8116748132e+01    0.4741291    0.4091853 -33.06  0.002680096    1.223    0.183
        41 -10.0861      6.1302     35.4666   8.9507502673e+01   6.8935912717e+01    0.4037838     0.204417  24.54  0.002245995    2.042    0.510
        42 -10.7292    184.2722     40.7275   3.6609214260e+01   3.4534470331e+01    0.4132621    0.1777906  62.63  0.001921964    2.157    0.536
        43  -9.4954    200.3276    226.6517   7.3848064041e+01  -2.1911831614e+00     0.115424    0.1071705  74.70 0.0007049353    1.757    0.431
        44 -10.4416    202.9975    222.4951   7.2592535556e+01  -1.8281323619e+00    0.1940931    0.1190428  26.82  0.001036772    1.601    0.375
        45 -11.0820     40.0635     29.6970   6.9617382057e+01   6.6149783490e+01    0.4599011    0.3071302 -33.71  0.002560936    1.553    0.356
        46 -10.2838    243.3033    201.0669   6.1319904762e+01  -3.3790644061e+00    0.3451666    0.1600224 -43.09  0.001723127    1.934    0.483
        47  -8.3266     33.2823     34.6566   7.4908416353e+01   6.6335033193e+01    0.1049265    0.1025066  63.88 0.0007013427    1.636    0.389
        48 -10.4078     86.9525     31.4996   5.2855441026e+01   5.7517731701e+01    0.2902276    0.2104721  47.68  0.001669295    1.222    0.182
        49  -9.5987     89.9885     28.3012   5.0811106259e+01   5.7258740619e+01    0.3160928    0.2290463  35.80  0.001560767    1.255    0.203
        50  -9.9400     67.0366     29.1779   5.8403067490e+01   6.1726893413e+01    0.2697259    0.1602041 -18.64  0.001378164    1.912    0.477
        51  -9.2451    227.4056     29.1339   2.9683099590e+01   2.7048998731e+01    0.2709988    0.1172348  82.21  0.001353557    2.513    0.602
        52 -12.1254     10.9172    141.7697   1.0983753674e+02   4.4137281277e+01    0.7955724    0.3479637 -76.00  0.003397573    2.083    0.520
        53  -8.9868     53.5115    143.4962   9.6557335072e+01   3.9656704948e+01    0.1487103    0.1378285 -58.83 0.0008105629    1.007    0.007
        54  -9.3486     39.8970    141.6713   1.0063074109e+02   4.1676381752e+01    0.3025975    0.2279646 -47.38   0.00157349    1.250    0.200
        55 -12.9932    242.4517    127.7143   4.7502276894e+01   9.3843127257e+00     1.219034      1.05793 -61.84  0.008066606    1.213    0.175
        56  -9.0160     23.4780    126.0088   1.0356382456e+02   4.7300848007e+01    0.2196519   0.07613167 -47.67 0.0008099209    2.545    0.607
        57 -11.3524    178.5430     24.0004   3.3361142857e+01   3.7803000589e+01    0.4171783    0.2990168  78.25  0.002592817    1.226    0.184
        58  -9.9526      5.1630    125.3619   1.0965110863e+02   4.8729091037e+01    0.2698838    0.1455559 -82.97  0.001271135    1.851    0.460
        59  -8.9477    102.8243     26.0779   4.6692954198e+01   5.4739929110e+01     0.267792    0.1331399  38.80  0.001234736    2.078    0.519
        60 -10.8936     10.8812    123.7609   1.0751779176e+02   4.8792548712e+01    0.4003184    0.2106118  87.28  0.001721883    2.399    0.583
        61  -9.7695    128.1589     18.2588   3.8967931652e+01   4.9833196869e+01    0.3477702    0.2505543  65.65  0.001654457    1.190    0.160
        62  -9.7247    188.4908    117.5494   5.4080804953e+01   2.1011331358e+01    0.2711153     0.131075 -32.87  0.001038447    2.389    0.581
        63  -9.0573    111.6565     16.6731   4.1570658986e+01   5.3727421800e+01    0.2623781    0.1663837  42.20  0.001304031    1.509    0.337
        64  -9.6391    116.3305     17.6661   4.0962219948e+01   5.2580253608e+01    0.2828454     0.211027  76.47  0.001691857    1.328    0.247
        65  -8.8256     58.7019    124.6557   9.1156130085e+01   4.3919434324e+01    0.1606341    0.1055158 -31.04  0.000703504    1.673    0.402
        66  -9.6275     94.3512     17.3555   4.5681071592e+01   5.7478422580e+01    0.3754483    0.2199223  75.74  0.001821977    2.272    0.560
        67 -10.0220    247.6509     16.4588   2.5886498663e+01   2.4764911509e+01    0.2546174    0.1184361 -67.46  0.001492243    1.930    0.482
        68 -10.0698     17.9492    127.8637   1.0572299983e+02   4.7248839487e+01    0.2269158    0.1661237 -43.72   0.00124145    1.282    0.220
        69  -8.3708    148.4973    111.4861   6.1044434405e+01   3.0580714849e+01     0.151429    0.1471868 -51.97 4.327124e-05    1.013    0.013
        70  -9.5538     21.6553    108.3268   1.0117945657e+02   5.1950015477e+01    0.2118025    0.1576014  67.61  0.001114118    1.726    0.421
        71  -8.7909     13.7413     15.7102   7.6948171119e+01   7.1426016581e+01    0.1596642     0.093592 -48.48 0.0008994856    2.375    0.579
        72  -9.6567     16.9096    104.4499   1.0225007507e+02   5.3265145202e+01    0.2982806    0.2392405 -11.02  0.001749658    1.324    0.244
        73  -9.4604     64.1791     16.1364   5.4020416111e+01   6.3742786788e+01    0.1604933    0.1432033  56.19  0.001077055    1.360    0.265
        74  -9.4932     46.5366    100.5413   9.0068515591e+01   5.1441104125e+01    0.3623749    0.2025902 -54.09  0.001642439    1.633    0.388
        75  -9.2334     30.6860    101.9634   9.6483407834e+01   5.2761076865e+01    0.2685681    0.1748453 -26.48  0.001336038    1.589    0.371
        76 -12.1947     42.7180     80.6798   8.6381721528e+01   5.6467045020e+01     1.123325    0.7370702  -9.97  0.005554362    1.708    0.415
        77 -10.0573      2.4873     88.5129   1.0499871851e+02   5.7978458757e+01    0.4407324    0.2324062 -71.56  0.002188704    1.821    0.451
        78  -9.2672     20.5040     89.0146   9.7715137226e+01   5.6731532437e+01    0.2089838    0.1197423 -60.80  0.001029667    1.588    0.370
        79  -8.5574    193.6681     87.3162   4.6180509821e+01   2.5485807244e+01    0.1439835   0.09961056 -72.60 0.0007046804    1.686    0.407
        80  -9.3850    144.6667     80.4987   5.3710729995e+01   3.7438175850e+01    0.2690209    0.2449457 -57.42  0.001497083    1.110    0.099
        81 -11.6694      4.7127     75.9765   1.0157326224e+02   6.0765080678e+01    0.7187215    0.5810729  67.24  0.004337543    1.701    0.412
        82 -11.2059     17.6183     74.8923   9.5614036491e+01   6.0180938491e+01    0.6493117    0.3739253 -26.03  0.003331219    1.689    0.408
        83  -9.2668     96.6229     36.6576   5.1969650074e+01   5.4847474114e+01    0.2713886    0.1530508  54.08   0.00133083    1.629    0.386
