#   1 NUMBER                 Running object number                                     
#   2 MAG_AUTO               Kron-like elliptical aperture magnitude                    [mag]
#   3 X_IMAGE                Object position along x                                    [pixel]
#   4 Y_IMAGE                Object position along y                                    [pixel]
#   5 X_WORLD                Barycenter position along world x axis                     [deg]
#   6 Y_WORLD                Barycenter position along world y axis                     [deg]
#   7 A_WORLD                Profile RMS along major axis (world units)                 [deg]
#   8 B_WORLD                Profile RMS along minor axis (world units)                 [deg]
#   9 THETA_WORLD            Position angle (CCW/world-x)                               [deg]
#  10 FWHM_WORLD             FWHM assuming a gaussian core                              [deg]
#  11 ELONGATION             A_IMAGE/B_IMAGE                                           
#  12 ELLIPTICITY            1 - B_IMAGE/A_IMAGE                                       
         1 -15.0571     52.8771     84.8552   9.0092069038e+01   5.4251773312e+01     1.094646    0.6202173  56.95  0.004363074    3.099    0.677
         2 -11.5603    210.6228      7.1879   3.1356955207e+01   3.2352212844e+01    0.1448941    0.1135529 -25.51 0.0005876583    1.631    0.387
         3 -11.0198    233.6869      3.6498   2.8957676238e+01   2.7884119912e+01    0.1015272   0.08557064  48.27 0.0007046171    1.724    0.420
         4 -11.3436    180.0688    244.0832   8.7840367711e+01  -2.3774919916e+00     0.185497    0.1621219  19.18 0.0005819453    1.110    0.099
         5 -11.0873    172.3781    249.7682   9.0237462383e+01  -2.1689417793e+00    0.1588765    0.1096138 -26.77 0.0004093353    1.597    0.374
         6 -11.6858     64.4429    249.6626   1.1247107998e+02   1.3332149752e+01     0.211792    0.1607228 -79.63  0.001381753    1.380    0.275
         7 -16.0257     23.1278    150.2597   1.1235463312e+02   4.1123111825e+01     1.709599     1.324266  14.68   0.01003063    1.609    0.378
         8 -17.9752    147.5009    127.3813   7.2294494055e+01   2.7171341253e+01     4.752703     2.809153 -45.18   0.01970737    1.645    0.392
         9 -15.7173    189.4981    194.0028   7.7284773297e+01   4.9232004422e+00    0.9632784    0.5481011  33.64  0.002759514    1.758    0.431
        10 -13.6444    190.4999    190.4935   7.6401368054e+01   5.4200712394e+00    0.3553773     0.239129  39.24  0.001225759    1.527    0.345
        11 -12.3335     10.2605    192.1190   1.1946768349e+02   3.1968339798e+01    0.4479683    0.2178927  80.26  0.002216235    1.982    0.496
        12 -11.7209    103.0244    232.0822   1.0251889837e+02   1.1467368435e+01    0.4259895     0.297241  86.97  0.001925403    1.792    0.442
        13 -11.3906    158.6734    232.3318   9.0455512385e+01   2.8222846995e+00    0.1985107    0.1534747  61.58 0.0007892939    1.703    0.413
        14 -12.6702     26.7191    188.4199   1.1536013415e+02   3.1296550069e+01    0.3100164    0.2189178  86.05 0.0006318443    1.241    0.194
        15 -11.6617     26.2839    184.5919   1.1511584427e+02   3.2265552353e+01    0.2183037    0.1898304   6.24  0.001270201    1.534    0.348
        16 -12.1708    228.0492    192.0831   6.9430131000e+01  -8.8186179633e-01    0.1967313     0.166181 -16.09 0.0003354151    1.028    0.027
        17 -12.3354    156.1068    198.0914   8.5309537019e+01   9.8494899573e+00    0.2198038    0.1875578  -0.32 0.0004287986    1.228    0.185
        18 -11.6200    154.9656    230.7038   9.0995350158e+01   3.6938830937e+00    0.2433421    0.1584491  41.04 0.0006478734    1.440    0.306
        19 -11.4558     15.7922    229.3345   1.2071411787e+02   2.3128121951e+01    0.2459731    0.1103671  28.69  0.001259709    2.499    0.600
        20 -11.8175     10.9691    229.9923   1.2169382588e+02   2.3467109216e+01    0.2750917    0.1512238  49.76  0.001399077    1.516    0.340
        21 -11.3542      8.3664    226.8053   1.2202593166e+02   2.4389604777e+01    0.2110328    0.1472193 -78.78  0.001209708    1.348    0.258
        22 -11.2512      6.1364    187.7228   1.2008873085e+02   3.3355142154e+01    0.1650914    0.1377971  89.46 0.0006620503    1.087    0.080
        23 -14.3578    191.8702    176.6356   7.3362063688e+01   7.8624900550e+00    0.4432296    0.3006737  28.97  0.001910516    1.552    0.356
        24 -12.0302    114.1655    228.8072   9.9641467119e+01   1.0440904228e+01    0.4453118    0.2418841  39.53  0.002166512    1.620    0.383
        25 -12.4869     19.9286    179.7488   1.1621661185e+02   3.4054251677e+01      0.34263    0.1581866  56.51  0.001457278    2.218    0.549
        26 -11.9811    218.0256    181.9940   6.9305951218e+01   2.4231576742e+00    0.1673442      0.14534 -14.45  0.000667162    1.014    0.014
        27 -12.2168    119.1931    181.4331   9.1116356621e+01   2.0022951051e+01    0.3495143     0.231851 -44.71  0.001415534    1.581    0.367
        28 -17.0120    109.3167    142.9317   8.6081367192e+01   3.1155740487e+01     2.694305     1.568314  59.30   0.01023856    2.338    0.572
        29 -11.8702     16.0435    242.2343   1.2139306225e+02   2.0441604809e+01    0.2150655    0.1574433 -76.22  0.001496847    1.411    0.291
        30 -13.6730    186.5005    225.6567   8.3584073423e+01  -2.9642293251e-01    0.3173833    0.2062526 -16.61   0.00165286    1.761    0.432
        31 -10.8753     13.8754    238.3126   1.2159003591e+02   2.1456890495e+01    0.2153934    0.1219621  76.88  0.001310462    1.502    0.334
        32 -11.4258      9.5997    172.0560   1.1807746602e+02   3.6827828839e+01    0.1812843    0.1303806 -80.71 0.0004632089    1.147    0.128
        33 -12.2703     27.7669    170.9581   1.1340831658e+02   3.5475879571e+01     0.338668    0.1970411  51.27  0.001407072    1.727    0.421
        34 -12.2411     27.3310    166.6491   1.1306436693e+02   3.6595926115e+01    0.3079132    0.2113676 -89.81  0.001693787    1.327    0.247
        35 -12.9067     32.4681    167.8844   1.1185302262e+02   3.5776749364e+01    0.3982257    0.2145229 -70.93   0.00193856    1.618    0.382
        36 -11.4566    116.6655    239.3966   1.0046272719e+02   7.9798404124e+00    0.2218087    0.1634126  86.79   0.00114676    1.762    0.432
        37 -11.4202     13.4175    166.6726   1.1665585374e+02   3.7835889258e+01    0.2761574    0.2108419 -65.98  0.001002334    1.224    0.183
        38 -11.5524    167.0215    227.5370   8.7935931926e+01   2.3793605330e+00    0.2067406    0.1183869  34.75 0.0005115968    1.580    0.367
        39 -11.2282    165.4692    238.4742   8.9967166937e+01   7.0807561075e-01    0.1301109    0.1113297  18.22 5.017575e-05    1.010    0.009
        40 -11.6645     28.3194    160.1176   1.1207477455e+02   3.8146770035e+01    0.1900297    0.1834806 -32.80 0.0003493754    1.255    0.203
        41 -11.8029      2.0994    159.2021   1.1888479517e+02   4.0539664012e+01    0.2552219    0.1573352  62.16  0.001232833    1.610    0.379
        42 -12.4217    125.3401    221.5871   9.6140625993e+01   1.0153917631e+01    0.4305717    0.2311157 -59.24  0.001984332    2.144    0.534
        43 -10.2015    169.2708    243.3404   8.9916971608e+01  -6.7647985174e-01    0.1268966   0.08999977  -4.40 0.0002153988    1.607    0.378
        44 -11.1813    115.0539    223.7950   9.8768092245e+01   1.1324189807e+01    0.1872888    0.1666396  40.91  0.000857599    1.028    0.027
        45 -14.0876    101.8580    157.0649   9.1095090596e+01   2.8972247173e+01    0.5117732    0.3748096  67.20  0.001551156    1.635    0.388
        46 -12.0086    152.8355    221.1276   8.9957791970e+01   5.8182454035e+00    0.1930797    0.1794405  53.24 0.0003200796    1.200    0.167
        47 -13.7983     97.6497    152.3877   9.1337349364e+01   3.0867432983e+01    0.4037674    0.3643766  67.04 0.0002322631    1.146    0.128
        48 -11.6372     28.2000    236.4192   1.1870730881e+02   2.0344315225e+01    0.2439085    0.1603382  87.96  0.001541446    1.356    0.262
        49 -14.6046    179.4774    150.0928   7.0299486351e+01   1.5598727650e+01    0.5931807    0.4546975 -81.91  0.001737395    1.889    0.471
        50 -11.8725    118.2091    219.6205   9.7471314540e+01   1.1691902884e+01    0.2647927     0.208418 -65.04 0.0009673835    1.409    0.290
        51 -13.7760     75.5667    145.2043   9.6295050272e+01   3.6237865432e+01    0.3723461    0.3199091  43.41  0.001741098    1.217    0.178
        52 -17.7076    130.5354    166.3996   8.5380496302e+01   2.1514295362e+01     7.063886      1.99667  35.37   0.01679041    4.020    0.751
        53 -13.6806     45.9781    147.1181   1.0536322792e+02   3.9631621001e+01    0.5015612     0.225386 -48.39   0.00146086    2.244    0.554
        54 -12.4072     31.8616    232.3700   1.1770497808e+02   2.0787209776e+01    0.3438993    0.2292369 -64.98    0.0021313    1.618    0.382
        55 -11.4024     11.6845    220.4286   1.2100655753e+02   2.5438123558e+01    0.1496963    0.1117957  75.97 0.0006827516    1.046    0.044
        56 -14.0135    189.2971    145.5642   6.7224903171e+01   1.4589271177e+01     0.475852    0.3190739  33.08  0.002211892    1.674    0.403
        57 -12.9889    173.1221    218.5035   8.5155795115e+01   3.0465188847e+00     0.259209     0.157039  45.19  0.001042579    1.770    0.435
        58 -13.0282    179.9421    143.0202   6.8598305861e+01   1.6986909777e+01    0.2349068    0.2233726 -32.96 0.0005915221    1.012    0.012
        59 -14.8178    177.7708    214.9740   8.3569416169e+01   2.9468186843e+00    0.5762908    0.3520521  17.74  0.002765084    1.852    0.460
        60 -13.6416    159.9620    137.6066   7.1788088607e+01   2.2268841335e+01     0.509692    0.2606173 -43.52  0.001158339    1.894    0.472
        61 -13.0377    181.0289    139.0189   6.7446799800e+01   1.7600535555e+01    0.2362814    0.2216968 -40.16  0.000485732    1.022    0.022
        62 -14.8333    117.9217    131.9199   8.1154961736e+01   3.2204267964e+01    0.8338335     0.606716 -75.07  0.003631238    1.747    0.428
        63 -15.4610    186.5534    213.2733   8.1440765660e+01   1.8548698122e+00    0.7052699    0.5532137  43.89   0.00403228    1.430    0.301
        64 -13.7326     57.3589    135.5411   9.9993985472e+01   4.1249985511e+01    0.4538628      0.27811  -0.73  0.001384916    2.631    0.620
        65 -12.1908    148.7903    216.6631   9.0131274134e+01   7.3408584673e+00    0.2437034    0.1741835 -64.10  0.001249243    1.767    0.434
        66 -13.0316    188.9099    137.0822   6.5371832245e+01   1.6393382409e+01    0.2876589     0.199163 -35.94 0.0009152096    1.389    0.280
        67 -19.0884     70.1848    202.0153   1.0638723455e+02   2.2832443337e+01     6.138052     5.663379  27.96   0.03763982    1.246    0.198
        68 -12.5142     16.8304    137.1826   1.1258671551e+02   4.4959334123e+01    0.2211479    0.1572908 -55.13 0.0008805854    1.291    0.225
        69 -13.0716     20.3813    133.8341   1.1109738509e+02   4.5526479766e+01    0.2977752    0.2483993  26.71  0.000365402    1.411    0.291
        70 -11.1308    206.3317    236.6659   8.1489196692e+01  -4.9471756683e+00    0.1110053   0.09979448  58.83 0.0007052207    1.730    0.422
        71 -14.8500    154.7164    210.0303   8.7713964101e+01   7.6703729462e+00    0.8367493    0.5253109 -47.02  0.004095489    1.685    0.406
        72 -14.2857     83.0984    134.1059   9.1804658334e+01   3.7908378030e+01    0.4962293    0.3754426  56.84  0.002002964    1.482    0.325
        73 -13.8431     87.9437    132.5072   8.9993279823e+01   3.7520784541e+01    0.4303907    0.2558044  40.33  0.001846188    1.745    0.427
        74 -14.8008     29.8188    118.2742   1.0576049057e+02   4.8663533637e+01     1.099131    0.4457631  42.11  0.004478344    2.874    0.652
        75 -15.3471     68.3448    124.4269   9.4326580784e+01   4.2604552368e+01     1.540282    0.6815672 -73.67  0.004531556    4.200    0.762
        76 -14.1339     72.8486    121.3866   9.2216296047e+01   4.2709388843e+01    0.5074428    0.4408702 -80.37 0.0005427681    1.229    0.186
        77 -15.9244     57.2054    127.9628   9.8611121172e+01   4.3214774402e+01     1.105234    0.7786136   6.35  0.005337164    1.833    0.455
        78 -13.5927     48.3895    122.7747   1.0045514174e+02   4.5612070185e+01    0.5889871    0.3478563  -3.85 0.0004244026    2.692    0.629
        79 -14.2697     46.0626    118.1275   1.0032323492e+02   4.7055322773e+01    0.7553322     0.485909  -3.96  0.003368091    2.165    0.538
        80 -14.7337     59.7871    121.1019   9.6389899647e+01   4.4623934043e+01    0.6980981    0.5600713 -60.62  0.002090859    1.149    0.130
        81 -12.7559     14.1216    201.4450   1.1927125172e+02   2.9450826901e+01    0.2972392    0.2247591 -81.05  0.001260732    1.182    0.154
        82 -13.0146    193.0140    132.3391   6.3458378794e+01   1.6515793407e+01    0.3440572    0.1932197 -49.16 0.0008346356    1.760    0.432
        83 -13.2989    125.9506    131.2893   7.8808544330e+01   3.0757104316e+01    0.3202519     0.231454 -40.79 0.0009444659    1.389    0.280
        84 -11.9471    139.0990    217.7796   9.2472116917e+01   8.7037952522e+00    0.2064801    0.1939102 -55.54  0.000479466    1.178    0.151
        85 -13.7576     44.5017    129.4816   1.0293533901e+02   4.4339493167e+01    0.6687162    0.3544033  -5.17  0.002417545    3.722    0.731
        86 -13.6155     21.9822    128.4932   1.0987244284e+02   4.6750522149e+01    0.2820866    0.2179341  40.39  0.001648549    1.464    0.317
        87 -12.2807    143.2147    211.3871   9.0522784487e+01   9.3167142396e+00    0.3590587    0.2658092 -36.64  0.001399543    1.470    0.320
        88 -13.6536    177.6854    202.0192   8.1276431977e+01   5.3814237402e+00    0.4269287    0.2594228  -9.13  0.001096198    2.564    0.610
        89 -13.8300    146.7857    202.6269   8.8235403318e+01   1.0516824270e+01    0.5234675    0.4581355  43.03  0.001239611    1.136    0.119
        90 -12.3632    184.9923    236.2501   8.5624670064e+01  -1.8341018969e+00    0.1777442    0.1452555  16.48  0.000220811    1.048    0.046
        91 -14.8283     90.6029    120.8563   8.6496224045e+01   3.9968171260e+01    0.6997951    0.4615186  29.96  0.003122531    1.658    0.397
        92 -11.0365    108.6593    243.3307   1.0265428473e+02   8.4205028745e+00    0.1363113   0.08731531  61.20 0.0007051531    1.745    0.427
        93 -11.8248    199.0167    119.9833   5.9432288275e+01   1.7713757164e+01    0.2381132    0.1752452 -69.03 0.0008274434    1.667    0.400
        94 -14.4335    120.3192    120.7038   7.7725361136e+01   3.4385081892e+01    0.6587912     0.351489 -50.37  0.002058764    1.856    0.461
        95 -10.7125    221.4315    115.5414   5.4565100805e+01   1.4027506324e+01    0.1402865    0.1234732 -36.27 0.0001002028    1.078    0.072
        96 -13.1147    106.5774    114.3458   8.0029317595e+01   3.8602344729e+01    0.3807026    0.2827974  -7.95  0.001663699    1.835    0.455
        97 -12.0079    190.8323    113.8440   5.9502100523e+01   2.0630824736e+01    0.4062184    0.2365695  26.62  0.001514786    2.930    0.659
        98 -14.9796     55.0284    110.0840   9.5596864594e+01   4.7994414125e+01    0.9873822    0.6619541  68.95  0.003192702    2.161    0.537
        99 -15.0480     88.7325    110.6050   8.4531235923e+01   4.2777126540e+01    0.7819929    0.5861773  -8.07   0.00275427    1.727    0.421
       100 -12.9924     78.6434    105.0992   8.6382966777e+01   4.5789203504e+01     0.299801    0.2431222 -10.75 0.0003504284    1.408    0.290
       101 -15.4680     73.5078    131.5056   9.4195791555e+01   4.0052560844e+01    0.8466815    0.6680378  38.42  0.002831363    1.343    0.255
       102 -13.6802    109.0955    109.2501   7.7943740880e+01   3.9294033602e+01    0.4755351    0.2977161  66.11  0.001803141    2.481    0.597
       103 -13.7077     61.8353    108.2500   9.2841126354e+01   4.7548143499e+01     0.506653    0.3110255   3.52  0.002116034    2.424    0.588
       104 -13.1280    116.4494    104.3851   7.4494854082e+01   3.8904181740e+01    0.4920092    0.3026106  21.42  0.001413895    2.389    0.581
       105 -11.4523    212.8791    104.0403   5.3318662784e+01   1.7822030398e+01     0.208348    0.1872333 -49.39  0.000374391    1.015    0.015
       106 -14.1657     75.4930    111.0305   8.8922962583e+01   4.4864450895e+01    0.4620439    0.3722828 -68.32    0.0013382    1.320    0.243
       107 -10.5631    169.3116    246.7113   9.0408929199e+01  -1.2336738441e+00    0.1181418   0.09335298  53.31 0.0003010679    1.582    0.368
       108 -11.1423     99.6576     99.2208   7.8035564288e+01   4.3414279418e+01    0.2131822    0.1366435 -39.58 0.0003372155    1.560    0.359
       109 -12.2304     38.5348     96.1278   9.8323095606e+01   5.3286846502e+01    0.2733513    0.1750181  -8.28  0.001250537    1.989    0.497
       110 -11.9798     20.0098    233.5090   1.2013464398e+02   2.1821291288e+01    0.2493461    0.1644662 -76.14  0.001601309    1.459    0.315
       111 -11.0951     34.3150     94.3240   9.9485776826e+01   5.4138890620e+01    0.1459569    0.0886953 -34.41  0.000704238    1.665    0.399
       112 -13.4792     72.9455     98.0000   8.6432538041e+01   4.8368414770e+01    0.4216644    0.2508499  28.61  0.001874542    1.836    0.455
       113 -13.9721     69.3035     96.0203   8.7162101240e+01   4.9389730182e+01    0.4650759    0.3417718 -61.21  0.001916365    1.438    0.304
       114 -11.7380    214.5386     91.7105   5.0204592923e+01   1.9652517287e+01    0.2471745     0.197427  62.06  0.001377693    1.364    0.267
       115 -10.9938    196.2353     92.3576   5.3289346664e+01   2.3481087874e+01    0.1939642    0.1359989  70.19 0.0003968036    1.614    0.381
       116 -12.9545    136.9356     87.5401   6.4244320081e+01   3.7961871188e+01    0.6073824    0.2544512 -36.97  0.002125545    2.549    0.608
       117 -11.0806      6.2029    202.0026   1.2102009325e+02   3.0040893127e+01    0.2842824    0.1324191 -88.05  0.001157001    1.886    0.470
       118 -12.2082    123.5340    206.3812   9.4256875396e+01   1.3641947658e+01     0.416871    0.2184519  39.09  0.001337758    1.768    0.434
       119 -11.6039     88.4922     91.5599   7.9396050240e+01   4.7200968013e+01    0.1488298    0.1413689 -18.20 3.825885e-05    1.009    0.009
       120 -11.4677     20.4954     91.4840   1.0408627252e+02   5.6002727971e+01    0.1332998    0.1104387 -50.44 -1.178127e-05    1.007    0.007
       121 -10.4424      3.4609     91.4467   1.1047078165e+02   5.7085991747e+01     0.126993    0.1020099 -57.94 0.0001083696    1.007    0.007
       122 -12.4507     71.3897     87.2935   8.3987704624e+01   5.1047449621e+01    0.2563196    0.1779375  18.21 0.0007618497    1.636    0.389
       123 -11.8098    117.9518    213.4693   9.6638532915e+01   1.3028808602e+01    0.2540227    0.2255974  52.00 0.0003065534    1.074    0.069
       124 -12.2056    121.9029     86.5188   6.7853172708e+01   4.1524644601e+01    0.2378609    0.1494496  46.58  0.001033115    1.592    0.372
       125 -11.9384    115.4550     86.5339   6.9648936649e+01   4.2915944325e+01     0.275905    0.1406435  35.42  0.001033572    2.265    0.559
       126 -13.3943    106.0479     80.2071   7.0456381091e+01   4.6164414039e+01    0.5273982    0.3451705 -78.56  0.001940255    3.124    0.680
       127 -11.7285    153.0642     80.2849   5.8417562027e+01   3.5597845094e+01    0.2410607    0.2133195 -43.76 0.0004709401    1.129    0.114
       128 -11.0352    172.0522     80.2515   5.4543078888e+01   3.1149860361e+01    0.2031978    0.1863442  66.65 0.0004887456    1.099    0.090
       129 -12.6703     86.8783     79.3743   7.6250788798e+01   5.0088478729e+01    0.2753951    0.2019513 -68.05  0.001098021    1.867    0.464
       130 -13.3840     57.8935    100.1187   9.2246830416e+01   5.0047221919e+01    0.3595273    0.3184756 -84.67  0.001103009    1.299    0.230
       131 -11.0577    159.4539     76.9538   5.6132638080e+01   3.4691500664e+01    0.2061324    0.1184972 -60.49  4.91792e-05    2.272    0.560
       132 -12.9372     75.5094     75.8959   7.9065510633e+01   5.2809743046e+01    0.2977242    0.2514805 -34.60 0.0005858199    1.126    0.112
       133 -13.0170    115.3303     74.9149   6.6126470378e+01   4.5211987797e+01    0.4361952    0.3092065  10.55  0.001925773    1.975    0.494
       134 -12.6013    212.8907    200.7757   7.3902531979e+01  -6.5546714592e-02    0.2733873    0.2148407  73.33  0.001415016    2.386    0.581
       135 -12.1645    125.4529     72.9047   6.2784094622e+01   4.3332867345e+01    0.4118062    0.2434944 -38.71  0.001802366    1.722    0.419
       136 -13.4952     60.0282     96.0552   9.0454885261e+01   5.0721789967e+01    0.4436655    0.3200461 -37.25 0.0004281792    1.329    0.247
       137 -12.8210     87.0337     68.6822   7.2745263577e+01   5.2171439837e+01     0.305262    0.2060012 -39.37 0.0003974036    1.468    0.319
       138 -13.4067     99.5562     67.8242   6.8454636688e+01   4.9864332273e+01    0.3358321    0.2668274 -23.33  0.001713278    1.312    0.238
       139 -11.6333    195.9534     68.0040   4.7323429549e+01   2.7679131895e+01    0.1729677    0.1551675 -89.33  0.001006345    1.076    0.070
       140 -12.0558     59.0893     76.8544   8.5410744466e+01   5.5167046538e+01     0.199689      0.19452  86.32  0.000501412    1.253    0.202
       141 -11.3472    128.7615    234.3040   9.7177300605e+01   7.1083008146e+00    0.1980612    0.1520555 -24.99  0.001111474    1.614    0.380
       142 -12.1129    113.5247    212.9205   9.7584344865e+01   1.3855574737e+01    0.3442645    0.1776181  41.00  0.001543738    1.767    0.434
       143 -11.8878    136.9238    209.7018   9.1681209371e+01   1.0711219756e+01    0.4591637    0.1728781 -41.75  0.001623985    3.259    0.693
       144 -14.0764     80.2574     99.2648   8.4295056482e+01   4.6892511546e+01    0.4027219    0.3731477 -22.83  0.001600157    1.051    0.049
       145 -11.9125     45.0988     60.3801   8.5775499137e+01   6.0426900216e+01    0.2432122    0.1854853 -47.84 0.0006785509    1.322    0.243
       146 -11.5497      1.8691     60.3618   1.0496148031e+02   6.4180651451e+01    0.2299112    0.1327065 -49.06 0.0006833897    1.323    0.244
       147 -12.3862    109.5129     59.9428   6.2909687721e+01   4.9137966403e+01     0.232206    0.1920731  46.86 0.0009632042    1.171    0.146
       148 -12.5069    206.0190    211.5081   7.7210459412e+01  -8.5245175220e-01    0.1954876    0.1210808  32.58 0.0004739594    1.576    0.365
       149 -10.9351    193.6764     57.6823   4.5092358477e+01   2.9796620402e+01    0.1322425    0.1080441  27.16 0.0003681682    1.670    0.401
       150 -11.2517    224.5372     55.6934   4.0686622422e+01   2.3277332982e+01     0.234177      0.12079 -33.87 0.0008587846    1.986    0.496
       151 -11.4539    138.9299     56.5009   5.4498552800e+01   4.2957497387e+01    0.2147384     0.136779  57.26  0.000411467    1.505    0.336
       152 -11.8998    111.2724     53.6015   6.0293063178e+01   4.9778644634e+01    0.2085455    0.1244343  42.01 0.0006870767    1.632    0.387
       153 -11.3350     65.5087     52.3857   7.4713068262e+01   5.8947111963e+01    0.2081922    0.1241157  36.82 0.0007110716    1.661    0.398
       154 -14.4888    187.0902    185.8632   7.6206672602e+01   6.8982597736e+00    0.5700823    0.2993408  35.68  0.002509583    1.935    0.483
       155 -10.6242     17.3140     51.3314   9.5308353582e+01   6.5064129544e+01    0.1346568   0.07418436 -29.32  0.000704521    1.679    0.405
       156 -10.8618    153.3267     44.2933   4.7964926799e+01   4.1289797739e+01    0.1402556    0.1032972  34.00 0.0002840521    1.623    0.384
       157 -14.6707    169.3358    205.7388   8.3748683122e+01   6.0643737277e+00    0.5652344    0.3809792  37.04  0.001735816    1.425    0.298
       158 -11.6181    219.7923    206.5741   7.3672458071e+01  -2.0777376915e+00    0.2422195    0.1177555  30.47   0.00114158    2.115    0.527
       159 -11.2223     52.7596     38.9916   7.4639942210e+01   6.3193250908e+01    0.1625981    0.1008718 -34.97 0.0005473667    1.559    0.358
       160 -11.0992    231.9594     37.4946   3.5987579237e+01   2.4239389940e+01    0.1800433   0.08817018 -78.55  0.000809454    2.558    0.609
       161 -11.9207     11.9569     36.8396   9.3140100887e+01   6.8246454615e+01    0.2083107    0.1687131 -45.95  0.001168243    1.298    0.230
       162 -12.0475     27.1441     35.7210   8.5006041194e+01   6.7052429090e+01    0.2505904    0.1250846 -25.44  0.001066677    2.115    0.527
       163 -11.8482     43.9776     34.2718   7.6493702869e+01   6.5214954850e+01    0.1783229    0.1439764  10.07 0.0004311454    1.104    0.094
       164 -11.7713    106.5824     32.2832   5.4072282457e+01   5.3809834604e+01      0.23875    0.1267847 -34.25  0.001084069    2.019    0.505
       165 -12.6237    173.6342    235.8420   8.7873636283e+01  -7.6680436452e-02    0.2630442    0.1718431  37.17  0.001233917    1.420    0.296
       166 -11.8530     39.2222     28.9860   7.6406909728e+01   6.6678379257e+01    0.2059176    0.1565177  13.96 0.0005015655    1.176    0.149
       167 -11.2299    208.0000     26.0004   3.5778131248e+01   3.0819913203e+01    0.1965069   0.06712732 -33.07 0.0008043044    2.955    0.662
       168 -12.2186    101.9948     25.5266   5.2771468625e+01   5.5626513897e+01    0.2087751    0.1196311  56.39  0.001032333    1.598    0.374
       169 -11.8479     84.0079     23.4683   5.6960673489e+01   5.9685417330e+01    0.1946835    0.1157167  50.23 0.0004728058    1.531    0.347
       170 -10.9760     20.5076     23.4620   8.3288934290e+01   6.9754641339e+01    0.1212833   0.09148424 -12.01 3.636014e-05    1.050    0.047
       171 -11.3848    172.5691     21.7671   3.8733377508e+01   3.9457718540e+01    0.1812891    0.1098828 -46.85 0.0009516245    1.654    0.395
       172 -10.6768    191.3386     21.3249   3.6413378637e+01   3.5127804305e+01    0.1246177   0.09246589  42.65 0.0007051302    1.724    0.420
       173 -12.6343    216.8537     14.0467   3.2329110156e+01   3.0269019486e+01    0.3115389    0.1486232  89.42  0.001549088    2.145    0.534
       174  -9.9920     37.1264    244.4809   1.1749072654e+02   1.7697875155e+01    0.2609285    0.1456379  23.39  0.001389473    2.380    0.580
