#   1 NUMBER                 Running object number                                     
#   2 MAG_AUTO               Kron-like elliptical aperture magnitude                    [mag]
#   3 X_IMAGE                Object position along x                                    [pixel]
#   4 Y_IMAGE                Object position along y                                    [pixel]
#   5 X_WORLD                Barycenter position along world x axis                     [deg]
#   6 Y_WORLD                Barycenter position along world y axis                     [deg]
#   7 A_WORLD                Profile RMS along major axis (world units)                 [deg]
#   8 B_WORLD                Profile RMS along minor axis (world units)                 [deg]
#   9 THETA_WORLD            Position angle (CCW/world-x)                               [deg]
#  10 FWHM_WORLD             FWHM assuming a gaussian core                              [deg]
#  11 ELONGATION             A_IMAGE/B_IMAGE                                           
#  12 ELLIPTICITY            1 - B_IMAGE/A_IMAGE                                       
         1 -12.0831    125.4091     27.8139   4.3453751653e+01   4.9675231884e+01    0.5880319    0.5005211 -27.72   0.00217995    1.350    0.259
         2 -12.3727    119.6091     37.1584   4.7692085155e+01   4.9933589250e+01    0.7178603    0.4865897 -61.54  0.002389287    1.968    0.492
         3 -11.3154    105.9807     20.4566   4.5197044458e+01   5.4925946416e+01    0.4440278    0.3379496 -70.88  0.002316824    1.743    0.426
         4 -13.1210    163.7785     19.1430   3.4761560033e+01   4.1585445603e+01    0.7169757    0.4239407  23.38  0.001086955    3.230    0.690
         5 -11.8989     35.9490     18.1718   6.8513669821e+01   6.8650246675e+01    0.7916391     0.371803 -24.55  0.003978346    2.276    0.561
         6 -11.5694     26.7113     28.1246   7.7777373390e+01   6.8447047238e+01    0.4851978    0.3053939 -34.25  0.002658872    1.504    0.335
         7 -10.8863    148.0304     16.2706   3.6146233274e+01   4.5550498073e+01    0.4415164    0.2090591  41.32  0.001963731    2.678    0.627
         8 -11.9762    136.5206     22.6927   3.9814270860e+01   4.7611426089e+01    0.7860875    0.3023176  53.29  0.003391143    2.218    0.549
         9 -10.2978    121.2961     11.8457   3.9168348388e+01   5.2216679497e+01    0.5313254    0.2079834  64.00  0.001786281    2.120    0.528
        10 -11.5077    134.7391     15.3027   3.7915677835e+01   4.8762694433e+01    0.5246144    0.3282648  60.20  0.002650811    1.340    0.254
        11 -11.5855    127.6170     15.8449   3.9291748607e+01   5.0379769619e+01    0.5730506    0.3131211 -24.61  0.002407236    2.190    0.543
        12 -12.2335     20.1320     21.8756   7.8601772045e+01   7.0134635630e+01    0.6059083    0.2431663 -38.13  0.002359198    2.311    0.567
        13 -11.0545     13.7262      9.0799   7.6201212559e+01   7.2629770826e+01    0.3569471    0.2103896 -16.82  0.002223851    1.505    0.336
        14 -12.7845     16.7849     13.3980   7.6533350937e+01   7.1714652301e+01    0.7783018    0.3665299  -9.62 0.0007830453    3.015    0.668
        15 -11.3700     86.0788     13.9474   4.7805468675e+01   5.9932562906e+01    0.4052963    0.2885711  -5.41  0.002007481    1.615    0.381
        16 -11.0135     90.9191     21.1940   4.9261616974e+01   5.8184039507e+01    0.4260113    0.2662561 -24.47  0.002325295    1.820    0.451
        17 -11.8021     68.1186     18.1247   5.5071663026e+01   6.3182495553e+01     0.407771    0.3484702  15.48  0.001502365    1.104    0.095
        18 -10.4401     47.0062     19.3826   6.3922982395e+01   6.6808255567e+01    0.2827989    0.1923915 -15.07  0.001421223    1.456    0.313
        19 -12.0589    228.3782     15.9043   2.7720038330e+01   2.7941725721e+01    0.3283364    0.1928355 -77.56 0.0006607103    1.503    0.335
        20 -10.8942    187.8664     15.7303   3.1182542737e+01   3.6469023377e+01    0.4248201    0.2094371 -87.59  0.002063843    2.206    0.547
        21 -11.7298    192.0483      8.7473   2.9216074010e+01   3.6263570212e+01    0.4675026    0.3252195  -6.07  0.001825517    2.408    0.585
        22 -10.3829    188.7647      4.0397   2.8468996950e+01   3.7437789617e+01    0.1899789    0.1198334 -59.85 0.0004709477    1.468    0.319
        23 -12.1354    104.7338     12.9836   4.2862088057e+01   5.5914181396e+01    0.4071642    0.3180874 -10.80  0.001237139    1.516    0.340
        24 -12.0391     48.6790     12.9686   6.0216707770e+01   6.7266128220e+01    0.5178498    0.2427244  44.66  0.002651911    1.926    0.481
        25 -11.4764    211.3743     10.5267   2.7958020080e+01   3.1966264907e+01    0.3865604    0.2921882   4.79  0.002389369    2.447    0.591
        26 -10.2535      5.1288     12.5696   8.3285482405e+01   7.2963637876e+01    0.3126956    0.1241415  19.98  0.001631855    2.328    0.570
        27  -9.5895      5.4435      9.4587   8.1581308585e+01   7.3388668696e+01    0.2206239    0.1177228 -18.64 0.0009351186    1.672    0.402
        28 -10.9279    163.1154      8.6382   3.2158186294e+01   4.2769609649e+01     0.388447    0.2008723 -27.99    0.0020535    2.281    0.562
        29 -10.6075    168.7564      9.7477   3.1792819636e+01   4.1373117978e+01    0.3754414    0.1513358  56.60  0.001769813    2.277    0.561
        30  -9.9923    145.1946      9.7690   3.4740652262e+01   4.6822881512e+01    0.1991317    0.1676174  40.00 0.0006472585    1.351    0.260
        31  -9.7889     88.8257      7.5095   4.4589151485e+01   5.9904276869e+01    0.2901658    0.1769877  30.85   0.00110551    1.650    0.394
        32 -10.1501     84.7594      8.4537   4.6007677139e+01   6.0699739751e+01     0.265944     0.207335 -29.62  0.001445149    1.539    0.350
        33  -9.4994      1.0000      7.8428   8.3706388377e+01   7.3993909011e+01    0.1638082   0.05439909 -44.75 0.0007088857    2.843    0.648
        34 -10.0936    232.9683      7.4907   2.5819742124e+01   2.7960026796e+01    0.1627482   0.09129981  81.72  0.001030769    1.584    0.369
        35 -11.3730    183.9649      5.5644   2.9246504573e+01   3.8348992840e+01     0.351743    0.2032439 -59.44  0.001431223    1.663    0.399
        36 -10.6193    157.8834      6.8730   3.2322539671e+01   4.4135165307e+01    0.1977587       0.1856   6.52 0.0004323876    1.390    0.280
        37 -10.4573    156.9762      1.9506   3.1155872043e+01   4.4771189537e+01    0.2911608    0.2098791  73.09  0.001601775    1.142    0.124
        38  -9.4737     78.1849      7.3885   4.7390792529e+01   6.2174176440e+01    0.2637794    0.1715182  72.78  0.001051963    1.959    0.490
        39  -9.8133     76.5174      3.4713   4.6248606505e+01   6.2837537882e+01    0.2244007    0.1677184  37.61 0.0007216432    1.104    0.094
        40  -9.6665     73.0195      2.7632   4.6954883866e+01   6.3613060344e+01    0.2034121     0.148834  30.11  0.001300862    1.207    0.171
        41  -9.8748     62.9720      6.6369   5.1830023564e+01   6.5289514512e+01    0.2053151    0.1464952  18.87  0.001288368    1.306    0.234
        42 -10.2272    247.9430      5.3581   2.4524522340e+01   2.5372229043e+01    0.1762329    0.1528762  87.16  0.001341672    1.387    0.279
        43 -11.2942    176.8504      5.8390   2.9996136142e+01   3.9908567919e+01    0.3413776     0.174353  83.74  0.001002171    1.788    0.441
        44  -9.7482    153.6534      6.7158   3.2797016545e+01   4.5126953688e+01    0.1258058   0.07965185  48.80 0.0005039466    1.647    0.393
        45 -10.6976    237.2057      4.8048   2.5062167622e+01   2.7431425717e+01    0.2032813   0.07083404 -63.54 0.0009565959    2.857    0.650
        46 -11.0960    142.5201      3.8095   3.3442524891e+01   4.7958034306e+01    0.4700541     0.180144  74.96  0.002036862    2.444    0.591
        47 -10.7671    137.5604      4.4763   3.4315631415e+01   4.9056265717e+01    0.2260389    0.1819561  84.04 6.928467e-05    1.124    0.110
        48 -11.5224    133.6283      2.2530   3.4232532337e+01   5.0148178559e+01    0.3767736    0.2138801  61.52  0.001634985    1.423    0.297
        49 -10.0056     41.5070      3.9441   5.8923124160e+01   6.9386130762e+01    0.3499977    0.1721172  -1.25  0.001651983    2.874    0.652
        50 -12.1042     23.0113     11.3667   7.1964126997e+01   7.1254263329e+01    0.4530371    0.2784558  12.60  0.002008725    1.403    0.287
        51 -10.4726    218.7914      3.5204   2.6019146836e+01   3.1169588301e+01    0.2277143    0.2017251  66.52  0.001224361    1.456    0.313
        52 -10.8086    223.6792      2.1363   2.5425567675e+01   3.0331737402e+01    0.2177274    0.1503122 -84.24 0.0008483659    1.155    0.134
        53 -10.4123    241.6111      3.1733   2.4507870306e+01   2.6772063193e+01    0.1301861   0.09601121 -35.42 0.0005142394    1.654    0.395
        54 -10.3118    233.5416      2.7314   2.4911043964e+01   2.8346223501e+01    0.1514132   0.07766717 -51.64 0.0007297809    1.590    0.371
        55 -11.0302    205.9344      2.1820   2.6677908435e+01   3.3942725346e+01    0.4389233    0.1690822 -89.19  0.001987235    2.861    0.650
        56 -11.2864    115.9879      2.4398   3.7086765942e+01   5.4211047077e+01    0.3352136    0.1840072  64.78  0.001819925    1.475    0.322
        57 -11.1504      2.6147      1.8832   7.9559120421e+01   7.4682075886e+01     0.320406    0.1542425  11.05  0.001848529    1.925    0.481
        58 -10.8540    105.3705      1.7572   3.8816173919e+01   5.6680713445e+01    0.2706856    0.1570151  73.24  0.000963174    1.660    0.398
        59  -9.9865     12.8962      1.8893   7.2909070952e+01   7.3631169123e+01    0.2824311    0.1221328  21.62  0.001498786    2.146    0.534
        60  -9.6880    152.4707      1.3311   3.1517255687e+01   4.5859101333e+01    0.2117869   0.09517192  72.54  0.000779341    1.844    0.458
        61  -9.4293    123.2807      1.2192   3.5485920442e+01   5.2623628763e+01    0.1984732   0.08899944  78.55 0.0007068202    2.369    0.578
        62  -9.5105     82.0441      1.1489   4.3816025097e+01   6.1852466623e+01    0.1632959   0.07059646  58.01 0.0003235016    1.868    0.465
        63 -12.9779    103.9114    122.4641   7.7734263996e+01   3.7282263044e+01    0.3666854    0.3423859  -9.41 0.0005069391    1.074    0.069
        64  -9.4838    249.3526    250.3012   7.0137007746e+01  -1.1948973894e+01    0.1222342    0.0674407  -6.76 0.0007038385    1.700    0.412
        65  -9.6818     89.9962    250.4922   1.0334766839e+02   8.9578331481e+00    0.1788815    0.1095446   6.54 0.0008103276    2.547    0.607
        66  -9.0301     77.4341    123.4321   8.6507526548e+01   4.1642526627e+01    0.1518662    0.1465158 -39.96 2.661943e-05    1.036    0.035
        67 -10.3757     49.9081    122.8477   9.5845380083e+01   4.5575350280e+01    0.3252318    0.2050635  26.88  0.001185243    1.692    0.409
        68 -10.6673     45.0590    120.0499   9.6992077254e+01   4.6847234901e+01    0.3467629    0.2648714  76.14  0.001105017    1.656    0.396
        69 -10.2150     43.5125    116.4943   9.6828582417e+01   4.7926410004e+01    0.2553468    0.2209256  18.22 0.0008512283    1.248    0.199
        70  -9.6120     19.1765    122.5844   1.0651674697e+02   4.8550933059e+01     0.184503    0.1545676 -77.70 0.0004428871    1.156    0.135
        71  -9.3430     13.9208    118.9862   1.0779312318e+02   4.9833819697e+01    0.1570989    0.1345876 -57.55 0.0003739443    1.018    0.018
        72 -12.4148      2.8587    111.9464   1.1065710359e+02   5.2241430569e+01    0.5596915    0.3768291  62.43  0.001467666    1.823    0.452
        73 -11.3221      3.8810    105.1654   1.0932664720e+02   5.3877597126e+01    0.4116596    0.3506808 -11.00  0.001777903    1.306    0.234
        74 -11.9057     17.3607    100.9591   1.0355842675e+02   5.4131555545e+01     0.364476    0.2949971 -34.89 0.0005605713    1.143    0.125
        75 -11.6905     35.5400     92.6744   9.4618111260e+01   5.4633893249e+01     1.396705    0.5774459 -63.15  0.005444383    2.526    0.604
        76 -11.0470     25.4506     87.2901   9.7482758632e+01   5.6819795141e+01    0.9082624    0.5333134  86.55  0.003641198    3.334    0.700
        77 -10.5819     29.3127     85.1122   9.5350409448e+01   5.6995993782e+01    0.3641017    0.3028084  79.14   0.00118397    1.639    0.390
        78 -12.6413     24.7427    106.6264   1.0180744098e+02   5.2181338788e+01     1.130798    0.8146869 -43.57  0.006202774    1.222    0.182
        79 -10.4566     37.3260     85.8795   9.2200225349e+01   5.6044464407e+01    0.3538859    0.2574513  27.74  0.001018417    1.485    0.327
        80 -11.4355     23.0220     94.6951   1.0010387661e+02   5.5249253034e+01    0.4013588    0.2799734 -14.72  0.001407335    1.507    0.336
        81 -11.8882     18.1126     90.5892   1.0123081181e+02   5.6595280626e+01    0.6080513     0.296017 -56.47 0.0007796035    1.676    0.403
        82 -11.2821     21.5012    114.5420   1.0441264415e+02   5.0435704349e+01    0.5171359    0.2757665   0.43  0.001908143    2.383    0.580
        83 -11.1506     28.1308    113.1926   1.0177312385e+02   5.0249543367e+01    0.4330104    0.2285842   9.29  0.001888078    2.284    0.562
        84 -10.0483     48.6593    112.4107   9.4097257999e+01   4.8383051831e+01    0.2619828    0.2298197 -62.58 0.0009767814    1.148    0.129
        85  -9.4027     93.9972    112.5077   7.8308203021e+01   4.1509634373e+01    0.2165392    0.1316395  58.71 0.0008082583    2.390    0.582
        86  -9.7527     66.4411    110.7481   8.7273177790e+01   4.6469206007e+01    0.3432213    0.1778442  32.90  0.001407211    1.983    0.496
        87  -9.3917    170.5219    110.4703   5.7276423237e+01   2.5922574608e+01    0.1494112    0.1438799 -45.27 8.530819e-05    1.015    0.015
        88  -9.1302    120.2924    109.3578   6.9421725217e+01   3.7061220446e+01    0.1635639     0.123707  -8.96 0.0007029554    1.691    0.409
        89 -10.1346    101.9908    109.0173   7.4823467947e+01   4.0825469424e+01    0.2551424    0.1906587  -7.54 0.0005820612    1.684    0.406
        90 -11.4736     79.7617    108.0543   8.1906354296e+01   4.5052401963e+01    0.5260836      0.31525  25.32 0.0008851655    1.817    0.450
        91 -10.0186     15.5357    109.1823   1.0568336121e+02   5.2208905234e+01    0.2735108    0.1544576  40.61  0.001322496    2.120    0.528
        92  -9.1864    175.6648    106.6969   5.5280204923e+01   2.5548652624e+01    0.1483318    0.1186878   6.91  0.000703741    1.663    0.399
        93  -9.4703    143.4551    105.9631   6.2321070446e+01   3.2795270722e+01    0.2184117    0.1334487 -65.45 0.0008075693    2.436    0.590
        94 -11.3840     44.5210     85.0052   8.9000599091e+01   5.5451457382e+01    0.6725116    0.4061076  -3.59  0.002907238    2.043    0.511
        95 -10.5583     89.0300    104.5165   7.7804524785e+01   4.4283961624e+01    0.3085281    0.2659094  -6.70  0.001089529    1.205    0.170
        96  -9.8379     85.7127    103.6715   7.8692803446e+01   4.5069344640e+01    0.2480376    0.1783964 -32.67  0.000519111    1.427    0.299
        97 -10.6762     49.2618     91.4489   8.8818706789e+01   5.3401950831e+01    0.3397543    0.2982967  39.41  0.001743203    1.317    0.240
        98 -10.7123     50.7513    101.2389   9.0728724314e+01   5.0894105970e+01    0.4709333    0.2114822 -48.11  0.001563983    1.976    0.494
        99 -10.2439     52.4133     96.1939   8.8823615935e+01   5.1894930367e+01    0.2792704    0.2108413 -82.25   0.00135726    1.822    0.451
       100 -10.0870    145.5691    100.0574   6.0223347591e+01   3.3534856394e+01     0.317327    0.2263404 -20.88 0.0007442317    1.753    0.430
       101 -11.8128      9.3807     97.3881   1.0600213126e+02   5.5500063710e+01     0.484094    0.3899246  68.12 0.0009470045    1.544    0.352
       102 -12.3406      7.2625     89.1694   1.0536830309e+02   5.7593881552e+01    0.5130085    0.3758585   7.14 0.0008542813    1.524    0.344
       103 -12.2963    248.9852     96.0199   4.1412181862e+01   1.2970672526e+01    0.4770084    0.3026244 -15.63  0.002269912    2.889    0.654
       104 -10.8852     80.0573     98.0641   7.9095153147e+01   4.7338373703e+01    0.4057411    0.2932405  44.39  0.001925985    1.503    0.335
       105 -11.3177     68.5430     95.7171   8.2589460441e+01   4.9742360180e+01    0.4169678    0.3014038   3.69  0.000836272    1.579    0.367
       106 -10.7626     42.9639     94.4946   9.2094106510e+01   5.3422293582e+01    0.3499336    0.2818041 -35.30  0.001387229    1.109    0.098
       107 -10.1133    125.8111     94.2478   6.3683696191e+01   3.9098492229e+01    0.2957971    0.2439801  36.01 0.0006414201    1.215    0.177
       108 -10.2756    122.3309     93.6792   6.4478238390e+01   3.9973833922e+01    0.2722571    0.2118925 -52.52   0.00110373    1.376    0.273
       109 -10.2987     82.9615     93.4533   7.6763564857e+01   4.7871898583e+01    0.2991827    0.2205785  29.67 0.0004243957    1.358    0.263
       110 -10.7281     79.1119     92.4802   7.7836933947e+01   4.8756638483e+01    0.4250231    0.3373901 -45.16  0.002157211    1.254    0.203
       111 -11.4699     98.3812     91.0490   7.0883956433e+01   4.5507073733e+01    0.2695464    0.2571993   1.83 0.0003116475    1.012    0.012
       112 -12.0028     89.2596     89.5995   7.3463791907e+01   4.7566636566e+01    0.4149554    0.3095337 -29.02 0.0005114121    1.383    0.277
       113 -10.1689     66.3646     88.9099   8.1477908924e+01   5.1619426512e+01    0.3374728    0.2291407  -0.98  0.001312411    1.799    0.444
       114 -10.0197    104.1610     87.6213   6.8035975231e+01   4.5056784591e+01    0.2629958    0.1780486 -35.50  0.001193059    1.525    0.344
       115 -13.4786    247.1118     76.3021   3.7756958109e+01   1.6370339224e+01    0.7635005    0.3838916 -44.96  0.004097755    1.615    0.381
       116 -10.6161    113.1655     82.9021   6.3910902509e+01   4.4103154754e+01    0.4342166    0.3445462  79.05  0.001867332    1.690    0.408
       117 -10.7489     80.1931     83.7768   7.4853759619e+01   5.0448062778e+01    0.4311067    0.3614971 -19.60  0.002179073    1.173    0.148
       118 -11.2294     76.8959     80.2616   7.4953821626e+01   5.1757454189e+01    0.7095737     0.329375 -51.36   0.00274477    2.419    0.587
       119 -10.5734     72.9981     78.9872   7.5990152352e+01   5.2686824642e+01    0.4564364    0.2757548 -52.87  0.002045606    1.866    0.464
       120 -10.0866     60.5612     83.3825   8.2093386733e+01   5.3706299056e+01    0.2387394    0.2191748   9.79 0.0005468621    1.105    0.095
       121 -10.1634     67.1678     81.7099   7.9033404415e+01   5.3065359693e+01    0.3592375      0.25521 -20.93  0.001756542    1.496    0.332
       122  -9.2581      1.1760     80.8891   1.0634457929e+02   5.9828929988e+01    0.1575765   0.08302208 -66.91 0.0007936999    1.673    0.402
       123 -11.6313     53.1846     76.2878   8.2915547543e+01   5.6274058009e+01    0.5878445    0.4025441 -53.49  0.002978628    1.559    0.359
       124 -11.0119     58.2671     77.7763   8.1310721065e+01   5.5245573925e+01    0.3172191    0.2403211 -36.75 0.0007680511    1.236    0.191
       125 -11.6762     13.8612     74.5827   9.9497102779e+01   6.0593258163e+01    0.5378494    0.3146212 -70.06  0.002496922    1.896    0.473
       126 -10.2637     14.1201     67.5848   9.7653474633e+01   6.2125437797e+01    0.4044281    0.2096022   9.87  0.002039378    2.056    0.514
       127 -10.3276     94.2083     75.3615   6.7405283738e+01   4.9494161626e+01    0.5244374    0.3948357 -74.33  0.002412795    2.066    0.516
       128 -11.5599     85.7838     73.0084   6.9476240726e+01   5.1584205084e+01    0.5503153    0.3415608  33.16  0.001522843    1.585    0.369
       129 -10.7783     79.0581     67.9766   7.0183122638e+01   5.3789068882e+01    0.5285178    0.3222455  53.35  0.002331209    2.104    0.525
       130 -10.4201     75.8361     63.3283   6.9772541043e+01   5.5229098161e+01    0.3539187    0.2469823 -43.53  0.001025862    1.540    0.351
       131 -11.8597     75.0893     54.4161   6.6895304530e+01   5.6913612176e+01    0.5649793    0.3441745 -42.79  0.001201467    1.806    0.446
       132 -10.8501     72.8211     47.4662   6.5166231411e+01   5.8451317919e+01    0.3270833    0.2283827 -41.71  0.001249608    1.628    0.386
       133 -10.4546    143.3538     84.4175   5.6456307875e+01   3.7060393023e+01    0.2512614    0.2383846 -88.01 0.0005542004    1.085    0.078
       134 -10.1690    103.8160     74.8975   6.4219982316e+01   4.7613473811e+01    0.2679527    0.2233156  50.27  0.001352155    1.231    0.188
       135  -9.7999     24.8887     74.5558   9.4580286559e+01   5.9776824859e+01    0.2079639    0.1525367 -46.62 0.0004689689    1.191    0.160
       136 -11.3100    187.1659     70.6580   4.4324288782e+01   2.9386326285e+01    0.5643632    0.3032355 -42.96  0.002630081    1.771    0.435
       137 -11.8657     40.9728     71.9640   8.6761234193e+01   5.8730441223e+01    0.4615008    0.2920743 -56.95  0.001412312    1.719    0.418
       138 -11.5211     35.0921     71.9337   8.9328423108e+01   5.9384872250e+01    0.7938722    0.2246729  26.91  0.002851423    3.479    0.713
       139 -11.4307      2.1611     71.4781   1.0403765059e+02   6.1932209626e+01    0.5126652    0.1978303 -64.84  0.001964094    2.269    0.559
       140 -12.4905      4.5435     62.3667   1.0085119391e+02   6.3819552086e+01    0.6684453    0.3638757 -25.48  0.001826607    1.685    0.406
       141 -11.7867     10.0961     62.3290   9.8185494877e+01   6.3516008212e+01     0.359846    0.2144906 -40.81 0.0008218416    1.341    0.254
       142 -11.1957    122.8779     68.9892   5.6986860715e+01   4.4489681163e+01    0.4794487    0.3090356  43.97  0.001375002    1.488    0.328
       143 -11.0519    220.5216     66.7264   3.8818825930e+01   2.2885535878e+01    0.4046415    0.2380513  73.43  0.002078362    1.855    0.461
       144 -11.4340     21.0457     64.8871   9.3693432518e+01   6.2193670931e+01    0.2422137    0.1709888 -48.23 0.0004827939    1.270    0.213
       145 -11.2187     59.1368     63.4941   7.6317551411e+01   5.7992440057e+01    0.3241826    0.2657464 -55.59 0.0005653389    1.533    0.347
       146  -9.3320    202.7471     64.5679   4.0610104458e+01   2.6915942322e+01    0.2468092     0.118934  57.82  0.001139259    2.112    0.527
       147 -10.1311    106.4219     63.8930   5.9903114975e+01   4.9008504176e+01    0.3120662    0.2005137  39.02  0.001466915    1.496    0.332
       148 -11.3881     92.0544     62.7103   6.3939853905e+01   5.2225511730e+01    0.5322949    0.3097943  56.30  0.002161871    2.105    0.525
       149 -10.2394     87.7865     57.0310   6.3389785139e+01   5.4040504218e+01    0.5720968    0.2249808 -37.44  0.002197886    2.688    0.628
       150 -10.3714     91.6998     57.1521   6.2149892804e+01   5.3229614140e+01    0.2948491    0.2644474  34.10 0.0009949586    1.069    0.065
       151 -10.6191     24.3327     39.0606   8.3494338375e+01   6.6909027797e+01    0.9614013    0.6166952  56.19  0.004279201    3.930    0.746
       152 -12.7273     43.2647     46.0200   7.6880666383e+01   6.3448204435e+01    0.8574486    0.6363711  41.74  0.004922394    1.671    0.402
       153 -10.8504     52.5212     48.1971   7.3579906758e+01   6.1750675680e+01    0.5256535    0.2172017  34.88  0.002257554    2.304    0.566
       154 -11.3111     40.4487     56.9549   8.2150583284e+01   6.1824749956e+01    0.3846342    0.2007993  34.94  0.001167641    2.030    0.507
       155 -11.6792     60.7241     47.8538   7.0007035182e+01   6.0508981570e+01     0.899788    0.4430902 -42.48  0.004120703    2.191    0.544
       156 -10.1386     55.7259     50.9734   7.3256530212e+01   6.0786876122e+01    0.1952433    0.1567156  16.70 0.0002606929    1.121    0.108
       157 -11.1751     52.2460     61.8445   7.8628336012e+01   5.9325618461e+01    0.3932517    0.2156585  38.91  0.001845007    1.963    0.491
       158 -11.4792     43.5771     62.4476   8.2602527344e+01   6.0368472433e+01    0.2838568     0.218583 -36.09 0.0003149682    1.211    0.174
       159 -11.1808     46.3344     58.9908   8.0210141461e+01   6.0683774458e+01    0.3398794     0.272657 -47.32 0.0009227842    1.402    0.287
       160 -11.8008    234.6208     60.9788   3.6042013127e+01   2.0952850910e+01    0.3101976    0.2710198  68.83  0.002037422    1.337    0.252
       161  -9.7174     65.1368     61.9357   7.3366995073e+01   5.7330665995e+01    0.1916265    0.1889163   4.84 0.0004333819    1.265    0.210
       162 -10.3775    122.1475     60.0925   5.4413621517e+01   4.6117394595e+01    0.3643589    0.2183685  37.21  0.001631276    1.784    0.439
       163 -10.7584    117.5061     56.0655   5.4320890672e+01   4.7801219348e+01    0.3746987    0.2828539 -66.81  0.001270094    1.745    0.427
       164  -9.2296     84.2971     61.3160   6.6062706006e+01   5.4002430677e+01    0.1460089    0.1056549   5.34 0.0002570865    1.608    0.378
       165 -11.4171     32.8789     52.5371   8.4157275135e+01   6.3548763867e+01     1.750142    0.4718598  18.69  0.004056282    9.081    0.890
       166  -9.8467     29.4214     59.6968   8.8188724710e+01   6.2512586251e+01    0.3494458    0.2698578 -60.56   0.00203329    1.584    0.369
       167 -10.5927     25.4895     55.9821   8.8877480328e+01   6.3636197205e+01    0.3658294    0.2066219 -23.10  0.001531739    1.749    0.428
       168 -10.1566    107.0259     58.7820   5.8050526818e+01   4.9716319432e+01    0.2156208    0.1943093  76.35 0.0006835061    1.289    0.224
       169  -9.8046     51.0346     56.7018   7.7352281439e+01   6.0465137679e+01    0.2009064    0.1602424   9.54  0.001161105    1.139    0.122
       170 -10.5462     24.5054     59.4889   9.0458287067e+01   6.3021126328e+01    0.4374685    0.2252399  36.35  0.002111292    2.358    0.576
       171 -10.7783    238.0018     55.9639   3.4698536803e+01   2.1018937858e+01    0.1786404    0.1472653 -62.41            0    1.055    0.052
       172 -10.0377    157.4515     54.9258   4.5297427317e+01   3.8631956210e+01    0.3577991    0.2177049 -53.29   0.00170126    1.797    0.444
       173  -9.7851     66.9040     54.1870   6.9907293235e+01   5.8409437011e+01    0.3635924    0.1706962 -48.45  0.001493573    2.667    0.625
       174 -11.4203    248.2162     53.5897   3.3275372006e+01   1.9446323412e+01    0.2404367    0.1805233  63.77  0.001590781    1.568    0.362
       175 -10.0082     13.9595     54.0446   9.3960908017e+01   6.4980857991e+01    0.1878697     0.150831 -25.91            0    1.023    0.023
       176  -9.5207    201.3583     53.2441   3.8210420269e+01   2.8869963227e+01     0.179343    0.1057763 -48.38 0.0005494477    1.563    0.360
       177 -10.7286    240.2048     50.8090   3.3477013508e+01   2.1313984204e+01    0.1468418     0.140213 -54.67 0.0009926724    1.357    0.263
       178 -10.6861    242.5167    247.5205   7.0886937753e+01  -1.0856322263e+01    0.2118039   0.08355024 -28.52  0.001033546    2.343    0.573
       179 -10.6206    109.1078     43.0248   5.2202427064e+01   5.1575283667e+01    0.5516415     0.242632 -27.27  0.002231569    2.750    0.636
       180 -11.1936    113.9062     38.1539   4.9358957562e+01   5.1121635409e+01    0.2829293    0.2687114  86.29  0.000306533    1.164    0.141
       181 -10.7968    113.9202     49.8311   5.3222597249e+01   4.9540696948e+01    0.6885479    0.3179855  36.04  0.002619335    2.678    0.627
       182 -12.1100    118.0046     43.7980   5.0228202803e+01   4.9447464538e+01    0.9664122    0.4077214  59.96  0.003393742    2.390    0.582
       183 -11.8505    127.0211    242.1643   9.3956701834e+01   5.3279142989e+00     0.411917    0.3002498  45.97  0.001772792    1.376    0.274
       184  -9.9674    175.7011     48.5334   4.0603739101e+01   3.5275723852e+01    0.2431435    0.1751778  49.82  0.001052025    1.492    0.330
       185 -10.4423     26.1973     48.1151   8.5874470787e+01   6.5084422481e+01    0.2536957    0.1672499 -22.19 0.0004449936    1.345    0.257
       186 -10.8124     12.8959     47.6754   9.2520529527e+01   6.6320842797e+01    0.4128234    0.1622975 -30.58  0.001812158    2.516    0.602
       187 -10.0007      2.4431     49.0768   9.8392624589e+01   6.6695463801e+01    0.2189358    0.1611247  10.29  0.001105777    1.447    0.309
       188  -9.6235    201.6654     48.7022   3.7142432441e+01   2.9434793703e+01    0.1197858   0.09861597  37.14  0.000703123    1.650    0.394
       189 -10.4761    146.0329     46.6026   4.5084703227e+01   4.2498675076e+01    0.3651784    0.1869877 -36.21  0.001655899    2.074    0.518
       190 -11.1363     20.7630     46.0339   8.7898338311e+01   6.5991267721e+01    0.3566481    0.2180086 -36.54  0.001217598    1.386    0.278
       191  -9.7890     18.0023     41.7849   8.7832976995e+01   6.7023582695e+01    0.2328319    0.1384984   8.43  0.001310173    1.615    0.381
       192  -9.6414    200.6569     45.3187   3.6498956700e+01   3.0111900127e+01    0.1381991   0.08443385 -70.22  0.000704937    1.720    0.418
       193 -10.5257    137.3881     44.6418   4.6205802532e+01   4.4806789025e+01    0.7084357    0.1834645  47.97  0.002211872    3.846    0.740
       194 -10.9552    235.2485     42.2931   3.2270382984e+01   2.3399015557e+01    0.3061155    0.1305582 -40.18   0.00156092    2.075    0.518
       195 -10.2172      8.0658     30.5868   8.9170830580e+01   6.9825665510e+01    0.5905434    0.2252132   7.58  0.002594862    3.085    0.676
       196 -10.4169      3.9961     39.2527   9.4555976158e+01   6.8526079813e+01    0.4565279    0.3122096 -87.65  0.002388745    3.042    0.671
       197 -11.0116      4.6724     36.0220   9.3088613918e+01   6.9086323962e+01    0.3201672    0.2214469   7.14  0.000970068    1.396    0.284
       198 -10.4015     93.0820     41.5349   5.6178135134e+01   5.5282618028e+01    0.3871814    0.2016741  42.42  0.001784649    1.726    0.421
       199 -10.7879    155.6750     42.3968   4.2171848582e+01   4.0775888210e+01    0.2675939    0.2466951  57.09 0.0009421362    1.128    0.114
       200  -9.6709    183.5053     38.0314   3.6924756125e+01   3.4873407199e+01    0.1760821    0.1202556 -42.86 0.0003592584    1.473    0.321
       201 -10.7695    176.6160     36.2713   3.7401763882e+01   3.6665893268e+01    0.3128252    0.2020605 -41.96   0.00172033    1.573    0.364
       202 -11.0428     61.0143     36.1145   6.5265489482e+01   6.2255648676e+01    0.3892734    0.2489952  -8.23  0.001461442    1.798    0.444
       203  -9.0820    206.5050     37.4283   3.4084752162e+01   2.9880383000e+01    0.1239147    0.1041039 -79.09  0.000252374    1.024    0.023
       204 -10.8107    153.2999     36.1884   4.0856275360e+01   4.2119842171e+01    0.2437969    0.2061641  80.50 0.0003885491    1.081    0.075
       205  -9.9555    133.1891     37.1259   4.4783355430e+01   4.6761138879e+01    0.2645419    0.1698741 -87.81  0.001228224    2.135    0.532
       206 -11.4079     79.6647     35.0853   5.8021155722e+01   5.8907149006e+01    0.6449381    0.3884061 -28.88  0.002284206    1.802    0.445
       207 -10.7156     67.8690    240.8503   1.0730943636e+02   1.3879126560e+01    0.1893581    0.1774923  10.75  0.001237358    1.261    0.207
       208 -11.8266    106.7885     32.0059   4.9021083723e+01   5.3486956793e+01    0.6644698    0.3573351  19.04  0.002602669    3.292    0.696
       209 -12.2676    114.5424     25.1258   4.4862089277e+01   5.2489723684e+01    0.7435256    0.2514533  55.16  0.001630172    2.368    0.578
       210 -10.6302    239.5748     32.9298   3.0098838847e+01   2.3763025924e+01    0.2273852    0.1552529  77.15 0.0004179822    1.444    0.307
       211 -11.0573    158.1813     20.2463   3.5794058188e+01   4.2773367995e+01    0.3650281    0.2023433  68.66  0.001412767    1.557    0.358
       212 -11.2327    147.4379    237.7742   8.8683286940e+01   3.1490831242e+00    0.5502766     0.262009  39.32  0.002469626    1.966    0.491
       213 -11.7101    159.7664     29.9626   3.8153840074e+01   4.1336740151e+01    0.4370033     0.330264 -50.52  0.001499387    1.376    0.273
       214 -11.9766    164.3905     27.5657   3.6860236041e+01   4.0529476119e+01      0.31223     0.252912  54.79 0.0007141791    1.272    0.214
       215  -9.9576     67.9333     31.9786   6.0914363590e+01   6.1577089716e+01    0.2006558    0.1719303  22.01  0.000600217    1.050    0.048
       216 -12.1000     57.9180     30.3296   6.4118858572e+01   6.3589485548e+01     0.371324    0.2442938   5.39  0.001113667    1.647    0.393
       217 -11.9065     49.3067     30.2235   6.7720046544e+01   6.5025695355e+01    0.5713967    0.2359651  35.93   0.00152134    2.191    0.544
       218  -9.6875     86.1022     30.8438   5.4329565903e+01   5.8125720591e+01    0.1873323    0.1783172  41.47 0.0007746052    1.180    0.153
       219  -9.0026     15.3157    234.3035   1.1821073617e+02   2.1266210352e+01    0.1081559    0.0888786 -45.93  0.000702381    1.620    0.383
       220 -10.9986    247.4031    230.7953   6.7223266025e+01  -9.0101288729e+00    0.2141852    0.1472532  15.54  0.001404885    1.387    0.279
       221 -10.1098     31.0098     27.5093   7.5266426027e+01   6.8019744970e+01    0.1915751    0.1745454 -64.42  0.001022705    1.915    0.478
       222 -10.4779    198.9327     28.6640   3.2955878674e+01   3.2589548902e+01    0.3520921    0.1646287  56.11  0.001629902    2.237    0.553
       223 -10.8275    189.2003     27.4368   3.3732402026e+01   3.4877263523e+01     0.295915     0.262626  36.23  0.001606647    1.501    0.334
       224  -9.2008     23.6605    231.7085   1.1629023660e+02   2.0999037566e+01    0.1116629   0.09242773 -38.02 0.0007025607    1.647    0.393
       225 -11.7279    146.5869     23.6288   3.8426291213e+01   4.5139880725e+01    0.7554919    0.2405027  50.36  0.002852041    3.011    0.668
       226 -10.0706    233.4763    227.4828   6.9136882519e+01  -6.9094349249e+00     0.125159   0.09641906 -10.69 0.0008099092    1.017    0.016
       227 -10.1444    164.5830    212.0515   8.0551037711e+01   5.5116021045e+00    0.2605715    0.1951507  19.23 0.0006582359    1.264    0.209
       228 -10.2223    152.8480    207.2381   8.2419993772e+01   8.3863052010e+00    0.3104532     0.217912 -66.71  0.001450685    1.994    0.498
       229  -9.2385     61.4844    206.5189   1.0519737821e+02   2.2497008865e+01    0.1379367    0.1264143  68.41 0.0008101839    1.002    0.002
       230  -9.8081    150.2338     27.3712   3.8901604097e+01   4.3873055755e+01    0.2365136     0.157771  57.94  0.000605177    1.345    0.257
       231 -11.3398    153.1097     24.0774   3.7551380588e+01   4.3556316584e+01    0.2622311    0.2292265  76.95  0.001682864    1.023    0.022
       232 -10.9067    241.2515     26.0596   2.8680269814e+01   2.4282099172e+01    0.2159594    0.1393858 -86.18  0.001089185    1.387    0.279
       233  -9.8156    230.7318     26.5804   2.9595329834e+01   2.6246268214e+01    0.1572278   0.09364555 -88.41 0.0009445446    1.572    0.364
       234 -10.1922    139.6786    199.3445   8.4187666774e+01   1.2271529529e+01    0.1493784    0.1177303  69.97 0.0007049938    1.730    0.422
       235  -9.6480    233.5256    196.5101   6.3538049649e+01  -1.9016647079e+00    0.1322934    0.1041446 -18.04 0.0008098625    1.030    0.029
       236 -10.0971    170.3990    191.1247   7.5329024219e+01   8.8275640894e+00    0.3932355    0.1991588  15.65  0.001324189    3.366    0.703
       237  -9.5761    214.5061     24.5456   3.0566003231e+01   2.9763600074e+01    0.1200373   0.09573557 -76.27 8.311128e-05    1.004    0.004
       238  -9.5209     16.4729    191.4854   1.1498732907e+02   3.1080345519e+01    0.1301595    0.1113305  87.18  0.000136473    1.018    0.017
       239 -12.3111      4.4993    184.2584   1.1738106926e+02   3.3838326349e+01     0.642947    0.4021274  87.43   0.00309072    1.412    0.292
       240 -10.0063     89.0287     17.0000   4.8181046816e+01   5.9011348680e+01    0.2901456    0.1272528  49.38  0.001047758    1.834    0.455
       241 -10.2788     59.7884     23.7580   6.0565801779e+01   6.4097560135e+01    0.1992723    0.1518215  -0.64 0.0004638166    1.269    0.212
       242 -10.3731     13.8071     23.5347   8.2957202121e+01   7.0516640670e+01    0.1886447    0.1360794 -25.24 0.0003008617    1.178    0.151
       243  -9.9032    169.4967     23.5076   3.5140372663e+01   3.9796682363e+01    0.2722557    0.1085376  66.89    0.0012102    2.177    0.541
       244 -10.7723    178.5255     21.1099   3.3452705538e+01   3.7990682461e+01    0.3861318    0.1893671  45.17  0.001779498    2.714    0.632
       245 -11.4439    183.2912     25.5677   3.3967223554e+01   3.6417041396e+01    0.4201354    0.2502682  54.42  0.002245709    1.752    0.429
       246  -9.2806     85.9932    185.7503   9.5903214811e+01   2.4238082629e+01    0.1995899     0.125333  31.78 0.0008870076    1.583    0.368
       247  -9.3362    239.8225    184.6029   6.0193062051e+01  -7.3366454451e-01    0.1509509    0.1223892  41.26 0.0005471631    1.605    0.377
       248  -9.6837     74.5404     19.5467   5.3507799241e+01   6.1768087297e+01    0.1307223    0.1049018  31.25 8.427119e-05    1.035    0.034
       249  -9.4941    175.5113    180.4811   7.2054213618e+01   1.0171288014e+01    0.1486457    0.1360339 -12.28 0.0008102352    1.015    0.015
       250  -9.6158     27.9813    175.9739   1.1057186595e+02   3.3929636896e+01    0.1679836    0.1475962 -86.27 0.0009633256    1.005    0.005
       251  -9.6603     51.9855    173.7071   1.0362956311e+02   3.1949632943e+01    0.1965136    0.1851917  57.21 0.0004574091    1.084    0.077
       252  -9.4802     39.4894    173.5173   1.0712541360e+02   3.3407877793e+01    0.1407373    0.1265597 -89.99 0.0001865819    1.024    0.024
       253  -9.3046    170.4951    171.9840   7.1442526765e+01   1.2868317658e+01    0.2247516    0.1429064 -43.36  0.000660807    1.515    0.340
       254 -10.3074    244.2320     13.9536   2.6264466642e+01   2.5120918504e+01    0.1417187   0.07561035 -43.25 0.0008835511    1.656    0.396
       255 -12.3720      9.4757    167.0589   1.1470720153e+02   3.7770657732e+01     0.601667     0.298547 -60.51  0.002717595    1.762    0.432
       256 -11.8040     13.8864    159.0049   1.1271663607e+02   3.9503296112e+01    0.5186242    0.2166555 -69.76  0.002262362    1.986    0.496
       257 -10.1215     35.5019    169.4343   1.0775323223e+02   3.4883079447e+01    0.1391158    0.1254077 -87.77 0.0001017585    1.021    0.020
       258  -9.5689    198.1831    167.8290   6.4594013585e+01   8.8106883559e+00    0.2014617    0.1575898 -13.29 0.0006394024    1.314    0.239
       259  -9.3277    152.4527    166.5308   7.4580004384e+01   1.7411131054e+01    0.1552935    0.1460523 -12.96 0.0001255497    1.011    0.011
       260 -10.6814     18.7334    165.1417   1.1198395749e+02   3.7537545815e+01    0.3239464    0.2205898 -26.26  0.001686912    1.880    0.468
       261 -10.3289    204.9663    163.1421   6.2269911146e+01   8.5668958607e+00    0.2466486    0.1906912 -36.41  0.000660554    1.157    0.135
       262  -9.7167     65.8371     10.4468   5.2539949659e+01   6.4389963716e+01    0.2274021    0.1082176  54.19  0.001116415    1.975    0.494
       263 -10.0122     39.5149    162.0215   1.0565875564e+02   3.6410374689e+01    0.3567027     0.197749  53.98  0.001566531    2.049    0.512
       264  -8.8733     80.3190    165.3394   9.4113102109e+01   3.0327964747e+01    0.1610493    0.1145826 -27.56 0.0006469166    1.711    0.416
       265  -9.4283     78.5614    159.8052   9.3646805147e+01   3.2036067542e+01    0.2155616    0.1471268 -75.97 0.0009426422    1.664    0.399
       266  -9.8114     53.6386    156.4964   1.0062747970e+02   3.6279402501e+01    0.2895636    0.1713423  79.04  0.001151519    2.390    0.582
       267 -10.5904      9.3447    155.4810   1.1365266651e+02   4.0740472663e+01    0.2427903    0.1083107 -74.72  0.001078053    1.912    0.477
       268 -10.1765    104.9873    154.0251   8.4682076921e+01   2.9222594169e+01    0.3416651    0.2549783  10.57  0.001521329    1.602    0.376
       269 -12.1805     22.5695    149.3914   1.0909153111e+02   4.1314959159e+01    0.7218869    0.3102516 -37.25  0.001622902    3.016    0.668
       270 -10.8563      3.2666    152.8268   1.1512510427e+02   4.1822270364e+01    0.2891923    0.2002838  67.39  0.001627774    1.481    0.325
       271 -10.5407     30.9788    152.0090   1.0687784643e+02   3.9889874895e+01    0.2222183    0.2007219 -68.07  0.001004863    1.029    0.028
       272  -9.9117     42.3157    149.0062   1.0295954984e+02   3.9551925900e+01    0.6908241    0.2224698  41.98  0.002142002    3.381    0.704
       273 -10.5768     49.7407    145.9899   1.0014182024e+02   3.9525043888e+01    0.2487256    0.2150572   5.73 0.0002112274    1.294    0.227
       274 -10.6743     46.3996    145.7826   1.0116861290e+02   3.9960050172e+01    0.4963919    0.2070137 -58.45  0.001710235    2.069    0.517
       275  -9.8957     63.8317    150.3802   9.6457910522e+01   3.6603248334e+01    0.2126597    0.1458762   9.13 0.0009505071    1.794    0.442
       276 -11.3797     15.8782    147.9454   1.1093621829e+02   4.2217201075e+01    0.2836505    0.2676074 -51.38 0.0009669343    1.143    0.125
       277 -10.6445      3.1256    147.6510   1.1467499914e+02   4.3152633096e+01    0.2246321    0.1648682 -71.58 0.0008210024    1.132    0.117
       278 -12.3636      2.5078    141.9872   1.1429659175e+02   4.4636923732e+01    0.6936774     0.388336  65.12  0.001228886    2.049    0.512
       279  -9.3757     74.4775    146.0115   9.2304233327e+01   3.6259836909e+01    0.2194252    0.1136179 -38.01 0.0004764816    2.280    0.561
       280 -11.1441     33.3670    144.5528   1.0510537711e+02   4.1629754948e+01    0.3796789    0.2713863  44.99  0.001329341    1.524    0.344
       281 -11.8321     12.2553    137.0988   1.1076678996e+02   4.5286185342e+01    0.5888349    0.3335363 -54.82  0.002968191    1.523    0.343
       282  -9.8423    217.0110    138.6831   5.4881248129e+01   1.1156210275e+01    0.1838913    0.1758154 -20.50 0.0005288189    1.109    0.098
       283  -9.7777     40.7313    138.5438   1.0181489028e+02   4.2483922399e+01    0.2536503    0.1717518  84.43  0.001180858    1.782    0.439
       284  -9.7969     32.1767    137.8406   1.0449063789e+02   4.3507906510e+01    0.3156407    0.2325247  50.19  0.001313616    1.517    0.341
       285 -11.6673     22.6081    135.8681   1.0730487154e+02   4.4846954211e+01    0.5070177    0.4055893  27.56  0.002902394    1.410    0.291
       286 -11.4014     30.0634    132.9820   1.0443821405e+02   4.4973225735e+01    0.4062832    0.2606236 -43.22 0.0006486064    1.509    0.337
       287  -9.5273     47.3722    135.1431   9.9045052865e+01   4.2660619696e+01    0.2094203    0.1337422 -75.99 0.0006428911    1.679    0.404
       288  -9.7399     73.4933    133.4913   9.0062012933e+01   3.9671387823e+01    0.1532809    0.1464504 -45.92 9.179157e-05    1.014    0.014
       289  -9.3836     38.4546    133.2127   1.0168229232e+02   4.4118590501e+01    0.1985885    0.1319006 -80.91 0.0006399078    1.621    0.383
       290  -9.4869    103.8365    130.8596   7.9820731565e+01   3.5246046561e+01    0.2039793     0.185551  72.31 0.0002683273    1.248    0.199
       291 -10.9310      9.6075    128.5698   1.1055661151e+02   4.7654031991e+01    0.4556669    0.2022942 -57.20  0.002083031    1.804    0.446
       292 -11.0441     22.8079    127.0121   1.0595084179e+02   4.7134168690e+01    0.2239954    0.1929454 -44.81 0.0003207096    1.110    0.099
       293  -9.9470      2.1466    125.9241   1.1266216002e+02   4.8752820855e+01    0.2040679    0.1598092  84.15  0.000744312    1.300    0.231
