#   1 NUMBER                 Running object number                                     
#   2 MAG_AUTO               Kron-like elliptical aperture magnitude                    [mag]
#   3 X_IMAGE                Object position along x                                    [pixel]
#   4 Y_IMAGE                Object position along y                                    [pixel]
#   5 X_WORLD                Barycenter position along world x axis                     [deg]
#   6 Y_WORLD                Barycenter position along world y axis                     [deg]
#   7 A_WORLD                Profile RMS along major axis (world units)                 [deg]
#   8 B_WORLD                Profile RMS along minor axis (world units)                 [deg]
#   9 THETA_WORLD            Position angle (CCW/world-x)                               [deg]
#  10 FWHM_WORLD             FWHM assuming a gaussian core                              [deg]
#  11 ELONGATION             A_IMAGE/B_IMAGE                                           
#  12 ELLIPTICITY            1 - B_IMAGE/A_IMAGE                                       
         1 -17.5671    240.2706     27.5175   6.4647288908e+01   2.2712171859e+01     6.914417     5.226719  -5.17   0.02379219    1.447    0.309
         2 -14.8157    202.8695     58.2176   7.6934562094e+01   2.7292584994e+01     4.253843     1.705512 -53.32   0.01282733    4.570    0.781
         3 -12.3329    129.6145     21.5263   7.7255500696e+01   5.0186046923e+01    0.9437184    0.6535449  38.64  0.004356844    1.449    0.310
         4 -10.4728    135.0945     14.7994   7.3499644511e+01   4.9514172349e+01    0.4192123    0.2185009 -17.59  0.001527735    2.050    0.512
         5 -12.7202    118.9331      9.7454   7.4545363329e+01   5.4206534882e+01     1.173383    0.9468608 -83.68  0.003746838    1.468    0.319
         6  -9.3936    171.0549     19.5427   6.9603561127e+01   3.9698430040e+01    0.3953195    0.2109886 -15.88  0.001124043    2.036    0.509
         7  -9.4357    165.7214     13.9300   6.8432062990e+01   4.1634191044e+01    0.4660221      0.29862   7.28  0.002151703    1.938    0.484
         8  -8.8549    177.4867     14.2647   6.7079480237e+01   3.8596642793e+01    0.2349958     0.210746  67.84 0.0006035519    1.113    0.102
         9  -8.7455    183.7074      7.2571   6.4191865521e+01   3.7686974402e+01    0.2868834     0.165165 -28.55  0.001388317    1.658    0.397
        10 -11.1644    180.0826      3.2372   6.3298415698e+01   3.8946140950e+01    0.5085327    0.3230444 -10.02 0.0009603756    1.736    0.424
        11  -8.5638    205.8890      5.5904   6.1698473799e+01   3.2447584770e+01     0.196043    0.1711419  -6.93 0.0006008411    1.236    0.191
        12  -9.7438    128.3871      9.9051   7.2756713347e+01   5.1750817068e+01    0.2739856    0.2646575  28.22 0.0007028513    1.031    0.031
        13  -8.6811     79.3858      4.2513   8.2164160768e+01   6.4400669593e+01    0.1900048    0.1222048 -31.21 0.0005702344    1.608    0.378
        14  -8.3350    172.0398      3.0111   6.4045519638e+01   4.1004658557e+01     0.233172     0.141248 -53.28 0.0007269124    1.733    0.423
        15  -8.5597    166.0695      1.3745   6.4144615989e+01   4.2672517327e+01    0.1939917    0.1262284  73.48 0.0009642432    1.486    0.327
        16  -9.1924    134.0044    147.8958   1.1407551079e+02   2.6274824817e+01     0.407238    0.1270849 -47.98  0.001392017    3.400    0.706
        17  -8.9978     54.3325    250.6026   1.4303904506e+02   1.8590850409e+01    0.1743933   0.07522701  33.17 0.0001804407    1.805    0.446
        18 -11.5357     63.3337    155.0149   1.3343497840e+02   3.5308344474e+01    0.6251992    0.4298535  79.30  0.001767726    1.593    0.372
        19  -9.8444    203.7062    162.6496   1.0212594179e+02   1.1708285244e+01    0.4034927    0.2248483 -25.73   0.00127546    1.774    0.436
        20  -8.1261     32.2895    228.5774   1.4601191320e+02   2.4217616263e+01    0.1251608   0.08719941  26.62 0.0004295104    1.505    0.336
        21 -10.1671    160.8704    128.6156   1.0362487969e+02   2.4975848046e+01    0.2938902    0.2872304  43.95  0.001603889    1.199    0.166
        22  -9.1232    122.9623    146.8179   1.1659022099e+02   2.8384906499e+01    0.2099544    0.1957633 -33.99 0.0003736978    1.121    0.108
        23  -8.4150    135.0000    120.8908   1.0801601316e+02   3.1490805960e+01    0.2395606   0.08357698 -44.82 0.0007978095    2.910    0.656
        24 -11.6938    168.1658    114.2315   9.8544350344e+01   2.6114422030e+01    0.5949662    0.5009965 -55.31   0.00066012    1.443    0.307
        25  -9.0921    180.7333    115.5884   9.6235027389e+01   2.3317473689e+01    0.1866546    0.1396189  52.99 0.0003857126    1.541    0.351
        26 -10.0318    175.4116    115.0263   9.7195231889e+01   2.4494058130e+01    0.2627879    0.2346601 -56.38  0.001438263    1.376    0.273
        27 -10.4200    134.7513    111.6882   1.0583662753e+02   3.3404559491e+01    0.6836754    0.1424933 -44.81  0.001762875    4.883    0.795
        28  -9.4860    133.1704     97.9086   1.0262164762e+02   3.6510800109e+01    0.3051153    0.2328087 -63.00   0.00104665    1.654    0.395
        29 -10.0095    176.9888    201.2439   1.1407735993e+02   1.0364687530e+01    0.1876472    0.1600474  -3.49 0.0002360855    1.172    0.147
        30  -8.3373    126.8280    111.5917   1.0789225351e+02   3.4986522677e+01    0.2086826    0.1392043  51.64 0.0003957709    1.661    0.398
        31 -10.7287    186.9105    138.1807   1.0025998314e+02   1.8376525514e+01    0.4856904    0.2136947  38.88 0.0002280992    2.225    0.550
        32  -8.9847    140.5231    105.4898   1.0277142991e+02   3.3472921659e+01    0.1516109    0.1425479   0.45 -1.384503e-05    1.010    0.010
        33 -11.7652    198.0172    132.8274   9.6903823730e+01   1.7169470569e+01    0.6689817    0.4225879 -42.25  0.003113796    1.754    0.430
        34 -10.2908    203.4630    129.1050   9.5045411727e+01   1.6732104495e+01    0.5475008    0.2967943  -3.85  0.002096776    3.034    0.670
        35  -9.2500    146.1207    101.4005   1.0029364147e+02   3.3098099759e+01    0.3249281    0.2596069   5.92  0.001062411    1.394    0.282
        36  -9.6858    122.4755    102.9635   1.0686656461e+02   3.7648553169e+01    0.3214453    0.2042801  40.75  0.001434936    1.574    0.365
        37  -9.8400    171.6544     94.5761   9.2653369860e+01   2.8810018597e+01    0.3626543    0.2474317 -41.75 0.0009247853    1.496    0.331
        38 -11.4270    168.6370     87.3647   9.1276840127e+01   3.0708478382e+01    0.6354644    0.4611737 -14.44  0.003022519    1.482    0.325
        39 -10.7429    155.1568     95.8875   9.6636818841e+01   3.2190164660e+01    0.4880261    0.2972816  30.18  0.002059978    1.887    0.470
        40  -9.5538    139.2039     91.9937   9.9403730644e+01   3.6395393105e+01    0.4494226    0.3272908 -64.86 0.0005854291    1.889    0.471
        41 -10.8109    152.1821     86.2880   9.4597070598e+01   3.4599522853e+01    0.3632798    0.2723965 -28.14 0.0005594377    1.317    0.240
        42 -11.0106    159.1276     84.3620   9.2459247479e+01   3.3373565047e+01    0.5979223    0.4166194  50.42  0.002135907    1.489    0.329
        43  -8.5604    125.0836     76.8534   9.8587174776e+01   4.2423041249e+01    0.2321004    0.2172837  84.59   0.00121747    1.250    0.200
        44 -12.4890    193.5290    125.1332   9.5993820462e+01   1.9227058186e+01     1.354486    0.4165636  39.78  0.004569321    3.438    0.709
        45  -8.9259    151.8751     71.1347   9.0078193634e+01   3.7338502076e+01    0.2268156    0.2045927 -56.01 0.0003385098    1.234    0.190
        46  -9.4328    106.9950     62.0431   9.8925614357e+01   4.9235167229e+01    0.2394984    0.1924127 -74.54 0.0006042874    1.705    0.413
        47 -10.5575    116.0082     61.1171   9.5898587494e+01   4.7434925779e+01    0.4203034    0.1972394  43.64  0.001588848    2.156    0.536
        48 -10.1578    102.4377     39.9179   9.1870596704e+01   5.4226762245e+01    0.4343742    0.2353063 -22.02  0.001399022    2.154    0.536
        49 -10.4612    115.2266     38.4967   8.7575841155e+01   5.1472307494e+01    0.2997355    0.2134366 -29.06  0.001426407    1.392    0.282
        50 -10.4053    109.9126     38.3595   8.9002877128e+01   5.2753755828e+01    0.3128968     0.226483 -18.47  0.001491129    1.434    0.303
        51 -10.6460    170.8259     35.0339   7.4729744012e+01   3.7994110469e+01    0.6567725    0.3826881 -62.99  0.002544609    2.354    0.575
        52 -10.1790    113.0494     29.4484   8.4430609458e+01   5.3324370333e+01    0.2710648    0.2066077  69.43  0.001323711    1.512    0.339
        53 -11.5469    183.2783    124.0115   9.7751474660e+01   2.1398430134e+01    0.5152103    0.3613314 -48.66  0.002547318    1.718    0.418
        54 -11.0798      3.6226    178.1023   1.4974187083e+02   3.5944566676e+01    0.3965789    0.2102948  77.03  0.002455123    1.628    0.386
        55 -11.6635      5.7452    196.0037   1.4992524594e+02   3.2290626822e+01    0.7268057    0.3221063  53.56  0.004437829    1.748    0.428
        56  -9.1727    192.3197    193.8233   1.0994524283e+02   9.1227977584e+00     0.374002    0.2215956 -59.32  0.001488863    5.079    0.803
        57  -9.4946    154.7967     25.4225   7.4045791261e+01   4.3232711610e+01    0.2998374    0.1985923  37.20  0.001395815    1.620    0.383
        58  -9.2686     57.1044     23.7100   1.0179251234e+02   6.6096154712e+01    0.3794923    0.1677658 -39.69  0.001401164    2.133    0.531
        59 -10.1847    213.9105    187.8204   1.0496404770e+02   6.7275563688e+00    0.2480813    0.1680521  10.50   0.00117142    1.275    0.216
        60  -8.6654    159.7598     21.3754   7.1834169128e+01   4.2404220710e+01     0.251291     0.191415 -22.70 0.0001812138    1.322    0.244
        61  -8.0426    120.4235    131.7237   1.1421928353e+02   3.1947649810e+01    0.1869837    0.1345959 -35.52 0.0003706673    1.482    0.325
        62  -8.5017    102.3034     18.3334   8.2415850820e+01   5.7396189021e+01     0.155426    0.1036153  22.82 0.0007036896    1.659    0.397
        63 -10.8860    217.2548    182.3815   1.0340307666e+02   6.9283609597e+00    0.4410002     0.207111  25.45  0.002171267    2.111    0.526
        64  -7.8413     97.9659    132.7859   1.2052061661e+02   3.5495495623e+01    0.1817137    0.1115499  34.40 0.0003408591    1.604    0.377
        65 -12.7810     22.7188    181.6280   1.4565876357e+02   3.3739707014e+01    0.7709011    0.6081956  68.81  0.003760016    1.053    0.051
        66  -8.6288     92.6580     11.3211   8.1778552940e+01   6.0539649301e+01    0.1421438    0.1109032 -63.17 0.0007050209    1.723    0.420
        67 -11.1801    221.0162    176.9627   1.0175414280e+02   7.0614929464e+00    0.6325928    0.3866559 -42.19  0.003490577    2.183    0.542
        68 -10.8586    226.7361    172.5485   9.9946680281e+01   6.7689050650e+00    0.5570289    0.2654753  43.29  0.002792944    2.337    0.572
        69  -8.9915    244.0974    173.8855   9.7350863937e+01   4.0918426021e+00    0.1694278    0.1450141  -1.04 0.0008486354    1.309    0.236
        70 -10.0742    230.8184    167.6647   9.8329142778e+01   6.7741575489e+00     0.309555    0.1183658 -39.05   0.00134907    3.017    0.669
        71 -11.7925     69.5622    145.3353   1.3049827471e+02   3.6713337266e+01     1.161848     0.840031  70.74  0.004482768    1.510    0.338
        72 -11.2212     50.0763    164.6794   1.3788990357e+02   3.4683904535e+01    0.3595658    0.3103812  16.58  0.001063662    1.348    0.258
        73 -10.9708    185.7529    120.2999   9.6370012631e+01   2.1527043239e+01    0.4004157    0.3814483  34.61  0.001791598    1.213    0.176
        74 -12.2109     56.8226    159.8207   1.3568060299e+02   3.5003032640e+01    0.8227494    0.7250651  53.74  0.003310879    1.055    0.053
        75 -11.6543    118.6386     24.4156   8.0898777357e+01   5.2615464651e+01    0.5333123    0.4593513  68.16  0.002851586    1.246    0.198
