#   1 NUMBER                 Running object number                                     
#   2 MAG_AUTO               Kron-like elliptical aperture magnitude                    [mag]
#   3 X_IMAGE                Object position along x                                    [pixel]
#   4 Y_IMAGE                Object position along y                                    [pixel]
#   5 X_WORLD                Barycenter position along world x axis                     [deg]
#   6 Y_WORLD                Barycenter position along world y axis                     [deg]
#   7 A_WORLD                Profile RMS along major axis (world units)                 [deg]
#   8 B_WORLD                Profile RMS along minor axis (world units)                 [deg]
#   9 THETA_WORLD            Position angle (CCW/world-x)                               [deg]
#  10 FWHM_WORLD             FWHM assuming a gaussian core                              [deg]
#  11 ELONGATION             A_IMAGE/B_IMAGE                                           
#  12 ELLIPTICITY            1 - B_IMAGE/A_IMAGE                                       
         1 -19.6676    185.7184    185.5609   2.6688060221e+01   1.0357581800e+01     5.208977      4.70393 -23.69   0.02270099    1.170    0.146
         2 -12.3915     41.9242      5.4284   1.1850022476e+01   7.2480276700e+01    0.7918882    0.5901038  59.42  0.004701887    1.318    0.241
         3 -12.0524     48.9863     12.8714   1.3206482403e+01   7.0113198606e+01    0.5098616    0.3249249  41.98  0.001731187    1.455    0.313
         4 -11.9539     52.7741      8.0867   8.7745418653e+00   6.9857015002e+01    0.8053442     0.469485 -60.12  0.003323357    2.726    0.633
         5 -12.8606    174.4698      2.8923   3.4643595105e+02   4.1435965084e+01    0.8365163    0.3318129 -89.64  0.003877405    2.517    0.603
         6 -12.5133    183.6934      5.3379   3.4647290305e+02   3.9209382743e+01    0.4839391    0.3347459 -64.44  0.003143698    1.148    0.129
         7 -11.0548    120.2628      8.8630   3.5336614192e+02   5.3548857018e+01    0.3147703     0.262516 -69.66  0.000950657    1.106    0.096
         8 -11.3233     65.7549      3.6795   1.8450940942e+00   6.7336548590e+01    0.4394539     0.265357  72.13  0.002281039    1.598    0.374
         9 -11.4573     58.3115      3.6666   4.1588658838e+00   6.9065455631e+01    0.4033162    0.3315121  62.74  0.002502238    1.100    0.091
        10 -11.6392    174.8228     12.8432   3.4900893064e+02   4.0355423425e+01    0.3641921    0.1401521  73.36   0.00169734    2.462    0.594
        11 -11.1276    248.4362    249.8918   2.6266911889e+01  -4.9102201381e+00    0.2378945    0.1564077   3.34 0.0005251796    1.248    0.199
        12  -9.7963    244.0521    250.2384   2.6947014831e+01  -4.6186753195e+00    0.1561519    0.1005324 -10.71 0.0005802147    1.079    0.073
        13  -9.1033    235.9735    250.0013   2.8110263041e+01  -3.9652316012e+00    0.1677209   0.08601497 -10.59 0.0007800134    1.755    0.430
        14  -9.3410    218.0673    248.6269   3.0705723632e+01  -2.3285160340e+00    0.2077128    0.1827369  30.28   0.00169513    1.916    0.478
        15 -11.7095    201.1417    247.3251   3.3331377172e+01  -6.6349352042e-01    0.3696022    0.2203918  18.61  0.001492946    1.471    0.320
        16  -9.3123    146.3127    249.8033   4.3856394179e+01   4.4195894378e+00    0.2683379    0.1335195  42.27  0.001394221    2.465    0.594
        17  -9.1727    136.0906    250.1169   4.5972052111e+01   5.4547169753e+00    0.1677197    0.1225188  43.64 0.0007906542    1.628    0.386
        18  -9.0273    132.8417    247.2217   4.6309438700e+01   6.2676717717e+00    0.1670732    0.1314011  10.91 0.0006103971    1.041    0.040
        19 -12.0265     74.2190    216.4375   5.6394715006e+01   1.8804832086e+01    0.5564115    0.4238673 -82.85  0.003221411    1.531    0.347
        20 -13.4724     85.7121    218.8161   5.3785837048e+01   1.6948043961e+01     1.466675    0.8504812  10.54  0.007045326    1.986    0.497
        21 -12.5713     91.7442    225.6026   5.3057077795e+01   1.4854483439e+01    0.6086193     0.353198 -45.85  0.003187438    1.946    0.486
        22 -12.0473     99.3658    223.5160   5.1013422933e+01   1.4363155987e+01     0.734552    0.6600495  74.62  0.004766313    1.329    0.248
        23  -9.7694     97.0798    116.4578   3.3637192802e+01   3.9582805517e+01    0.2762249    0.2097474 -35.57  0.000513983    1.458    0.314
        24 -10.8472     54.3890    231.0891   6.2574378316e+01   1.7903437201e+01    0.3277263    0.1845507  88.10   0.00166771    2.239    0.553
        25  -9.4897    125.7590    243.5769   4.7382463217e+01   7.6457684772e+00    0.1679802     0.141807  65.94 0.0008495165    1.670    0.401
        26 -10.3663    234.8680    239.2200   2.6797295089e+01  -2.5910241982e+00    0.2952732    0.2247365   8.53  0.002457069    1.345    0.256
        27  -9.5322    107.6387    210.8397   4.7492342088e+01   1.5885240576e+01    0.2852394    0.2111184  61.03  0.001009591    1.697    0.411
        28  -9.5785      2.3247    111.3210   6.8964279798e+01   5.3140793053e+01    0.1523819   0.09290645 -44.94 0.0004830728    1.680    0.405
        29 -10.0383    105.6573    207.3167   4.7513514055e+01   1.6864125362e+01    0.2033843    0.1839085  47.54  0.001250704    1.175    0.149
        30 -10.3658    242.8999    244.5250   2.6339260943e+01  -3.8719223857e+00    0.2501085    0.1425479 -30.18  0.001039365    1.431    0.301
        31 -13.6586    164.9887     99.3571   1.2820204299e+01   2.9677024924e+01     1.110336    0.8005055  45.63  0.005860333    1.572    0.364
        32 -10.9360    199.0741     88.2544   4.8672661438e+00   2.5046037063e+01    0.3940998    0.2291912 -70.13  0.001218844    2.445    0.591
        33 -11.0853     10.4145    206.7844   7.2178459954e+01   2.7431158998e+01    0.4638721    0.2685985  12.45  0.002380828    1.919    0.479
        34 -11.9105    192.7841     92.4026   6.6740182390e+00   2.5532018460e+01    0.3087599    0.2481034 -14.35  0.001808814    1.568    0.362
        35 -11.4860    194.4142     88.7816   5.6192997960e+00   2.5821956243e+01    0.2496123    0.2157282 -35.83  0.001061522    1.168    0.144
        36 -11.6276     35.6636    215.7702   6.6157317096e+01   2.3106135356e+01    0.5634849    0.3611958 -19.42  0.002820976    2.262    0.558
        37 -11.6611    127.1622    233.6438   4.5899122477e+01   9.1912599441e+00    0.5114635    0.3844097 -83.74  0.001277177    2.148    0.535
        38 -10.6923     47.1649    235.7686   6.4637081047e+01   1.7682596187e+01    0.2387251    0.1969726   2.02 0.0007656149    1.375    0.273
        39 -11.1360      5.0780     94.2449   6.5943691043e+01   5.7714086511e+01    0.4897281    0.2074528 -76.31  0.001530868    2.163    0.538
        40 -12.3099    248.2944     78.4752   3.5749250321e+02   1.8276833017e+01    0.4063038    0.3171135 -13.53  0.002854354    1.720    0.419
        41 -11.7159    239.4937     82.4961   3.5908102419e+02   1.9067006164e+01    0.2205273    0.1786694 -37.53  0.001194201    1.174    0.148
        42 -10.2122    214.5916     89.6341   3.2121231554e+00   2.2082737459e+01    0.2514233    0.1219444  65.73  0.001229011    2.787    0.641
        43  -9.9625     98.0529    199.2751   4.8344298774e+01   1.9569629174e+01     0.213194    0.1935816 -55.35 0.0004730361    1.195    0.163
        44 -12.6080    183.5499     77.9222   4.5925345601e+00   2.9677700027e+01    0.7862124    0.4912834 -47.85  0.002301696    1.378    0.274
        45 -10.9080    190.7967     79.0357   3.8569038436e+00   2.8075635715e+01    0.4309478     0.301947 -86.44  0.002383119    1.717    0.418
        46 -11.6627    233.5344     79.7864   3.5911482876e+02   2.0388866987e+01    0.3786986    0.2097112  48.32  0.001610404    2.503    0.601
        47 -12.7133    233.7373     64.1960   3.5592887995e+02   2.2507195456e+01     0.385389    0.2797295 -38.00  0.002635709    1.222    0.181
        48 -10.4484    120.2006    234.2672   4.7500593151e+01   9.8861450341e+00    0.4420056    0.1871184  20.43 0.0004131803    2.351    0.575
        49 -12.6557    239.3057     53.8397   3.5338371276e+02   2.2946005535e+01    0.6460168    0.2952825 -67.99  0.003262103    2.784    0.641
        50  -9.7277    144.0091     59.4756   5.9934673664e+00   4.1202724669e+01    0.2586502    0.1752742 -59.09 0.0007820936    1.461    0.316
        51 -12.0710    231.1540     51.9028   3.5361909316e+02   2.4565175436e+01    0.3084783    0.2149423 -56.15  0.001617217    1.141    0.123
        52 -12.2706    224.8932     49.0518   3.5352155297e+02   2.6024803314e+01    0.4305443     0.295597  86.76  0.002055054    1.601    0.375
        53  -9.9881    249.9933     47.9540   3.5147176890e+02   2.1959697001e+01    0.1709787      0.12323 -49.89 0.0006152638    1.020    0.020
        54 -12.2531    221.6018     40.2475   3.5190236166e+02   2.7732093521e+01    0.5082713    0.2305874 -58.02  0.001876374    1.978    0.494
        55  -9.3053    208.7774     34.5905   3.5163899544e+02   3.0832703695e+01    0.1568309    0.0977768 -80.62 0.0003717002    1.598    0.374
        56  -9.6699     70.9180     26.3048   1.1699056029e+01   6.3513676243e+01    0.2242628    0.1838246 -53.20 0.0006109923    1.344    0.256
        57  -9.4996     22.6754     27.6877   3.7101586262e+01   7.2441490741e+01    0.1364911    0.0950833 -11.82 0.0003385733    1.660    0.397
        58 -10.4323     22.8563     19.4915   3.2488318821e+01   7.3916248890e+01    0.2464464     0.175319 -63.38  0.001323419    1.990    0.497
        59 -10.8763     52.9865     17.7448   1.4231302215e+01   6.8634841342e+01    0.3566327    0.2014438  42.72   0.00130875    1.673    0.402
        60 -11.2356    162.6441     13.9521   3.5032469358e+02   4.2956974287e+01    0.2455025    0.1633087 -84.38 0.0007857537    1.355    0.262
        61  -9.7179    245.6173    232.8351   2.4313526220e+01  -2.7042150182e+00    0.3199978    0.1571645  -0.98  0.001974229    2.275    0.560
        62 -10.2267     35.6301    187.2053   6.4074414010e+01   2.9894483736e+01    0.1916054    0.1206487 -64.19 0.0008910192    1.644    0.392
        63  -9.1333     62.0000    178.8958   5.5573829652e+01   2.9030113626e+01    0.2281782   0.08164414 -67.75 0.0007978953    2.911    0.656
        64 -12.0775     56.7602    238.6217   6.2563021262e+01   1.6130976935e+01    0.5853528    0.3184824  84.84  0.002959874    2.456    0.593
        65  -9.9115    117.9934    230.2272   4.7508435420e+01   1.0872088789e+01    0.2449536    0.1975176   7.60  0.001249807    1.129    0.114
        66  -9.2818    115.9653     12.5098   3.5530064540e+02   5.4244584177e+01    0.2066612    0.1178922  73.46   0.00102849    1.577    0.366
        67 -12.3699     67.2095    144.0977   4.8973469346e+01   3.7388283954e+01    0.7357188    0.3757126  49.72  0.001048176    2.137    0.532
        68  -9.7443     85.3456    145.9735   4.3536540952e+01   3.4173764550e+01     0.249213    0.2024049  49.29 0.0006091059    1.240    0.194
        69 -12.2772      9.6326    139.2520   6.8485572239e+01   4.4923005491e+01    0.6828455    0.3752474  78.92  0.003024983    1.829    0.453
