#   1 NUMBER                 Running object number                                     
#   2 MAG_AUTO               Kron-like elliptical aperture magnitude                    [mag]
#   3 X_IMAGE                Object position along x                                    [pixel]
#   4 Y_IMAGE                Object position along y                                    [pixel]
#   5 X_WORLD                Barycenter position along world x axis                     [deg]
#   6 Y_WORLD                Barycenter position along world y axis                     [deg]
#   7 A_WORLD                Profile RMS along major axis (world units)                 [deg]
#   8 B_WORLD                Profile RMS along minor axis (world units)                 [deg]
#   9 THETA_WORLD            Position angle (CCW/world-x)                               [deg]
#  10 FWHM_WORLD             FWHM assuming a gaussian core                              [deg]
#  11 ELONGATION             A_IMAGE/B_IMAGE                                           
#  12 ELLIPTICITY            1 - B_IMAGE/A_IMAGE                                       
         1 -13.9682    211.3999      3.6847   5.3899537298e+01   3.2450653779e+01     1.605372    0.7440404  64.08  0.005524659    1.940    0.485
         2 -15.2354    189.3222     31.3259   6.2128188796e+01   3.4219830622e+01     2.441583     1.695349  23.57   0.01252339    2.565    0.610
         3 -10.5959     58.3173      3.3420   7.9986755007e+01   6.4675741451e+01    0.1209457   0.06815265  22.39 0.0004653753    1.713    0.416
         4 -10.5542    172.3114    238.0331   1.1076000856e+02  -1.5481268128e+00    0.1812714    0.1731213 -39.31  0.001146339    1.172    0.147
         5 -16.7261     76.0000    248.4655   1.3221595398e+02   1.1987675445e+01     9.816274      3.44726  28.21   0.02819562    6.556    0.847
         6 -17.6739     29.0638    243.1677   1.4080071110e+02   1.9319807843e+01     9.678807     4.068601 -58.58   0.04790972    2.633    0.620
         7 -12.2193     41.1104    213.8198   1.3583444851e+02   2.4332411952e+01     0.383042    0.1774908  51.12  0.001831558    2.044    0.511
         8 -10.7616     44.4173    210.4906   1.3478213816e+02   2.4693958333e+01    0.2875244    0.1682695  58.20  0.001500493    1.637    0.389
         9 -11.7454     40.0250    207.8410   1.3545449064e+02   2.5853711432e+01    0.2747289    0.1638854  47.47 0.0004930153    1.617    0.382
        10 -12.6082     57.0468    212.5395   1.3225653344e+02   2.2571269109e+01    0.4664326    0.2619326  48.05  0.001351747    1.680    0.405
        11 -12.0642     64.2016    208.9453   1.3024186251e+02   2.2425394638e+01     0.506256    0.3991368 -34.78  0.002797546    1.763    0.433
        12 -12.8564     61.5122    204.7152   1.3032674492e+02   2.3801851384e+01    0.4965572     0.310401 -49.55  0.001294537    1.831    0.454
        13 -10.0595     71.6498    229.3005   1.3102446233e+02   1.6706568549e+01    0.2022691    0.1440369  54.83 0.0004923743    1.257    0.204
        14 -10.0580     51.4580    208.8788   1.3306930239e+02   2.4170593175e+01    0.1902268    0.1163934 -69.80 0.0009912044    1.490    0.329
        15  -9.5556     61.0913    228.2996   1.3313197014e+02   1.8428373095e+01    0.1751328    0.1342225  49.21  0.001042417    1.252    0.201
        16 -10.8955    158.8562    205.0225   1.0793725857e+02   7.3156506943e+00    0.4297197    0.2771358  67.91  0.001788865    2.384    0.581
        17  -9.8132    163.6816    204.4389   1.0676147776e+02   6.5517303561e+00    0.2419909    0.1764583 -60.68 0.0005678409    1.562    0.360
        18 -12.7165     53.4629    220.7279   1.3393081345e+02   2.1167326672e+01    0.3102658    0.2052437  71.84 0.0006147045    1.425    0.298
        19 -10.0568     95.6150    200.8498   1.2186005916e+02   1.9541711394e+01     0.395477    0.2309566  85.87   0.00155205    2.614    0.617
        20 -10.4583     85.6443    201.1317   1.2425360396e+02   2.1081803039e+01    0.4664923    0.2105991  58.66  0.001679438    2.980    0.664
        21 -11.7199     48.3536    217.4892   1.3467360956e+02   2.2576072758e+01    0.3345748    0.2296959  41.75   0.00129403    1.492    0.330
        22 -10.3114    210.0099    199.9844   9.6214459665e+01  -8.2425250239e-01    0.1967995    0.1704114 -80.28 0.0003582163    1.588    0.370
        23 -12.2616    193.6152    192.9347   9.8138233783e+01   3.4289795817e+00    0.9064273    0.4864278 -53.99  0.003714608    2.157    0.536
        24 -19.1627     16.8203    106.4366   1.2745855125e+02   5.2525873634e+01     16.76022    0.8554175 -63.40   0.02806887   15.482    0.935
        25 -12.6371     69.2359    218.1942   1.3024818464e+02   1.9557685906e+01    0.3103597     0.245246 -85.70 0.0005780354    1.162    0.140
        26 -11.1221    154.0780    195.8034   1.0729475011e+02   1.0199511195e+01      0.42252    0.2672082  64.00  0.001750067    2.202    0.546
        27 -10.2993     82.3604    194.8868   1.2410997211e+02   2.3100158135e+01    0.2947584    0.2580229  31.46  0.001507491    1.311    0.237
        28 -12.9994     70.7129    191.1331   1.2635857892e+02   2.5773649344e+01    0.8093908    0.7104372 -42.04  0.003619646    1.356    0.263
        29 -10.0887     28.7614    192.7635   1.3635950045e+02   3.0718290990e+01    0.1696023    0.1173333  57.19 0.0006947897    1.412    0.292
        30 -10.1091     98.4912    191.0478   1.1960776622e+02   2.1415075394e+01    0.2192448     0.140476 -60.66 0.0005321737    1.528    0.346
        31 -10.1960    166.9400    187.6599   1.0281848535e+02   9.5335981567e+00    0.2841728    0.2165245 -56.03 0.0006921421    1.378    0.274
        32 -10.6378     73.6748    181.2352   1.2415297639e+02   2.7779110602e+01    0.3951799     0.282957  49.38  0.001117431    1.411    0.291
        33  -9.9305    153.4638    186.4713   1.0563567105e+02   1.2393405326e+01    0.1485138     0.146504  78.65 -1.97322e-06    1.018    0.018
        34 -11.9508     73.7601    213.0921   1.2861708669e+02   2.0074676065e+01    0.2797097    0.2201171  85.71 0.0004334499    1.185    0.156
        35 -10.9971    205.9319    180.5121   9.3149536772e+01   3.6737720567e+00    0.3991429    0.2632773  38.21  0.001252495    1.605    0.377
        36 -10.7629    209.3001    178.6639   9.2111075199e+01   3.4282084734e+00    0.3258212    0.2749972 -25.87  0.001802894    1.143    0.125
        37 -11.2129     99.5236    180.7301   1.1759350199e+02   2.3758771228e+01    0.2691578    0.2584052  77.97 0.0005275554    1.056    0.053
        38 -11.8495    144.1486    178.7448   1.0627714494e+02   1.5968113954e+01    0.4331798    0.2457805  44.38  0.001800036    1.766    0.434
        39 -10.0044     51.3956    174.3585   1.2871012768e+02   3.2562742607e+01    0.2229201    0.1766541 -56.66 0.0007494004    1.246    0.197
        40 -11.6389    195.7298    169.4029   9.2893194304e+01   7.8562891080e+00    0.5300348    0.4110793 -60.42  0.001068763    1.421    0.296
        41 -10.3238    192.7726    163.7236   9.2290218332e+01   9.6236297537e+00    0.3435296    0.2088851 -50.17 0.0009756506    1.623    0.384
        42 -10.9648    146.0532    168.1714   1.0365214096e+02   1.8052243648e+01    0.2399441    0.2165653  -6.88  0.000631428    1.266    0.210
        43 -10.7660     77.1881    207.8528   1.2715741755e+02   2.0789649141e+01    0.3962948    0.3079387 -49.36  0.001497966    1.470    0.320
        44 -11.0518    230.0132    166.0002   8.5665691205e+01   2.1910265880e+00    0.2175226     0.168568 -71.55 0.0006631733    1.697    0.411
        45 -12.7453     97.6298    155.1021   1.1323567666e+02   3.0444502745e+01    0.7456277    0.5098067 -32.38  0.003295499    1.823    0.452
        46 -10.7326    189.7114    155.4630   9.1129170463e+01   1.1986071441e+01    0.3116105    0.2824026 -50.27  0.001672471    1.057    0.054
        47  -9.3399    140.2616    156.6641   1.0258207764e+02   2.1923956820e+01    0.1571342    0.1226625 -85.91 0.0002145327    1.581    0.367
        48 -10.3997    164.1942    151.8029   9.5841302297e+01   1.8080335841e+01    0.2725419    0.1771111  89.16 0.0009616993    2.909    0.656
        49 -11.8014    133.7178    144.4349   1.0146534169e+02   2.6148154718e+01     1.201167    0.2944215 -53.54  0.002826188    5.223    0.809
        50 -10.6947    174.6038    149.0377   9.2902041084e+01   1.6504923463e+01    0.2867768    0.2632387  77.87 0.0007946718    1.162    0.140
        51 -11.2411    144.0000    146.0170   9.9279331178e+01   2.3647655892e+01    0.3235776    0.2125434 -74.32  0.001263864    2.171    0.539
        52 -11.9425    108.4752    140.2011   1.0710614064e+02   3.2138953012e+01    0.5940301    0.3605894 -32.52  0.002367617    2.114    0.527
        53 -12.5286     96.8136    140.4705   1.1036518126e+02   3.4196591931e+01    0.3015495    0.2890871 -31.07 0.0004361736    1.098    0.089
        54 -11.1444    141.7956    138.4916   9.8070025678e+01   2.5852850238e+01     0.304967    0.2217513 -47.57 0.0009538992    1.343    0.256
        55 -11.0323    119.9923    124.5154   1.0028141654e+02   3.3593664046e+01    0.3266803    0.2423936 -11.87  0.000951818    1.899    0.473
        56 -11.7578    115.4679    130.5878   1.0297335916e+02   3.3086402714e+01     0.550343    0.4095609  -5.42  0.001230177    1.956    0.489
        57 -10.5331    120.4687    129.4887   1.0137096213e+02   3.2349136205e+01     0.306782     0.202612 -44.79 0.0008477813    1.490    0.329
        58 -11.1154    106.0834    130.8838   1.0560600886e+02   3.4820078399e+01    0.3792616    0.3181875 -62.13  0.001252568    1.194    0.162
        59 -11.3747    103.2804    126.7094   1.0539153471e+02   3.6329385173e+01    0.3324322    0.2709674 -33.33 0.0006757212    1.293    0.227
        60 -11.5244    136.1089    122.6427   9.5641133463e+01   3.0661761120e+01    0.4627869     0.279245 -56.70  0.001895761    1.799    0.444
        61 -10.7744    160.5447    127.5279   9.1006605742e+01   2.4261315947e+01    0.4645085    0.2703966 -66.73  0.001686976    2.534    0.605
        62 -10.6851    125.8925    127.6672   9.9499881038e+01   3.1667350164e+01    0.3891126    0.2541122  85.47  0.001408754    2.790    0.642
        63 -10.3566    110.6844    119.3781   1.0152773769e+02   3.6616483429e+01    0.2663339    0.2459968 -24.25 0.0004728219    1.128    0.114
        64 -10.4090    168.0475    112.8882   8.5774243796e+01   2.5689306975e+01    0.3467768    0.2522456 -73.51  0.001160945    1.679    0.404
        65 -10.5562    135.0000    111.9348   9.3200574885e+01   3.3244284635e+01    0.4295436   0.08691233 -44.92  0.001045982    4.886    0.795
        66 -11.1469    118.8539    110.2855   9.6965412851e+01   3.7006274184e+01    0.5867574    0.2516192  57.72  0.001735742    3.939    0.746
        67 -10.2559    205.6677    110.1059   7.7863830114e+01   1.7882230653e+01    0.2596457    0.2147145  51.56 0.0006709247    1.320    0.243
        68 -10.0517     41.9301     91.9338   1.1591753131e+02   5.3402189453e+01    0.1963512     0.170413 -33.03 0.0004735762    1.024    0.024
        69 -10.0330     52.0684     90.5351   1.1209787277e+02   5.2503220198e+01    0.1940761    0.1304776  27.55  0.001034142    1.602    0.376
        70 -11.8631    168.1130     67.8509   7.4345867777e+01   3.3984874565e+01    0.7439762    0.4033763 -81.12  0.002403241    4.194    0.762
        71  -8.9939    168.2879    248.2702   1.1321640711e+02  -2.7118124478e+00    0.1254669   0.09532527   5.46 0.0002029558    1.505    0.335
        72 -13.5505    174.6899     45.9730   6.7690534621e+01   3.5696101201e+01    0.6443015    0.5150222  54.82 0.0008607008    1.270    0.213
        73 -10.2966    175.3342    235.7543   1.0975897333e+02  -1.6353745316e+00    0.2823871    0.1147871 -44.20 0.0009009662    2.624    0.619
