#   1 NUMBER                 Running object number                                     
#   2 MAG_AUTO               Kron-like elliptical aperture magnitude                    [mag]
#   3 X_IMAGE                Object position along x                                    [pixel]
#   4 Y_IMAGE                Object position along y                                    [pixel]
#   5 X_WORLD                Barycenter position along world x axis                     [deg]
#   6 Y_WORLD                Barycenter position along world y axis                     [deg]
#   7 A_WORLD                Profile RMS along major axis (world units)                 [deg]
#   8 B_WORLD                Profile RMS along minor axis (world units)                 [deg]
#   9 THETA_WORLD            Position angle (CCW/world-x)                               [deg]
#  10 FWHM_WORLD             FWHM assuming a gaussian core                              [deg]
#  11 ELONGATION             A_IMAGE/B_IMAGE                                           
#  12 ELLIPTICITY            1 - B_IMAGE/A_IMAGE                                       
         1 -12.4630     52.4197     92.6701   1.0758482345e+02   5.1250948392e+01     4.015376      1.15925 -49.83   0.01485491    2.915    0.657
         2 -12.8826    116.9354     68.1244   8.0891918369e+01   4.5946822809e+01     3.246417     2.101704 -19.14   0.01390275    1.940    0.484
         3 -12.0175    117.7630     49.8896   7.4362379397e+01   4.9037391997e+01     1.351234    0.9858311 -30.52  0.005812121    1.341    0.254
         4 -11.5963     69.6701     19.1306   7.6882637009e+01   6.3145775624e+01    0.9012076    0.4996738  15.89  0.004138528    2.400    0.583
         5 -11.0159     56.6209      5.2688   7.5069539885e+01   6.7058940576e+01     1.863113     0.762601  41.67  0.008962868    2.422    0.587
         6 -11.6479     74.5940     48.6896   8.7297824978e+01   5.7552787153e+01     1.426596    0.7386594 -36.42  0.006607689    1.778    0.438
         7 -12.1169     47.1904     20.5131   8.6302286739e+01   6.6322785619e+01     1.402661     1.053241 -68.88  0.002761375    2.769    0.639
         8 -12.4409     84.5317     57.5369   8.7102399658e+01   5.4239134407e+01     1.581529     1.051959   7.18  0.007311164    2.109    0.526
         9 -12.3179    102.1340     54.9656   8.0661121471e+01   5.1448282465e+01     1.387815    0.9155102  -6.41  0.004775537    2.094    0.522
        10 -11.2269     97.0729     21.4438   6.9032017628e+01   5.7668735071e+01    0.2933301    0.2519283 -17.11 0.0002003058    1.144    0.126
        11 -11.1187     23.6970     30.2280   1.0062966167e+02   6.7194441262e+01      0.80222    0.3225803 -56.36  0.003739406    2.561    0.610
        12 -12.2171     29.5962     22.0294   9.4720052527e+01   6.8104867821e+01     1.277205    0.8725795 -47.84  0.008123472    1.472    0.321
        13 -12.4443     88.9356     29.7675   7.5017780062e+01   5.8158495128e+01     2.917641    0.7094083 -27.36   0.00662002    7.773    0.871
        14 -11.8913     37.0463     41.8000   9.9051920461e+01   6.3771844019e+01     1.279947    0.7275299  -2.30  0.006395183    2.538    0.606
        15 -12.5516     54.8696     36.4623   8.9918209309e+01   6.2659040826e+01    0.9300107    0.8027641  64.58  0.005128448    1.774    0.436
        16 -12.7411     99.6348      7.8286   6.2433824962e+01   5.8676815744e+01    0.8170604    0.5146236  56.82  0.002825409    1.605    0.377
        17 -11.9549    112.0463      7.1305   5.9070443094e+01   5.5981670268e+01    0.9699166    0.5729263  66.60  0.004208609    1.869    0.465
        18 -12.4354     24.7550      6.1702   8.9720579982e+01   7.1114449247e+01    0.6088225    0.5642014  -1.17  0.002478783    1.470    0.320
        19 -12.3272      8.9087     25.8017   1.0584120170e+02   6.9104347015e+01    0.7896425    0.5076777 -24.24  0.005315904    1.443    0.307
        20 -12.6975     19.4025     13.5070   9.5874496553e+01   7.0479507551e+01    0.9197988    0.8138548  73.96  0.003979619    2.112    0.526
        21 -12.6472      3.1311     17.4476   1.0566019376e+02   7.0975837066e+01    0.3596634    0.2065768 -33.32 0.0003765494    1.382    0.276
        22 -13.3353      3.8339      9.5805   1.0217541845e+02   7.2304786080e+01     0.920099    0.3982276 -41.68 0.0005834025    1.647    0.393
        23 -13.0326     83.3183     79.7136   9.4545456708e+01   4.9899204543e+01     2.357311     0.993318 -58.23  0.008366203    2.978    0.664
        24 -12.3930     38.6073     86.1011   1.1053489615e+02   5.4206595459e+01     2.262956    0.6679246 -53.09  0.009159009    2.556    0.609
        25 -12.9975     23.9229     80.8515   1.1423325983e+02   5.6658468731e+01     3.029684     1.037508 -36.74   0.01070984    4.695    0.787
        26 -12.6917     56.4085     67.4579   9.9880281335e+01   5.6383347775e+01     1.391536    0.8325125 -57.79  0.003332472    1.599    0.375
        27 -12.8045     71.4138     30.4361   8.1225348852e+01   6.1189131731e+01     2.188317     0.887197  40.70  0.009429475    2.585    0.613
        28 -11.5343    165.4701     61.6308   6.7016656718e+01   3.5573883914e+01     2.424085     0.576536 -36.43   0.00673674    3.834    0.739
        29 -10.3621    133.9986     51.5147   7.0747602737e+01   4.5035386157e+01      1.44058    0.5700815 -21.55  0.004019625    4.468    0.776
        30 -11.4810     16.1648     34.0890   1.0532512572e+02   6.7053954748e+01     1.140805    0.4649206 -60.73   0.00545636    2.489    0.598
        31 -11.5982    129.1762     20.5290   6.0535520362e+01   5.0525948002e+01     1.293012     0.523824  53.25   0.00394554    2.194    0.544
        32 -10.7691    130.7804     13.6093   5.7557217273e+01   5.0894420303e+01    0.9745809    0.2438286  48.13  0.003133684    3.427    0.708
        33 -10.3106    122.5010      9.5443   5.7717338211e+01   5.3303231565e+01    0.4977677    0.3494267  37.58  0.002636423    1.330    0.248
        34 -11.2470     98.2850     40.9090   7.6594253474e+01   5.4616285358e+01     2.077625     1.177012  -1.97  0.007614811    3.249    0.692
        35 -11.1436    116.8728     15.9066   6.1529318124e+01   5.3964267783e+01    0.6569003    0.5666233 -89.83  0.003461888    1.454    0.312
        36 -11.0558    113.4727     32.4770   6.8973091286e+01   5.2664214137e+01    0.3742765     0.247126 -17.92  0.001807743    1.584    0.369
        37 -11.9711    113.0461     22.9153   6.5293278861e+01   5.4021009986e+01    0.6791508    0.4804073  64.06  0.002756405    1.603    0.376
        38 -10.8195    110.6417     17.1841   6.3572205914e+01   5.5244796146e+01    0.3451014    0.2698095 -22.88 0.0004972396    1.296    0.228
        39  -9.5042    197.7822     29.7345   5.1716045710e+01   3.1771711446e+01     1.031783    0.1873346 -32.42  0.002958142    4.248    0.765
        40 -10.0801    199.1161     16.3177   4.7674065036e+01   3.3003380376e+01     0.314438    0.2380689  54.59  0.001262725    1.329    0.248
        41 -10.3614    203.2566     18.8116   4.7886850155e+01   3.1655832016e+01     1.023269    0.5154016  16.28  0.003104819    5.170    0.807
        42  -9.8348    226.1829      8.0249   4.2613660753e+01   2.7075477185e+01    0.5804589    0.3004112 -28.40  0.002756877    1.950    0.487
        43 -10.0437    221.5783     11.1793   4.3852353288e+01   2.7869463635e+01    0.9760121    0.3882059 -35.68  0.004130617    2.262    0.558
        44 -10.8454    211.2700     31.2207   5.0373791454e+01   2.8113200757e+01    0.7881425    0.6394539  36.25  0.003786964    1.431    0.301
        45 -10.7258    214.3952     23.4872   4.7878392908e+01   2.8268648274e+01    0.6547365     0.454619  63.86  0.002386499    1.411    0.291
        46 -10.6154    211.3143     17.1675   4.6506292813e+01   2.9781825019e+01    0.6304648      0.30799  50.68  0.002708663    2.186    0.543
        47 -10.1328    213.5579     11.9563   4.4858129638e+01   2.9789519752e+01    0.4492278    0.3390522  88.66  0.001354213    1.265    0.210
        48 -10.5351    214.8032      5.1500   4.2926062216e+01   3.0190785610e+01     0.372701    0.2411343 -79.13   0.00116661    1.561    0.359
        49 -10.7503    211.1929      3.9960   4.2965809834e+01   3.1213420227e+01     0.477582    0.3812408  69.49  0.001967444    1.202    0.168
        50  -9.9192    243.3399     12.1525   4.2135211681e+01   2.2522382689e+01     0.378871    0.3152285 -25.84  0.001756113    1.327    0.246
        51  -9.6127    243.8908      5.2837   4.0460903715e+01   2.3145787385e+01    0.3396694    0.1868905 -17.59  0.001508656    2.280    0.561
        52 -10.4978    240.2260     18.4556   4.3932698233e+01   2.2533579448e+01    0.9221744    0.2137907 -35.72  0.003261063    3.230    0.690
        53 -10.2004    176.6951     20.3967   5.1890777099e+01   3.8403026805e+01    0.4767871    0.3691012 -72.61  0.002460445    1.407    0.289
        54  -9.9170    173.6627      8.1167   4.8456059179e+01   4.0489499214e+01    0.6265212    0.2957495 -17.46  0.002259335    2.477    0.596
        55  -9.4233    157.2081      5.5263   4.9964948440e+01   4.5009880271e+01    0.6044402    0.3355502  57.99   0.00283333    1.589    0.371
        56 -11.3911    158.7764     20.0167   5.4615449002e+01   4.3127602923e+01    0.9278795    0.6584432 -35.50  0.003044057    1.467    0.319
        57 -10.3668    147.1527     23.7249   5.8009596716e+01   4.5687171155e+01    0.6708816    0.2892488 -27.37  0.002490854    2.366    0.577
        58  -9.8919    166.8883     12.5407   5.0836241701e+01   4.1816769625e+01    0.6164759    0.3738997  77.47  0.002849797    1.706    0.414
        59 -10.4544    164.7812      4.7080   4.8588491467e+01   4.3124347850e+01    0.6951523    0.4495925  47.25  0.003481524    1.496    0.332
        60 -11.0748    149.5329     16.4577   5.5002741056e+01   4.5898392387e+01    0.7731381    0.4134035  40.51  0.001675316    1.943    0.485
        61  -9.7755    150.0395     10.4990   5.2823621281e+01   4.6380485157e+01    0.3864406     0.203802  57.76  0.001071166    1.679    0.404
        62  -9.8485     82.0093     20.1321   7.3101042132e+01   6.0812044433e+01    0.4638547     0.357151 -55.08  0.002560001    1.875    0.467
        63  -9.5107    233.2884     17.3325   4.4300223945e+01   2.4318698759e+01    0.4980424    0.2729849  70.37  0.002416522    1.787    0.440
        64  -8.8955    176.5097     14.5593   5.0086144374e+01   3.9090565267e+01    0.2329487    0.1926365  25.93 0.0006141271    1.356    0.263
        65 -11.0555    233.0107     10.1795   4.2543606250e+01   2.5187789155e+01     0.404451    0.3276292 -14.99 0.0004120274    1.468    0.319
        66 -11.1567    199.4050      4.6359   4.4333179070e+01   3.4147153656e+01    0.6757248    0.3881743 -38.16  0.002659956    1.715    0.417
        67  -8.8122     86.4868     11.0161   6.7575758340e+01   6.1062762979e+01     0.309483    0.1243865  38.10  0.001279351    2.503    0.600
        68  -9.4259    189.0593      8.6302   4.6650367225e+01   3.6423622812e+01      0.51678    0.1999007  50.38  0.001977085    2.598    0.615
        69  -9.4659     78.0961      9.0762   6.9303920818e+01   6.2900293686e+01    0.4122804    0.2495275  52.09  0.001872641    1.799    0.444
        70  -8.5915     77.6694      4.6372   6.7320613355e+01   6.3462928030e+01     0.306219    0.1702145  25.18  0.001533878    1.862    0.463
        71  -9.1440    250.4426      7.6281   4.0503722617e+01   2.1386396953e+01    0.2562273    0.1384706 -36.49   0.00132106    1.658    0.397
        72 -11.5787    138.4057      2.8569   5.2077078575e+01   5.0029248294e+01    0.5013111    0.2894605 -14.69   0.00239618    1.914    0.477
        73 -10.7122    132.1444      4.6135   5.3866589895e+01   5.1427699357e+01    0.5483596    0.2853329  48.16  0.001559181    1.707    0.414
        74 -10.1224    181.9020      4.8765   4.6396868399e+01   3.8652369691e+01    0.5306444     0.323525  67.40  0.001951544    1.486    0.327
        75  -9.9919    248.6932      2.2083   3.9385588024e+01   2.2366952075e+01    0.2587895    0.1955467 -66.34 0.0005537431    1.146    0.128
        76  -8.5795    198.4083     10.4649   4.6088497010e+01   3.3814114768e+01    0.4004244    0.1834723  89.30  0.001047511    2.837    0.647
        77  -8.5540     82.5737      2.8158   6.4931776313e+01   6.2698987935e+01    0.1749434    0.1104133 -30.57 0.0004887292    1.669    0.401
        78  -8.8455     50.0979    227.4960   1.2508048903e+02   2.2355428167e+01    0.1547777   0.08763594  47.20 0.0005553189    1.517    0.341
        79  -9.0618    184.0011    249.9986   1.0405826096e+02  -1.0623400832e+00    0.1778359    0.1261753  59.83  0.001144783    1.717    0.418
        80  -8.7594    161.4846    250.4713   1.0798935904e+02   2.4408175281e+00    0.1168555   0.08901314  43.75  0.000809748    1.014    0.014
        81  -9.6233    151.3118    249.9650   1.0968295691e+02   4.1154719824e+00    0.2239873    0.1540796  52.82 0.0007028243    1.244    0.196
        82  -8.9235    112.0072    225.4958   1.1390678234e+02   1.4087338494e+01    0.1797182   0.07755931  58.07 0.0008099219    2.493    0.599
        83  -9.0669     40.9714    221.2993   1.2620943117e+02   2.4557206750e+01    0.1633813   0.09775516 -45.32 0.0008988506    3.387    0.705
        84  -8.8122      3.2056    214.1488   1.3208966520e+02   2.9785171732e+01    0.1661021   0.05730787  87.69 0.0008731415    2.596    0.615
        85  -9.3009     26.4332    212.6838   1.2814501648e+02   2.7765008838e+01     0.198795   0.08493051 -84.10  0.001134106    2.083    0.520
        86  -8.9499     13.5144    212.5082   1.3031809841e+02   2.9111954774e+01    0.1077417   0.07291602  74.40 0.0001106528    1.033    0.032
        87  -8.2895    225.6867    211.6992   9.0910863832e+01  -3.0455017026e+00    0.1276697   0.08231796  13.92 0.0003074596    1.610    0.379
        88 -12.0988     66.4923    126.5072   1.1018721717e+02   4.1614622444e+01     1.604141    0.3812446 -58.32  0.005372257    3.432    0.709
        89  -9.7891     66.4499    148.2528   1.1367861315e+02   3.6575237394e+01    0.2729601    0.2674458   7.90  0.001811549    1.338    0.252
        90  -9.5785     70.6519    142.8442   1.1183712569e+02   3.7250185347e+01    0.2384498    0.1791562  57.21 0.0006251721    1.338    0.252
        91  -9.0848     80.0388    141.0813   1.0922049529e+02   3.6320077124e+01    0.2045961    0.1827866 -81.45  0.000466284    1.031    0.030
        92  -9.1355    236.9688    135.4809   7.3425757954e+01   5.9702970565e+00    0.2125933    0.1385872  47.05  0.001040596    1.617    0.381
        93  -9.3690    244.7507    204.2130   8.6284639409e+01  -5.2282296713e+00    0.1763844    0.1197419  11.73  0.001051264    1.368    0.269
        94 -10.0641     72.9028    129.2435   1.0898357810e+02   4.0099735414e+01    0.2760958    0.2035964 -80.36 0.0003466152    1.325    0.245
        95  -8.6028     81.1893    125.3294   1.0606457669e+02   3.9811726089e+01    0.1876526    0.1222301  48.94 0.0009313448    1.627    0.385
        96  -8.6202     75.3631    125.2410   1.0759893472e+02   4.0687640453e+01    0.2397348    0.1537781  60.43 0.0009341594    1.794    0.442
        97  -9.9620     91.2573    121.0748   1.0250788250e+02   3.9225917518e+01    0.4040712    0.3381223 -49.00  0.001346809    1.188    0.158
        98  -9.7045     92.2328    114.5061   1.0080955219e+02   4.0588561769e+01    0.4661103    0.2762588 -76.14  0.001296252    2.368    0.578
        99  -9.4088    132.0270    119.7264   9.1578020442e+01   3.1934567434e+01    0.2510294    0.2130411 -48.77 0.0005155458    1.160    0.138
       100  -9.6482    105.2128    117.9802   9.8089733544e+01   3.7542273197e+01    0.4735131    0.3180546  83.15  0.002017018    2.231    0.552
       101  -9.8466     98.7602    113.2327   9.8730646729e+01   3.9773873181e+01    0.4438729    0.3397389  43.72   0.00229192    1.385    0.278
       102  -8.6342     75.6925    119.5442   1.0641059550e+02   4.1974512008e+01    0.1791207    0.1272518  53.58 0.0009340467    1.526    0.345
       103  -9.4394    116.4438    116.8403   9.4859784576e+01   3.5701409340e+01    0.3372631    0.2154017  38.30 0.0003491922    1.683    0.406
       104  -9.6114     81.8333    114.7622   1.0373662008e+02   4.2182416826e+01    0.3582809    0.2443524  18.04  0.001412941    2.080    0.519
       105  -9.5548     17.8920    202.2812   1.2899785027e+02   3.0619108153e+01    0.2009254     0.157048  78.10  0.001045615    1.148    0.129
       106  -8.5510     23.2752    115.4482   1.2002817131e+02   4.8816153684e+01    0.1423878     0.104297  58.05 0.0005816968    1.490    0.329
       107 -10.2262    107.9312    109.2955   9.5286938394e+01   3.9019229126e+01    0.6260035    0.2460648 -49.18  0.002261665    2.407    0.585
       108  -8.6393    104.4535    109.4482   9.6271451069e+01   3.9624953114e+01    0.2451894    0.1386833 -51.54 0.0006527801    1.672    0.402
       109 -10.2249    133.0399    110.9729   8.9125939862e+01   3.3630526855e+01    0.4899353    0.3774228  43.85  0.002366852    1.329    0.248
       110 -10.5649     68.7432    106.1078   1.0559876878e+02   4.6090609826e+01    0.7281369    0.3372936 -36.38  0.002673695    3.321    0.699
       111  -9.6229     74.9454    107.2077   1.0404588021e+02   4.4964717863e+01    0.3335218    0.2634604  20.32  0.001127388    1.574    0.365
       112 -10.7804     77.3680    101.8599   1.0213100689e+02   4.5849695942e+01    0.6531599    0.3567052  40.43  0.003019556    2.008    0.502
       113 -10.0409    149.2620    107.0510   8.4095138849e+01   3.0899878199e+01     0.560147     0.261766 -36.82  0.002013355    2.286    0.563
       114  -9.6784    113.7865    107.0744   9.3146436312e+01   3.8405273539e+01    0.3328442    0.2403862 -49.37  0.001083892    1.324    0.245
       115 -10.1557    134.1957    102.8413   8.6679583989e+01   3.5131414162e+01    0.3901604    0.2695952 -42.01  0.001258017    1.422    0.297
       116  -8.5468    234.0117    200.0019   8.7360275755e+01  -2.9286328143e+00    0.2081946    0.1336777   9.25  0.001094938    1.679    0.405
       117 -10.4652    141.7309    102.1120   8.4590394298e+01   3.3625816505e+01     0.408907    0.3515175 -10.63 0.0009533724    1.329    0.248
       118  -9.4208    105.6841    102.9016   9.4288969979e+01   4.0876886895e+01     0.275673    0.2168043 -41.01 0.0007478526    1.254    0.202
       119  -9.5920    171.2972    102.6193   7.7842135123e+01   2.6647645381e+01    0.4223208    0.2936261  35.09  0.001849437    1.588    0.370
       120  -9.0055     58.8507    101.7247   1.0757352879e+02   4.8393575760e+01    0.2068581    0.1864367  33.79  0.001289226    1.297    0.229
       121  -9.4433     63.2089     98.4830   1.0556929710e+02   4.8595194890e+01    0.3150044    0.2774833  85.51  0.001910114    1.222    0.182
       122 -10.8044      4.4602     99.5438   1.2312861518e+02   5.3753164408e+01    0.6329345    0.2492046 -54.97  0.003305317    2.050    0.512
       123 -10.6773      4.5004     87.3290   1.2147352937e+02   5.6483018765e+01    0.7337254    0.2994805 -50.43  0.003868606    2.070    0.517
       124  -9.3517      1.5208     84.4706   1.2197304019e+02   5.7277561788e+01    0.2171018    0.1437912 -64.62 0.0007132021    1.124    0.111
       125  -9.7025    121.6071    100.2694   8.9257977125e+01   3.8344054220e+01     0.337634      0.23188 -22.29  0.001085001    1.922    0.480
       126 -10.4198    116.5000    100.0776   9.0577767980e+01   3.9419789840e+01     0.414977    0.2902113  -2.70  0.001703401    2.363    0.577
       127  -9.0780    110.9758    100.5314   9.2206943768e+01   4.0403898295e+01    0.2192948    0.1913721 -48.16 0.0001318008    1.090    0.082
       128  -8.8622      3.5387     92.9762   1.2254334452e+02   5.5276494499e+01    0.2325894   0.07790702 -65.83 0.0007795417    2.058    0.514
       129  -9.4025    160.0030     97.0271   7.8819297031e+01   3.0438585268e+01    0.5211202    0.3923176  15.62   0.00206918    1.720    0.418
       130  -9.9126    156.2712     94.8432   7.9063254729e+01   3.1756566424e+01    0.4542392    0.3144968  54.21  0.002012637    1.496    0.332
       131  -8.4123    147.6633     98.6929   8.2192011499e+01   3.2989176876e+01    0.1609509    0.1251518   8.32 0.0002773709    1.676    0.403
       132  -9.3361    226.8307     95.4707   6.5380864636e+01   1.4688965517e+01    0.2417004    0.2234093  80.28 0.0007835616    1.209    0.173
       133  -9.7930    140.7031     95.3097   8.2946614207e+01   3.5269931178e+01     0.353025    0.2799446  53.69 0.0004682784    1.310    0.237
       134 -10.7798    113.1678     94.8384   9.0056268473e+01   4.1225414985e+01    0.7349087    0.3252519  43.47  0.002766225    2.373    0.579
       135 -10.2234    123.8793     81.4371   8.3214217523e+01   4.1831726501e+01    0.5928023    0.3179065 -51.28    0.0023319    2.037    0.509
       136 -11.1242    124.1668     92.8473   8.6508435136e+01   3.9403806151e+01    0.6355977    0.4318398  66.73  0.002729372    1.947    0.486
       137 -11.3009    119.4834     86.7156   8.5992147962e+01   4.1676663124e+01    0.8774078    0.3322369  50.58  0.002916211    3.006    0.667
       138 -10.7397     91.8743     78.4843   9.1532774079e+01   4.8721891913e+01    0.7729834    0.4724379 -29.01  0.002942348    1.931    0.482
       139 -11.2539    106.8229     88.3496   9.0006459412e+01   4.3866077180e+01     0.977294    0.5939648 -29.16   0.00410238    2.013    0.503
       140 -10.2522     98.9197     77.1485   8.8993727445e+01   4.7733605254e+01    0.4761544    0.3107305  34.06  0.001111084    1.698    0.411
       141 -11.1934    103.2881     81.0191   8.8875353875e+01   4.6102521621e+01     0.500755    0.4170195   3.54  0.002239142    1.404    0.288
       142 -10.0033    105.9926     75.9286   8.6524565680e+01   4.6637624668e+01    0.3766278    0.3243874  79.48  0.001319107    1.442    0.306
       143  -8.7523    187.2054     89.7923   7.0974346797e+01   2.5183707365e+01    0.2233925    0.2063582 -66.85 0.0003345224    1.148    0.129
       144 -11.0800    145.5834     85.8604   7.8992648765e+01   3.6052960778e+01     1.633139    0.8750077 -15.53  0.004655852    4.346    0.770
       145 -11.0674    150.6642     66.4415   7.1774735438e+01   3.8464225647e+01    0.8758656    0.7448583 -11.49  0.004370521    1.264    0.209
       146 -11.7943    137.6757     68.8089   7.5647087892e+01   4.1163120372e+01    0.6416767    0.3461272  52.18 0.0002621557    1.900    0.474
       147 -11.5929    146.6223     75.2375   7.5504035333e+01   3.7848364467e+01     0.531512    0.3847359  23.66            0    1.698    0.411
       148  -8.6511    169.5166    200.5194   9.9450701135e+01   8.5041016344e+00    0.1329399    0.1153271  46.08 2.274242e-05    1.063    0.059
       149  -8.1820    153.5711     87.4851   7.7566108460e+01   3.3845359410e+01    0.1568335     0.151581 -10.91 8.535381e-05    1.042    0.041
       150  -8.9895    224.8340     84.9176   6.2973655302e+01   1.6873767528e+01    0.2136355    0.1952081  -1.47 0.0002402717    1.157    0.136
       151 -10.5297    161.1708     81.9148   7.4174338601e+01   3.3067930961e+01    0.4771184    0.3854925  52.59 0.0009953307    1.253    0.202
       152  -8.9523     27.6716    194.3353   1.2672031233e+02   3.1186214534e+01    0.1224764   0.06192874  68.82 0.0007051921    1.724    0.420
       153 -10.7838    133.5461     80.6125   8.0417618482e+01   3.9861277515e+01    0.5854483    0.3978335  58.54  0.001734662    1.651    0.394
       154 -10.4503    190.3131     76.9099   6.6722808842e+01   2.6673109107e+01    0.6292347    0.3409876  32.67  0.001397258    2.644    0.622
       155  -8.7667      5.7339     77.9561   1.1964573013e+02   5.8494488701e+01    0.2859072    0.1643374 -83.82  0.001207099    1.710    0.415
       156  -9.8557      6.1859     71.3658   1.1836820467e+02   5.9917665277e+01    0.2909688    0.1971532  16.78  0.001940658    1.928    0.481
       157 -10.0424    164.4270     75.4584   7.1514094877e+01   3.3446553131e+01    0.4393611    0.3694048  68.76  0.001734711    1.282    0.220
       158  -9.7831      3.5159     73.9695   1.1971228973e+02   5.9489060101e+01    0.2969252    0.1495076 -43.78  0.001719187    1.834    0.455
       159  -8.4692    248.3325     76.6700   5.7459437643e+01   1.2780207765e+01    0.1499843    0.1003393 -60.24 0.0003237506    1.721    0.419
       160  -9.2583    204.2511     75.9780   6.3958131656e+01   2.3332542909e+01    0.3736125    0.1874941  40.84  0.001387505    2.391    0.582
       161  -9.7932    215.9757     77.5219   6.2427912413e+01   2.0191317703e+01    0.6077966     0.301082 -55.30  0.002037039    2.736    0.634
       162  -9.9067     19.7925     72.9361   1.1403028572e+02   5.8723530121e+01    0.3910625    0.2025733 -49.78  0.002183836    1.553    0.356
       163  -8.2224    219.2947     74.6321   6.1124401026e+01   1.9847646884e+01    0.1603851    0.1084314 -60.17 0.0007028772    1.722    0.419
       164 -10.0891    177.9954     70.4623   6.7199693580e+01   3.0897056858e+01    0.6727298    0.4309542  20.69  0.001553748    2.345    0.574
       165 -11.4438    140.4498     74.7254   7.6845350360e+01   3.9408779632e+01    0.5809442     0.431668 -33.28 0.0006692064    1.340    0.254
       166 -10.1722    101.3203     69.1144   8.5733494327e+01   4.8918599964e+01    0.4657151    0.3435801 -69.41  0.001540605    1.863    0.463
       167 -10.4638    147.2317     34.8487   6.1909585810e+01   4.4260319011e+01      1.68592    0.6582569  58.42  0.006122539    2.442    0.591
       168  -9.5584    155.0922     32.7291   5.9606891914e+01   4.2537930903e+01    0.2751049    0.2250933  14.98 0.0001947984    1.351    0.260
       169  -9.5401     11.4283    192.2077   1.2954662909e+02   3.3205449847e+01    0.2368852    0.1560422  32.34  0.001658671    1.967    0.492
       170 -10.0452    149.6927     59.3538   6.9698525861e+01   3.9922860561e+01    0.6511229     0.330719  63.56  0.001670731    2.366    0.577
       171  -9.9769    160.1919     51.1199   6.4734111486e+01   3.8604236869e+01    0.7535778    0.5802414  -9.16  0.003596592    1.485    0.327
       172  -8.6498    215.8268    189.4030   8.8637588811e+01   1.7219061701e+00    0.1924224    0.1094204  32.51 0.0009444713    1.657    0.397
       173 -11.3584    152.5511     43.4685   6.3769685540e+01   4.1702051621e+01    0.7977755    0.4720571  67.35  0.001910691    1.889    0.471
       174 -10.4766    140.4611     52.0284   6.9373422509e+01   4.3396711902e+01     0.563552    0.4170401  50.86   0.00155503    1.336    0.252
       175 -11.7959    147.2981     53.7722   6.8388561785e+01   4.1435662819e+01    0.4257199    0.3258964  46.04 0.0001863931    1.290    0.225
       176 -10.7558    145.2755     49.0310   6.7240128267e+01   4.2689055125e+01    0.4699994    0.4142691  43.33   0.00087585    1.113    0.101
       177 -11.2929    141.7363     45.0590   6.6670456027e+01   4.4173081802e+01     0.561244    0.3811592  21.42  0.001594916    1.832    0.454
       178 -10.9642    136.1682     41.8095   6.6806231141e+01   4.6021218265e+01    0.6374836    0.3145066  58.94  0.002526541    2.113    0.527
       179  -9.8519     84.4962     67.8317   9.0549506549e+01   5.2205556534e+01    0.3942493    0.2733894  41.50  0.001935484    1.585    0.369
       180  -9.0024     12.4371     56.5918   1.1310320588e+02   6.2740822250e+01     0.256269     0.190046  47.39  0.001711668    1.810    0.447
       181  -9.6156     10.4840     51.9152   1.1274236864e+02   6.3839680246e+01    0.2245266    0.1794446  27.44 0.0008694005    1.613    0.380
       182 -10.3105      5.4534     50.2698   1.1432041724e+02   6.4461273133e+01    0.5987281    0.1667608 -42.90  0.002653378    2.938    0.660
       183  -9.6945     26.8799     56.6830   1.0763489717e+02   6.1693741130e+01    0.2238156    0.1788969 -58.09 0.0006936048    1.144    0.126
       184 -10.4752     10.8988     41.6813   1.0990377926e+02   6.5909026061e+01    0.4675344    0.3046689  -4.58  0.002242791    1.824    0.452
       185  -9.7932      1.5351    187.7783   1.3107088536e+02   3.4958267243e+01     0.578408   0.07669071 -75.68   0.00208994    5.196    0.808
       186  -9.9637     11.0208     63.0303   1.1505486518e+02   6.1452562692e+01    0.3917098    0.2381305 -63.58  0.001452315    1.283    0.221
       187 -10.8171      5.3584     57.6115   1.1598867116e+02   6.2925173438e+01    0.6151574    0.2220939  35.94  0.002994861    3.609    0.723
       188 -11.0922     23.2845     51.3575   1.0757180922e+02   6.3087042377e+01    0.5806409    0.2838612 -61.53  0.002493919    1.833    0.454
       189  -9.0392     18.1832     51.4548   1.0960645618e+02   6.3441163266e+01    0.4231792    0.2935962  78.05 0.0009934575    2.294    0.564
       190 -11.0826     16.5632     61.3633   1.1266545307e+02   6.1461953860e+01    0.6235951    0.2652788  19.15  0.003183007    2.993    0.666
       191 -11.2770     20.0037     57.3928   1.1043040568e+02   6.2069759535e+01    0.2285346    0.1914739 -64.08  0.000134895    1.181    0.154
       192 -10.2918    131.4680     62.2685   7.5058940170e+01   4.3794949268e+01    0.6758002    0.3729713  67.80  0.001673474    2.807    0.644
       193  -8.7850     66.6029     63.3057   9.5077473473e+01   5.5900416492e+01    0.1791579    0.1126078 -39.68  0.000280027    1.420    0.296
       194  -8.4602      5.0229     62.9553   1.1719895552e+02   6.1802014004e+01    0.1571507    0.1209258  78.66 0.0005536981    1.579    0.367
       195  -8.6032    207.1718     61.2142   5.9347889277e+01   2.4951672969e+01    0.2087616    0.1652277 -57.31 0.0004111895    1.303    0.233
       196 -10.0005    195.7521     48.8049   5.7593233930e+01   2.9728365346e+01    0.8623686    0.3470546  66.84  0.002985494    2.759    0.638
       197 -10.8399    174.2053     56.8355   6.3780351652e+01   3.4106094018e+01    0.8227441    0.5246022   0.13  0.001803815    2.412    0.585
       198 -10.4099    173.2986     48.3363   6.1291013069e+01   3.5640797163e+01    0.6534395    0.4007981  76.87   0.00269304    2.008    0.502
       199 -10.3957    185.8079     55.0911   6.1120760293e+01   3.1371753582e+01     0.917799    0.4838873 -13.90  0.003230603    2.857    0.650
       200 -10.5042    182.4159     51.9037   6.0751970282e+01   3.2735954713e+01    0.5298148    0.4407805   1.35 0.0007200817    1.391    0.281
       201  -9.0564    212.0008     59.5252   5.8131175271e+01   2.3992921138e+01    0.2670832    0.2095228  -6.49 0.0006409663    1.515    0.340
       202  -9.2461    201.0910     60.0059   5.9979560672e+01   2.6681318741e+01    0.2304275    0.2251511 -42.36 0.0007462642    1.030    0.029
       203  -8.6978    137.4330     59.2345   7.2547679883e+01   4.2924683327e+01    0.2862549    0.1685675  42.17 0.0008493759    1.749    0.428
       204 -10.2466    222.7835     56.5626   5.5759985443e+01   2.1755376398e+01    0.3700886    0.3326453  68.00 0.0009483624    1.153    0.133
       205 -10.7645    155.3844     48.7662   6.4954945806e+01   4.0191119967e+01     1.167801    0.6542885  11.11  0.003698124    3.804    0.737
       206  -9.4960    243.8191     55.1912   5.2681778083e+01   1.6935557348e+01    0.4077331    0.2336694 -34.11  0.001471002    1.581    0.368
       207  -9.6874    197.9736     54.7708   5.8977380012e+01   2.8275792427e+01    0.2849712    0.2444596  49.68 0.0002735757    1.199    0.166
       208  -9.9840    193.2985     53.8451   5.9471940936e+01   2.9620490865e+01     0.371081    0.3150076  33.35 0.0004315816    1.292    0.226
       209  -9.2691    234.2204     55.0936   5.3848783525e+01   1.9200514672e+01    0.2777605    0.2157066  80.88  0.001465228    1.389    0.280
       210  -8.2135     54.9903     50.0326   9.4875584332e+01   6.0121564942e+01    0.3871428    0.3262472 -89.49  0.002297972    1.775    0.437
       211 -10.2569     54.4854     45.4932   9.3468286357e+01   6.1057983230e+01    0.4067792    0.2592346  46.25  0.001827801    2.081    0.520
       212 -10.7648     60.5026     50.9814   9.3160250262e+01   5.9209763720e+01    0.4289561    0.2530442 -44.53 0.0008473525    1.482    0.325
       213 -10.4976     59.0000     47.0389   9.2321211792e+01   6.0168668289e+01    0.3770829    0.1765005 -43.87  0.001191718    1.851    0.460
       214  -9.4660    211.6303     50.5373   5.5691295229e+01   2.5410766062e+01    0.4219449     0.251397 -20.28  0.001416136    1.931    0.482
       215  -9.1662     65.9945     50.9651   9.1160718982e+01   5.8439651504e+01    0.1962058    0.1650641 -23.11 -0.003769674    1.065    0.061
       216 -10.2967    224.6335     48.0029   5.3224177659e+01   2.2524987454e+01    0.3295247    0.2466333 -55.83 0.0006649878    1.315    0.240
       217  -9.5651    219.9634     42.6366   5.2389344144e+01   2.4421814682e+01    0.2594258    0.2104382 -18.37 0.0006124959    1.353    0.261
       218  -9.7525      1.7616    178.0449   1.3048501794e+02   3.6888927223e+01    0.3171593    0.1132527 -80.75  0.001690884    2.201    0.546
       219  -9.2293      1.0000    172.4713   1.3029884451e+02   3.8088280401e+01    0.3133132    0.0750367 -78.21   0.00135578    3.269    0.694
       220  -9.8232    245.1326    187.4230   8.3059125357e+01  -3.1536027300e+00    0.2285924    0.1897742   0.07 0.0004949216    1.060    0.057
       221 -10.1316     11.5079    184.8772   1.2908468470e+02   3.4662346164e+01    0.2580514    0.1532375 -61.25  0.001360949    1.868    0.465
       222 -10.3504      6.4457    183.1250   1.2991478137e+02   3.5465545868e+01    0.3252212    0.1373317  89.03  0.001405076    1.992    0.498
       223  -9.4403     35.8317    185.3929   1.2448585797e+02   3.2131251043e+01    0.1353642    0.1091604  31.71 0.0003270914    1.677    0.404
       224  -9.1499     32.4679    184.4554   1.2506576818e+02   3.2686294797e+01    0.1157085   0.08800514  81.54 0.0002011183    1.015    0.015
       225  -8.6395     18.0220    182.4809   1.2770162240e+02   3.4544273404e+01    0.1476639   0.09536602  47.92  0.000512119    1.525    0.344
       226  -8.6630    231.1046     45.8510   5.1841438409e+01   2.1244442388e+01    0.1859061    0.1664769  12.04 0.0002771299    1.329    0.248
       227 -10.4402    206.9513     45.1254   5.4846064781e+01   2.7367519364e+01    0.4819422    0.3579885 -24.79  0.001454326    1.409    0.290
       228  -8.2548    248.7576     45.0239   4.9594337259e+01   1.7201998810e+01    0.1811217    0.1059839 -33.48  0.000621374    1.557    0.358
       229  -9.4445    179.5927     44.7345   5.9040141327e+01   3.4523036961e+01    0.3082014    0.2217655  29.23 0.0008304966    1.655    0.396
       230  -9.5071    213.7181     42.5212   5.3179745629e+01   2.6006052545e+01    0.4060733    0.2634687   3.84  0.001716125    2.374    0.579
       231  -9.3276    225.4708     42.2732   5.1596124748e+01   2.3106583212e+01    0.3567142    0.2219514 -71.09  0.001604916    1.927    0.481
       232 -10.9139    109.3471     30.0477   6.9124907719e+01   5.3913416768e+01    0.4795606     0.383212  35.71  0.001701743    1.195    0.163
       233  -9.2601    235.7374     39.4942   4.9656531799e+01   2.0986018347e+01    0.2584844    0.1786565 -34.02 0.0007593796    1.368    0.269
       234  -9.1027     36.7454    179.4064   1.2379753332e+02   3.3277511896e+01    0.2331628    0.1214172  60.58 0.0008904869    1.751    0.429
       235  -8.3152    243.6532    178.3076   8.1512777095e+01  -1.6712631333e+00    0.1161107    0.1070518 -80.85 0.0007043505    1.701    0.412
       236  -9.4125    191.0604     39.7257   5.5640006658e+01   3.2222534648e+01    0.3056781    0.2397984  25.43  0.000467027    1.514    0.340
       237 -10.5178    192.5437     32.8852   5.3379862148e+01   3.2738090663e+01    0.4664788    0.3308584 -25.23 0.0007412001    1.485    0.327
       238  -9.9020    203.9736     26.5359   4.9982443143e+01   3.0563216801e+01    0.4616659    0.3378181  -2.21  0.002283046    1.744    0.427
       239  -9.6877      7.4671    174.5295   1.2918855425e+02   3.7129801479e+01     0.209053    0.1432678 -88.67 0.0007146829    1.105    0.095
       240 -10.1318    180.1335     37.9206   5.6833636642e+01   3.5326837131e+01    0.6226255    0.3468175 -60.18  0.002424778    2.392    0.582
       241  -9.7152    174.7471     38.6567   5.7973107592e+01   3.6638443443e+01    0.3857451    0.2278038  42.35  0.001010766    1.823    0.452
       242 -10.1405    143.6703     58.1812   7.0699529704e+01   4.1600190699e+01    0.2721716    0.2564473   5.47 0.0003600768    1.064    0.060
       243  -9.5312    203.7152     37.6052   5.3166755088e+01   2.9222504718e+01    0.3852939    0.2866879   3.95  0.001204002    1.751    0.429
       244  -8.6035    245.6879    171.3131   7.9745196241e+01  -1.0574829737e+00    0.1173394    0.1066198 -64.00 0.0007031019    1.633    0.388
       245 -10.3432     18.4141    165.2133   1.2633746131e+02   3.8121403546e+01    0.2673357    0.1793432  53.19   0.00147154    1.447    0.309
       246 -10.3811     11.2794    164.8325   1.2776644178e+02   3.8831898215e+01    0.2653219    0.1408747  42.40  0.001661163    1.921    0.480
       247 -10.4748      2.6249    159.9132   1.2917341667e+02   4.0577927463e+01    0.4711961    0.2006286 -78.58  0.002676575    1.794    0.443
       248 -10.2619     22.3323    159.3262   1.2502128452e+02   3.9030357520e+01    0.2248406   0.08770845 -69.75 0.0006936074    2.052    0.513
       249 -10.2990     15.2676    160.0258   1.2657433231e+02   3.9514442547e+01     0.223821    0.1640055 -66.55 0.0008985218    1.377    0.274
       250  -9.3492      9.4824    158.4485   1.2765857402e+02   4.0342848525e+01    0.2274566    0.1283218 -48.94 0.0009707161    2.333    0.571
       251  -9.1861      7.6790    151.7710   1.2752352464e+02   4.1925473682e+01    0.1951134    0.1440198 -62.62 0.0006363205    1.430    0.301
       252 -10.7419    219.7167     34.2272   5.0153433032e+01   2.5597462711e+01     0.466119    0.3897804  70.00  0.001158572    1.197    0.165
       253  -9.9531    227.8506     29.9441   4.8079238477e+01   2.4126824096e+01    0.5684491     0.242402 -40.13  0.001516037    2.097    0.523
       254  -9.0016    123.9550     35.9313   6.7598109087e+01   4.9783750225e+01    0.3015409    0.2018653  43.62  0.001443536    1.445    0.308
       255  -8.5622    130.6311     34.7750   6.5551539613e+01   4.8365507343e+01    0.2205845    0.1918517  46.10  0.000324539    1.115    0.103
       256 -11.1053    134.8041     33.8474   6.4246858254e+01   4.7482941255e+01    0.3153104    0.2780723  15.97 0.0003471766    1.134    0.118
       257  -9.8769    138.8414     31.8412   6.2621406383e+01   4.6759481748e+01    0.2853578    0.2681511  21.35 0.0002704049    1.030    0.029
       258  -9.8731    247.5331     32.9327   4.6767786505e+01   1.9063461793e+01    0.5326489    0.2664295  51.77  0.001987358    2.292    0.564
       259 -10.3703     13.2407    151.1420   1.2627276071e+02   4.1612900659e+01    0.4599167    0.2773954 -70.69  0.002950927    1.374    0.272
       260 -12.0004     20.7082    147.3268   1.2427457173e+02   4.1813900868e+01    0.5075394    0.4082411 -74.38  0.002863786    1.185    0.156
       261 -10.5609    236.4335     32.0063   4.7678407320e+01   2.1788522361e+01    0.5947708    0.4828857  47.64  0.003368779    1.416    0.294
       262  -9.4184    237.8003     25.7793   4.5973956341e+01   2.2236104631e+01    0.3024651    0.2131384 -80.86  0.001613172    1.451    0.311
       263  -9.6448     15.4291    142.3217   1.2499618546e+02   4.3374538113e+01    0.3006712    0.1515572 -78.10   0.00160504    1.565    0.361
       264 -10.5947    246.7336     19.0236   4.3486561256e+01   2.0946384080e+01    0.5095355    0.2591586  74.37  0.001638551    2.001    0.500
       265  -9.8731    172.2556     31.8521   5.6230018983e+01   3.8188967258e+01    0.5977198    0.2754771  40.54  0.002186006    2.613    0.617
       266 -11.6127      5.3150    144.0334   1.2741818672e+02   4.3787836604e+01    0.5757225    0.3473795 -82.00  0.001947567    1.250    0.200
       267  -9.1838    181.1470     19.8845   5.1084782478e+01   3.7292816000e+01    0.2183492    0.1988791  62.02 0.0002861408    1.061    0.058
       268  -9.3436    185.0052     23.1018   5.1521840071e+01   3.5911445017e+01    0.3930089    0.2141607 -39.69  0.001551413    1.831    0.454
       269  -9.8418    188.6652     19.9059   5.0051384855e+01   3.5320903176e+01    0.3294207    0.2251195  45.61 0.0006987044    1.538    0.350
       270  -9.2288    185.3658     17.8038   4.9863427141e+01   3.6419598467e+01    0.2101192    0.1832595 -71.37 0.0002980749    1.148    0.129
       271 -10.9955    178.5154     27.3951   5.3809738959e+01   3.7102498601e+01     0.568241    0.4236724  16.93  0.001746817    1.653    0.395
       272  -9.9976    182.7087     27.3260   5.3150043453e+01   3.6009818660e+01    0.2825193     0.240592 -53.11  0.000524344    1.196    0.164
       273  -9.6405    236.1322    249.2841   9.5195697560e+01  -8.9360260885e+00    0.2857349    0.1287903  45.81  0.001542931    2.262    0.558
       274  -8.7346    124.6563    249.7050   1.1423644452e+02   8.2915796644e+00    0.1055879      0.08131  25.71 0.0007031436    1.664    0.399
       275 -11.8218    167.0342     24.5543   5.4737636987e+01   4.0454070799e+01     0.528482    0.3494872  36.34 0.0004138361    1.666    0.400
       276 -12.6685     10.9464    129.2981   1.2478027512e+02   4.6631644667e+01     1.482945     1.016953 -64.04  0.006849035    1.301    0.231
       277 -13.6473     39.7080    122.2526   1.1660815926e+02   4.5738005485e+01     3.128348     1.843413 -72.70  0.007964782    1.439    0.305
       278 -11.0379     25.4232     67.1096   1.1078286917e+02   5.9580229271e+01    0.3036719    0.1740586 -59.83 0.0008681712    1.390    0.281
       279 -11.2876     32.7981     60.2809   1.0637700264e+02   6.0428829276e+01    0.8851244    0.4455682 -21.10   0.00204025    3.125    0.680
       280  -9.3628    152.3825     26.9534   5.8139996811e+01   4.3964037820e+01    0.3379103    0.1735098  51.74 8.360523e-05    1.801    0.445
       281  -9.0389    153.0559     23.1232   5.6689228849e+01   4.4249220359e+01    0.2694488    0.2477762  27.41 0.0004520959    1.094    0.086
       282 -10.0200    107.4660    248.3452   1.1703203012e+02   1.1072178956e+01    0.3019913    0.1691072  73.27  0.001737485    2.157    0.536
       283  -9.0802    217.5127    247.4839   9.8016108300e+01  -5.9812318250e+00    0.1161944    0.0860679  26.53 0.0001994047    1.025    0.025
       284  -9.6188    248.7007     26.2052   4.5029394170e+01   1.9632650864e+01    0.3365356    0.2305926  42.11  0.001769846    1.879    0.468
       285  -8.7872     30.8623    247.1449   1.2934567097e+02   2.1210621921e+01    0.1243284    0.1013488  77.55 0.0006206805    1.331    0.249
       286  -9.2337    232.5580     20.5273   4.5174219884e+01   2.4123301976e+01    0.4918206     0.254223  83.02  0.001114398    2.117    0.528
       287  -9.4810      3.2496    246.6078   1.3340638288e+02   2.4153760635e+01    0.1769448   0.09769157 -77.12  0.001366807    1.767    0.434
       288  -9.0372     86.4700     16.1733   6.9912993958e+01   6.0461459055e+01    0.2506085    0.1797278  56.94  0.001078598    1.653    0.395
       289  -9.2992    179.9927     15.0000   4.9738803919e+01   3.8131425132e+01    0.4520239    0.1609784  63.74  0.001673063    2.466    0.595
       290  -8.8071    206.3171    244.6663   9.9504796068e+01  -3.9370815857e+00    0.1061102   0.08452674  59.06 0.0003331504    1.692    0.409
       291  -8.0766     61.5648     15.6089   7.8247030880e+01   6.4955023551e+01    0.1234921    0.1052806  -5.50 -4.160644e-06    1.082    0.076
       292  -9.0930     66.8634     13.4819   7.5264185772e+01   6.4370457199e+01     0.364004    0.1174053  45.36  0.001463576    3.149    0.682
       293 -11.6009     67.7792     73.0791   9.7639561707e+01   5.3678008520e+01         1.58    0.4526286 -56.17  0.004800944    4.172    0.760
       294  -9.7064    142.4158    243.4936   1.1048189892e+02   6.4372725225e+00    0.2540154    0.1701232  35.69 0.0009203584    1.397    0.284
       295  -8.4205    141.4540     11.5070   5.4697375285e+01   4.8459745050e+01      0.14344    0.1262681  39.90 8.644844e-05    1.065    0.061
       296 -10.4075     14.7693    237.5431   1.3133472078e+02   2.4527905387e+01    0.3288472    0.1496967 -89.68  0.001131883    1.852    0.460
       297 -11.8613     41.3060     50.3927   1.0022044535e+02   6.1643584554e+01    0.9142865    0.4965373  25.63  0.004858823    2.165    0.538
       298  -9.6190     12.6398    231.9095   1.3140646771e+02   2.5710768641e+01    0.2456297    0.1296092  65.54  0.001754166    1.356    0.263
       299  -8.6863     50.3087    235.6641   1.2559983307e+02   2.0895977372e+01    0.1159896   0.05830025  67.19 0.0004703349    1.678    0.404
       300  -8.9254    180.5108    234.5443   1.0257096747e+02   1.4910356279e+00    0.1224096   0.09588042  33.57 1.536089e-05    1.066    0.062
       301 -12.1696      9.7421    110.8023   1.2305862462e+02   5.0884323325e+01     1.040412    0.6890689 -45.00  0.006691144    1.662    0.398
       302 -12.1844     20.6543     99.2535   1.1843971215e+02   5.2734360555e+01     1.230096    0.5882863 -52.06  0.006544322    1.807    0.447
       303  -9.0928    227.2377    231.3871   9.3919062319e+01  -5.6775243263e+00    0.2032216    0.1358173  21.86 0.0006151893    1.272    0.214
       304  -8.7611     91.5238    245.5249   1.1947535357e+02   1.3815504606e+01    0.1138965   0.08280057  61.01  0.000271471    1.034    0.032
       305  -9.4502    202.1911    228.9922   9.7896717982e+01  -1.3629837195e+00    0.1994603    0.1420927  35.38 0.0003649188    1.130    0.115
