#   1 NUMBER                 Running object number                                     
#   2 MAG_AUTO               Kron-like elliptical aperture magnitude                    [mag]
#   3 X_IMAGE                Object position along x                                    [pixel]
#   4 Y_IMAGE                Object position along y                                    [pixel]
#   5 X_WORLD                Barycenter position along world x axis                     [deg]
#   6 Y_WORLD                Barycenter position along world y axis                     [deg]
#   7 A_WORLD                Profile RMS along major axis (world units)                 [deg]
#   8 B_WORLD                Profile RMS along minor axis (world units)                 [deg]
#   9 THETA_WORLD            Position angle (CCW/world-x)                               [deg]
#  10 FWHM_WORLD             FWHM assuming a gaussian core                              [deg]
#  11 ELONGATION             A_IMAGE/B_IMAGE                                           
#  12 ELLIPTICITY            1 - B_IMAGE/A_IMAGE                                       
         1 -17.3625     15.7000     92.6372   1.2721525716e+02   5.5871992260e+01     6.467736     1.401184 -50.63   0.02499679    3.014    0.668
         2  99.0000     70.8898     12.2873   8.1160790256e+01   6.2380640573e+01     6.269169     2.290132  49.49   0.01868564    2.402    0.584
         3 -14.1994    154.9450     53.8581   7.4259434945e+01   3.9661828172e+01     4.731905     2.343817  55.11   0.02087782    1.833    0.454
         4 -12.8578    171.3189     20.2595   6.2711900493e+01   4.0031985395e+01    0.8469545    0.6817072  85.10  0.004077852    1.088    0.081
         5 -11.7379    128.7940    244.7647   1.2225855008e+02   4.8324326661e+00     0.241093    0.2192542 -58.30 0.0004818498    1.249    0.200
         6 -19.3975     73.9854    226.9818   1.3166915689e+02   1.7249316338e+01     5.686315      4.63891  37.25   0.02463706    1.364    0.267
         7 -10.7656    219.1338    195.5414   9.4866109827e+01  -1.3684238104e+00    0.2810666    0.1761314 -55.46    0.0010529    2.004    0.501
         8 -11.3615     30.7734    249.7013   1.4225893623e+02   1.8137160998e+01    0.3016815    0.2051564  36.94 0.0006623723    1.680    0.405
         9 -11.3386    164.7005    188.5854   1.0492596382e+02   1.0052487989e+01     0.280746    0.2615475  81.50 0.0002489139    1.172    0.147
        10  -9.5803    141.6012    243.6621   1.1941145030e+02   2.9054182572e+00    0.2724616    0.1907126  30.41  0.001016476    1.401    0.286
        11 -14.6261     48.8583    248.2755   1.3880203425e+02   1.6177584571e+01    0.4891388    0.3013787 -68.62  0.002928531    1.641    0.391
        12 -10.1712     53.8333    181.1348   1.3064124480e+02   3.0851394880e+01    0.3000504     0.227581  53.63  0.001032319    1.322    0.244
        13 -12.4664    188.9725    178.5853   9.7564997888e+01   7.4696638149e+00    0.6609141    0.4595974 -55.36  0.001974423    1.565    0.361
        14 -11.0383    185.2632    170.5850   9.6683806930e+01   9.8890330735e+00    0.4548073    0.3207607 -62.81    0.0017091    1.695    0.410
        15 -11.6863     44.2279    176.2757   1.3236301304e+02   3.3229846103e+01    0.5736185    0.4632116 -49.77  0.003372947    1.369    0.269
        16  -9.2793     37.4665    173.5144   1.3367683582e+02   3.4680273444e+01     0.147442    0.1341195   4.21 0.0005513918    1.452    0.311
        17 -10.0065      6.1156    228.8959   1.4535187782e+02   2.5165351246e+01    0.1630529    0.1257486  81.53 0.0004339353    1.078    0.073
        18 -11.0295    207.7979    225.4080   1.0269537822e+02  -4.8406597869e+00    0.3555673    0.1991588 -44.07  0.001685896    1.876    0.467
        19 -10.7984    195.4359    173.9447   9.5241893944e+01   7.1804621670e+00    0.3503217    0.2745065 -51.45 0.0009645285    1.300    0.231
        20 -10.3723    207.7253    172.7702   9.2501762770e+01   5.0673658460e+00    0.3653257    0.2269592 -57.73  0.001068869    1.944    0.486
        21 -11.2722    176.8903    170.2573   9.8439741414e+01   1.1640981673e+01    0.3478027    0.2148716 -60.31   0.00128544    1.953    0.488
        22 -10.8606    242.0382    170.1855   8.5621647088e+01  -5.6395866303e-01    0.2058502    0.1718773 -11.29 0.0005051661    1.238    0.192
        23  -9.2463    143.5600    238.3195   1.1821458723e+02   3.5944168471e+00    0.1635308    0.1310768 -38.87 0.0008674624    1.439    0.305
        24 -11.2148    191.6194    164.3421   9.4000764611e+01   9.9413041762e+00    0.6756686    0.3279806 -57.88  0.002369251    2.821    0.646
        25 -11.7558    189.1655    156.4430   9.2797275835e+01   1.2116556678e+01    0.5558513    0.4983542 -12.22  0.001664672    1.214    0.177
        26  -8.9894     20.4329    212.5136   1.4142508589e+02   2.7288492009e+01    0.1220822   0.09743201 -89.43 0.0001815875    1.088    0.081
        27  -9.8748    242.5128    165.5312   8.4602492914e+01   2.0834305271e-01    0.1366773    0.1190714 -33.23 0.0001038196    1.002    0.002
        28 -12.5679     11.6134    206.9577   1.4276600742e+02   2.9434825526e+01    0.3790368    0.3061092  26.48  0.001941705    1.679    0.404
        29  -9.7437     36.8573    158.0605   1.3180164232e+02   3.8556180706e+01    0.6199117    0.2153908 -72.87  0.002239518    3.008    0.668
        30 -10.0818    210.8712    158.4058   8.8849401238e+01   7.3531725847e+00     0.221921    0.1897137 -52.47 0.0004182998    1.159    0.137
        31 -11.9634     44.6659    157.0677   1.2959611382e+02   3.7940422749e+01    0.4736816    0.2833674 -84.17  0.001833444    1.787    0.441
        32 -12.2203     41.5405    149.2950   1.2926517335e+02   4.0220372542e+01    0.5446165    0.3976954 -88.76  0.001917419    1.388    0.279
        33 -13.2395    133.9316    147.2178   1.0359278798e+02   2.5797634153e+01     1.531646     0.483627 -55.84  0.004096294    4.110    0.757
        34 -13.1955    135.6034    128.2314   9.8684213123e+01   2.9887112725e+01     1.954595     0.328352 -49.93  0.003914796    7.145    0.860
        35 -12.3539    134.5277    109.3486   9.4162497688e+01   3.4311834499e+01     1.194485    0.1954442 -45.71  0.002628592    6.139    0.837
        36 -10.5662      4.5180    237.2648   1.4614758791e+02   2.3570654313e+01    0.1918963    0.1482072  81.86 0.0005633582    1.112    0.100
        37 -10.2460    118.6579    150.9980   1.0839943088e+02   2.7933997073e+01    0.2276477    0.1956082 -54.96 0.0004579398    1.135    0.119
        38 -11.2186     78.4680    149.8815   1.1912018706e+02   3.5223888833e+01    0.3950382    0.2812476 -30.94 0.0005112395    1.750    0.429
        39  -9.7622     83.4243    147.2298   1.1721930144e+02   3.5113157823e+01    0.4138539    0.1285859  41.95  0.001335096    3.305    0.697
        40 -12.0716    143.5926    146.6062   1.0102247013e+02   2.3935713798e+01    0.7782053    0.3960937 -64.76  0.002524826    3.039    0.671
        41  99.0000     63.2573    129.8990   1.1955757834e+02   4.2365043416e+01    0.9100742    0.7296795 -89.55  0.003446981    1.414    0.293
        42 -13.0938     67.9190    144.5513   1.2107260963e+02   3.8106404232e+01    0.6917343    0.4667423  72.09  0.003199437    1.915    0.478
        43 -13.5046     72.5862    140.2175   1.1889954214e+02   3.8514477238e+01     1.034411     0.468627 -59.88  0.004103004    2.075    0.518
        44 -11.9630    236.1197    247.6094   1.0114634244e+02  -1.2505665071e+01    0.2156137    0.1847797 -16.99 0.0006180495    1.218    0.179
        45 -11.7863    132.8783    200.0954   1.1443349006e+02   1.3531305019e+01    0.6399598    0.3491239  26.29  0.002487045    2.430    0.588
        46  -8.7164    230.2454    140.9766   8.1599290972e+01   7.0431002962e+00    0.1765684    0.1092724 -43.43 0.0001873667    1.439    0.305
        47 -12.6429    122.4809    128.0641   1.0209045587e+02   3.2658443100e+01    0.8730878    0.3426844  43.68  0.002966051    2.590    0.614
        48 -12.8247    118.3223    135.4344   1.0497481466e+02   3.1755210130e+01    0.7810537    0.5775842 -66.49  0.001979875    1.484    0.326
        49 -12.1712    109.1090    134.3157   1.0723425258e+02   3.3805979786e+01    0.5190905    0.4306064  -9.67 0.0005357377    1.495    0.331
        50 -11.5322    110.9700    123.0507   1.0401737166e+02   3.6114168404e+01    0.4146595    0.3342847 -39.70  0.001077921    1.250    0.200
        51 -11.6187    115.0394    118.1028   1.0164473270e+02   3.6452430286e+01    0.4732266    0.2388345 -43.37 0.0009608235    1.987    0.497
        52  -9.6721     81.1810    136.9647   1.1575396999e+02   3.8013561577e+01    0.2300892    0.1959117  89.38 0.0007376295    1.278    0.218
        53 -11.1514    160.4415    129.0911   9.2825423462e+01   2.4272676767e+01    0.4090235    0.3094385 -55.23   0.00140464    1.334    0.250
        54  -9.5433    161.9132    245.8138   1.1548545808e+02  -8.8271459007e-01    0.1861094    0.1631384  12.46 0.0004711791    1.162    0.140
        55 -11.6853    124.8041    122.4928   1.0009086880e+02   3.3466921138e+01    0.3036133    0.2674116 -21.87  0.001235223    1.254    0.203
        56 -10.7587    140.1004    121.4612   9.5858554123e+01   3.0448222376e+01     0.360269    0.2461238  69.24 0.0009258847    1.914    0.478
        57  -9.5736    167.4938    113.5035   8.7392058965e+01   2.6021311695e+01    0.3499932    0.2320839 -82.69  0.001109599    2.368    0.578
        58 -10.2396    102.8189    113.8662   1.0403349724e+02   3.9780711807e+01    0.2360243    0.2078826 -19.66 0.0007787094    1.218    0.179
        59  -9.5247     60.6032    109.9352   1.1602673334e+02   4.7463551262e+01     0.232297    0.1895446   4.43  0.001287508    1.388    0.279
        60 -10.4183     65.1976    104.3235   1.1320039165e+02   4.8119827142e+01    0.4580363    0.2381002 -34.65  0.001767544    2.214    0.548
        61 -12.3895    117.1561    102.5286   9.6967757933e+01   3.9452627034e+01    0.4189604    0.3724452 -32.93  0.002204767    1.140    0.122
        62 -12.1768    112.1771     96.8968   9.6812896315e+01   4.1647344187e+01    0.6669104     0.367956 -26.53  0.002459571    2.645    0.622
        63 -11.1637    124.1479     96.6824   9.3466538821e+01   3.9203088587e+01    0.2671026     0.206787 -54.44 0.0007728724    1.364    0.267
        64  -9.5496    227.7264     85.8852   7.0098278879e+01   1.7707790955e+01     0.187836    0.1731469 -57.33  0.000986789    1.156    0.135
        65 -10.7720    143.0383     83.2250   8.4978122396e+01   3.7615085309e+01     0.259625    0.2196938 -45.03 0.0005942102    1.212    0.175
        66 -12.0338    115.0226     76.0139   8.9999926329e+01   4.5104151156e+01    0.3634242    0.2933245  70.36  0.001308243    1.487    0.328
