#   1 NUMBER                 Running object number                                     
#   2 MAG_AUTO               Kron-like elliptical aperture magnitude                    [mag]
#   3 X_IMAGE                Object position along x                                    [pixel]
#   4 Y_IMAGE                Object position along y                                    [pixel]
#   5 X_WORLD                Barycenter position along world x axis                     [deg]
#   6 Y_WORLD                Barycenter position along world y axis                     [deg]
#   7 A_WORLD                Profile RMS along major axis (world units)                 [deg]
#   8 B_WORLD                Profile RMS along minor axis (world units)                 [deg]
#   9 THETA_WORLD            Position angle (CCW/world-x)                               [deg]
#  10 FWHM_WORLD             FWHM assuming a gaussian core                              [deg]
#  11 ELONGATION             A_IMAGE/B_IMAGE                                           
#  12 ELLIPTICITY            1 - B_IMAGE/A_IMAGE                                       
         1 -11.9341    206.3755     17.0028   3.7460048684e+01   3.1498263006e+01      1.06744    0.2818533 -35.84  0.004098246    3.194    0.687
         2 -13.7683    197.7525     78.4962   5.4335112805e+01   2.4936181909e+01     5.481675     2.441269 -21.50   0.01618107    4.412    0.773
         3 -12.3140    214.3398     23.3866   3.8206000864e+01   2.8909162599e+01     1.042628    0.6977943  30.54  0.004343007    2.391    0.582
         4 -13.2616    248.2642      6.9057   3.1842013726e+01   2.3349317516e+01    0.9203281    0.4586844 -17.93  0.002229797    3.522    0.716
         5 -15.3126    219.0197     78.0668   5.0924759800e+01   2.0105078227e+01     9.511358      5.35786 -73.97   0.03240822    2.930    0.659
         6 -15.1402    243.0009     47.7913   4.0931983599e+01   1.9405077748e+01     2.244684     1.214717  52.48   0.01125311    2.224    0.550
         7 -13.5143    250.0493     29.9423   3.6445510241e+01   2.0278880049e+01      1.18071    0.4214558 -34.70  0.003541643    2.531    0.605
         8 -12.4166    220.5526     36.0860   4.0580186316e+01   2.5908093462e+01     2.353832    0.7321298 -36.83   0.00924338    2.778    0.640
         9 -12.3432    134.0728     19.1506   4.7971938622e+01   4.9009121350e+01    0.7885041    0.4734791  -8.21  0.002614843    2.150    0.535
        10 -13.3886    232.7865     24.4796   3.6735009316e+01   2.4622276180e+01     1.428639    0.8577664 -22.48  0.005519879    2.130    0.531
        11 -15.1398    242.4657     77.6038   4.7675947677e+01   1.5137275995e+01     7.638054      4.36671 -19.85   0.03355219    2.489    0.598
        12 -10.0699     92.5052     14.9614   5.5809665107e+01   5.9054051695e+01     0.508687    0.2398225 -39.57    0.0021637    2.569    0.611
        13  -9.6704    115.9801     12.5103   4.9206148736e+01   5.3997336336e+01    0.3038201    0.2126296  56.44   0.00107727    1.252    0.201
        14 -11.5939    120.2913      9.1445   4.7100612645e+01   5.3283845686e+01    0.5069941     0.419331 -35.40  0.002271625    1.373    0.272
        15  -9.5274     79.3905      8.1678   5.6628481525e+01   6.2450169182e+01    0.2070239      0.15038 -24.70 0.0008279086    1.492    0.330
        16 -10.4161    136.9754      2.2096   4.1813118592e+01   4.9844614337e+01    0.2621354    0.2194329   1.41 0.0009772488    1.399    0.285
        17  -9.9162    235.5592      3.4168   3.1976184359e+01   2.6394519312e+01     0.324666    0.2011847  53.83  0.001883566    2.005    0.501
        18  -8.8866    147.9142      3.4341   4.0600374639e+01   4.7069127937e+01    0.2511857    0.1655326  12.26  0.001084646    2.032    0.508
        19 -10.1839    128.7038     10.3002   4.5926998028e+01   5.1166696353e+01    0.2799875    0.1644546 -15.47  0.001250408    2.009    0.502
        20  -8.4304    181.9465      2.7743   3.6326074823e+01   3.8787076604e+01    0.2105435    0.1666594   7.75  0.001252084    1.719    0.418
        21  -8.4754    171.9577      2.9482   3.7444299489e+01   4.1202941489e+01    0.2036456    0.1308305 -63.81 0.0006706176    1.624    0.384
        22 -10.4326    227.8255    175.7348   7.1781483888e+01   1.3610899619e+00    0.4020629    0.2289289  49.62   0.00183586    2.198    0.545
        23 -10.6883    230.6343    167.4422   6.9557925390e+01   2.2696537116e+00     0.460473    0.2165404 -47.85  0.001897233    2.543    0.607
        24 -10.1653    101.0020    176.0012   9.9928762866e+01   2.4695773225e+01    0.1999781    0.1882695  73.11  0.001142378    1.012    0.012
        25  -9.2303    200.9153    173.5799   7.6485132444e+01   6.5335547886e+00    0.3355063    0.1999984 -21.39  0.001461599    2.029    0.507
        26  -8.3018     52.8135    174.1747   1.1166224795e+02   3.2162483864e+01    0.1585305    0.1434533 -57.07  0.000978124    1.257    0.204
        27  -8.9932    214.2895    168.8640   7.2875046939e+01   4.9241852950e+00    0.3298769    0.1780511  41.32  0.001496455    1.918    0.479
        28 -10.3076     23.4964    168.2783   1.1814895551e+02   3.6761297292e+01    0.2221554    0.1612124   2.25  0.001279599    2.099    0.524
        29 -10.0255    242.7914    165.7555   6.7093750535e+01   4.9240591982e-01    0.3294095    0.1616726 -39.34  0.001534116    1.860    0.462
        30  -8.7352    209.2782    165.5063   7.3127024452e+01   6.4497804888e+00    0.2809211    0.1313235  56.70 0.0009480811    3.764    0.734
        31 -10.2803     24.0298    164.5057   1.1765208024e+02   3.7609587263e+01    0.2778645   0.09715538  36.30  0.001226351    2.773    0.639
        32  -9.5355    240.0107    248.5243   8.2904416900e+01  -1.0897208373e+01    0.1637506   0.09305087  29.19 0.0004376853    1.509    0.337
        33  -8.5823    136.6568    242.3119   1.0166389301e+02   5.3168501527e+00    0.1294199   0.08732934  60.54 0.0003473632    1.703    0.413
        34 -14.6521    176.3187     77.4448   5.7881563651e+01   3.0274900034e+01     4.876143     2.307679  65.66  0.001725059    2.634    0.620
        35  -8.8461    233.4949    240.4688   8.2735238195e+01  -9.0505188754e+00    0.1205077    0.0912211   7.30 0.0008097646    1.019    0.019
        36  -8.3464    210.8204    237.7994   8.6433998057e+01  -5.5023585053e+00     0.148617    0.1325775  21.84 0.0003692528    1.279    0.218
        37  -8.7778    209.8366    220.7201   8.3740945240e+01  -2.8891199752e+00    0.1936933    0.1673778 -68.48 0.0006499573    1.904    0.475
        38 -12.4579     44.3613    152.5675   1.1104994392e+02   3.8429945250e+01    0.8625098    0.6369069 -83.34  0.003066674    1.231    0.188
        39 -12.1527     50.6413    150.0725   1.0900271675e+02   3.8323139482e+01    0.7843704    0.5041185 -83.20  0.002015857    1.560    0.359
        40  -9.1646    159.3557    158.1181   8.2170222112e+01   1.7774300572e+01    0.3006075    0.1972566 -62.14  0.001269659    1.937    0.484
        41  -9.4410    249.5062    158.0033   6.4369977254e+01   6.3905010092e-01    0.2127476    0.1140472 -35.26  0.001031932    1.612    0.380
        42 -10.0303    204.8214    154.2067   7.1535678630e+01   9.3882716292e+00     0.453404     0.315136 -66.60   0.00109889    2.239    0.553
        43 -11.2286     19.0347    154.5016   1.1788606925e+02   4.0461322522e+01    0.2793203    0.2664739  15.80   0.00195154    1.361    0.265
        44 -10.5220    191.6796    152.3860   7.3777432740e+01   1.2355144150e+01    0.4943111    0.3719926 -59.78  0.002375086    1.627    0.385
        45  -9.2206    154.8663    152.8400   8.2059529247e+01   1.9834547181e+01    0.2647519    0.2258292 -67.16 0.0005387826    1.323    0.244
        46 -10.2306    133.8089    145.4041   8.5567911217e+01   2.5810725734e+01     1.207025      0.30204 -54.15  0.002740739    5.896    0.830
        47  -9.7583    173.8305    150.1812   7.7105300416e+01   1.6469163560e+01    0.2205059    0.1827149  -6.87  0.001083651    1.351    0.260
        48 -13.3613    228.4419     67.0700   4.6999792614e+01   1.9746562299e+01    0.8788508     0.738614  53.60  0.004029198    1.356    0.263
        49  -9.3624    222.6314    145.1497   6.6173942334e+01   7.6026968675e+00    0.2023581    0.1958011  53.37 0.0003989601    1.216    0.178
        50 -10.9692    179.5064    143.2416   7.4257648619e+01   1.6708751372e+01    0.4181165    0.3184531 -44.75  0.002020661    1.302    0.232
        51  -9.0779    192.2753    144.1079   7.1764943126e+01   1.3859704338e+01    0.2420853     0.212556  43.80 0.0003937782    1.196    0.164
        52  -9.6024    195.9957    143.0396   7.0760552304e+01   1.3299145102e+01    0.2509947    0.2397971 -74.06 0.0004793547    1.194    0.162
        53 -10.1592    147.6545    144.0407   8.1798092547e+01   2.3273830737e+01    0.2769473    0.2252315  76.31  0.000875933    1.519    0.342
        54  -9.3733    158.9950    142.9988   7.8835441669e+01   2.1114612363e+01    0.2486102    0.1982564 -87.62  0.001133907    1.681    0.405
        55 -10.3679    210.6617    136.4715   6.6390071454e+01   1.1544321796e+01    0.3384101    0.2197445 -21.13  0.001519771    1.770    0.435
        56  -9.0228    166.9849    134.6478   7.4993216216e+01   2.1188038614e+01    0.2860301    0.2193595 -14.58  0.001058753    1.575    0.365
        57 -12.3035    233.0666     43.0852   4.0890275067e+01   2.2182407060e+01    0.4262862    0.2861643 -30.90 0.0005344939    1.570    0.363
        58 -10.7517    137.0990    129.6698   8.1015758898e+01   2.8738806356e+01    0.7065997     0.430142 -58.05  0.002844271    1.873    0.466
        59 -10.5111    160.5648    128.4092   7.4941019614e+01   2.3925174138e+01    0.4431326    0.2852623 -47.00  0.001637704    1.548    0.354
        60  -9.9845    171.6807    125.9226   7.1787373755e+01   2.1984304636e+01    0.3215531    0.2892766 -55.92  0.001642331    1.149    0.129
        61  -9.0582    142.5838    122.7728   7.7887117605e+01   2.9110609039e+01    0.2268169    0.1499593 -54.98 0.0007336515    1.624    0.384
        62  -9.1138    135.1447    119.6276   7.8986179407e+01   3.1426671387e+01    0.2796574    0.1820687 -40.98  0.001185838    1.534    0.348
        63  -8.4578     32.9994    219.0000   1.2029443336e+02   2.4405131423e+01    0.1807612   0.06064671  33.77 0.0008024334    2.942    0.660
        64  -8.8624    197.8168    214.8149   8.5040689586e+01  -5.5981244512e-02    0.1944436    0.1581968   8.01 0.0004688817    1.112    0.101
        65 -10.7289    167.3021    115.6961   7.0157584384e+01   2.5087822001e+01    0.5282422    0.3897959  32.41  0.002402198    1.514    0.339
        66 -10.3338    134.8373    111.7159   7.6978724359e+01   3.3254089767e+01     0.816183    0.3970481 -33.80  0.002828116    2.495    0.599
        67  -8.9930    134.5969    104.6724   7.5115484854e+01   3.4842205541e+01      0.41054    0.1525161 -41.40  0.001316635    2.700    0.630
        68 -10.1559    135.2172     99.0317   7.3366213521e+01   3.5904672526e+01    0.3891774    0.3057517 -73.97 0.0006909782    1.605    0.377
        69 -12.1499    123.5602    103.8328   7.7845563009e+01   3.7434225785e+01     1.247443     0.720714 -65.16  0.004418259    2.711    0.631
        70 -11.9244     66.6605    143.6131   1.0351691938e+02   3.7884243029e+01     1.578307     1.009833  32.73   0.00606673    1.709    0.415
        71  -9.3712    141.6457    106.1203   7.3703334946e+01   3.2952047025e+01    0.2737155     0.216304  58.41 0.0006699596    1.362    0.266
        72  -9.7632    149.0991    102.8843   7.0962524309e+01   3.1929907590e+01    0.3408695    0.2884769  31.51 0.0007050935    1.258    0.205
        73  -8.5594     83.5195    103.9012   8.9827604275e+01   4.5103463277e+01      0.21119    0.1403489 -51.98 0.0002768963    1.419    0.295
        74 -10.8469    196.9960     97.3530   5.9358006599e+01   2.1801341400e+01    0.3755306    0.3386177 -23.13 0.0009748574    1.154    0.134
        75 -12.2494     37.0612    156.2491   1.1345110136e+02   3.8315850470e+01     0.517584    0.4803874  49.96   0.00152917    1.229    0.187
        76 -10.4835    159.7651     98.1087   6.7132854728e+01   3.0407669358e+01    0.5740839    0.3481403  36.26  0.002322856    1.917    0.478
        77 -10.5472    167.5367     94.0566   6.4294223750e+01   2.9354740351e+01    0.8135574    0.4480075 -50.49  0.003202849    1.963    0.491
        78 -11.1766    176.0611     90.5215   6.1548356857e+01   2.7984697750e+01    0.7676356    0.4200006  41.45  0.003047626    2.069    0.517
        79 -10.1590    142.9235     93.5803   6.9843522268e+01   3.5265547641e+01    0.3363667    0.3075814 -68.10 0.0006142222    1.169    0.145
        80 -10.6123    223.1135    105.7245   5.6977927118e+01   1.4534200793e+01    0.3984235    0.3342403 -46.11  0.001816638    1.096    0.088
        81 -11.4797    158.1261     89.0355   6.4947089207e+01   3.2567669304e+01    0.3645175    0.2832099 -30.93 0.0005013961    1.333    0.250
        82 -10.1217    100.6689     84.4027   7.8829508387e+01   4.6341853981e+01    0.2623225    0.2519133 -30.31 0.0003190127    1.042    0.041
        83 -11.5300    139.6992     78.9234   6.6284919490e+01   3.8878901855e+01    0.5526403    0.4880427  52.93  0.001576851    1.135    0.119
        84 -10.9269    134.7671     60.5432   6.1692152103e+01   4.3294320382e+01    0.3816537    0.2556913 -27.38  0.001753322    1.609    0.379
        85 -10.0282    125.2321     58.5844   6.3407475381e+01   4.5869594727e+01    0.2857565    0.1736891 -45.22 0.0008773171    1.777    0.437
        86  -8.4814     72.5460     58.1424   7.9544123630e+01   5.6690241694e+01    0.2040963    0.1292105 -41.35  0.001001855    1.523    0.343
        87  -9.3152      6.3154     56.3290   1.0640526035e+02   6.4394497878e+01    0.1316566   0.06618594 -37.97 0.0007045169    1.677    0.404
        88 -10.5797    178.4823     51.3837   5.0157854357e+01   3.3909987064e+01    0.5917844    0.4324625  35.72  0.002629339    1.644    0.392
        89  -8.0352     71.2640     53.6643   7.8384355189e+01   5.7722854657e+01    0.1263115    0.1102739 -68.57  0.000450476    1.585    0.369
        90  -9.6168      2.4884     53.4984   1.0738598637e+02   6.5187221182e+01    0.1210177   0.09140888 -45.53 0.0008105741    1.006    0.006
        91  -9.4093      7.3273     52.3170   1.0491383410e+02   6.5175228007e+01    0.1307858   0.06682711 -35.80 0.0007045533    1.677    0.404
        92 -10.2292    229.3615    213.8499   7.8868477907e+01  -4.8478130453e+00    0.2172839    0.1765557   7.05 0.0002804176    1.039    0.037
        93  -8.4351    209.0213     45.0147   4.4085059240e+01   2.7391761094e+01    0.2083286    0.1911165 -64.60 0.0008667939    1.065    0.061
        94  -9.8302    103.4146     43.4878   6.3985954027e+01   5.3148186336e+01    0.4728574    0.1249519 -35.97  0.001509665    3.742    0.733
        95 -10.1678      5.1090     43.2740   1.0339662466e+02   6.7133022827e+01    0.2821927   0.09561218  17.79  0.001317813    3.283    0.695
        96  -9.4569    201.3026     30.9702   4.1480459024e+01   3.1063063760e+01     0.345954    0.2640028  -5.85  0.001571059    1.811    0.448
        97 -12.4336    204.0343     37.3949   4.2782403980e+01   2.9593908084e+01    0.4950659    0.2417889 -36.44  0.001460578    1.960    0.490
        98  -9.6894    199.1728     36.5809   4.3174860713e+01   3.0864525813e+01    0.3087081    0.1983709 -18.12  0.001376973    2.018    0.504
        99  -9.8957    110.6513     37.8697   5.9908054418e+01   5.2337826028e+01    0.2717332     0.134606 -19.89  0.001086247    2.534    0.605
       100 -10.8585    162.1581     31.0154   4.6885141868e+01   4.0709495902e+01    0.5011871    0.3641293 -33.79  0.001608767    1.459    0.314
       101 -10.9355    118.5854     32.6941   5.6022449215e+01   5.1184519146e+01    0.3932298    0.1867638 -42.66  0.001632111    2.432    0.589
       102 -10.4072    128.3041     25.9271   5.1444504067e+01   4.9677556689e+01    0.2612936     0.181355  53.07 0.0002773882    1.292    0.226
       103  -7.9485    247.3158    211.3185   7.5219517967e+01  -7.0843961685e+00    0.1287885   0.08004248  -0.57  0.000321151    1.654    0.395
       104 -10.5655    144.9792     28.4734   4.9041820648e+01   4.5298818289e+01    0.3072825    0.1967265 -27.72  0.001521627    1.700    0.412
       105  -9.8884    179.1116     23.7537   4.2323262695e+01   3.7333702984e+01     0.431719     0.342206  83.77  0.002477146    1.165    0.142
       106  -8.7661    171.3701     24.5230   4.3592222924e+01   3.9168053032e+01     0.234277    0.1672169 -25.12 0.0005943198    1.582    0.368
       107  -9.2574    158.9420     24.0041   4.5281422719e+01   4.2328408489e+01    0.2531448    0.2193816  25.20 0.0008965258    1.327    0.246
       108  -8.4302    201.9984     24.0100   3.9645557323e+01   3.1735262383e+01    0.1543624    0.1346378 -77.27 0.0003284192    1.014    0.014
       109  -9.2638    198.9446    210.0017   8.3959328834e+01   5.3867952405e-01    0.1973733    0.1720032   7.49 0.0003532323    1.025    0.025
       110  -9.2000    199.6399    205.3722   8.2978410779e+01   1.1856106976e+00    0.1760951    0.1598899  68.71 0.0004173275    1.548    0.354
       111  -9.4728     92.1999     19.4569   5.7756173588e+01   5.8647131425e+01    0.2795909    0.1873144 -24.41  0.000788316    1.571    0.363
       112 -10.5728    167.5021    200.8208   8.8801533917e+01   7.5763142477e+00    0.4389958    0.3049434  68.13    0.0011431    2.255    0.556
       113  -9.7300    194.9918    198.2453   8.2582922023e+01   3.1880801863e+00    0.3881164    0.2883356 -80.81  0.001444884    2.718    0.632
       114  -9.7533    191.4305    192.1294   8.2142110533e+01   4.8925076332e+00    0.5324833    0.3326901 -68.48  0.002019159    3.678    0.728
       115  -8.6114     51.3226    189.7562   1.1379839400e+02   2.8681195309e+01    0.1561565    0.1394478 -60.89 0.0005190974    1.298    0.229
       116 -10.1300    210.4118    186.9980   7.7338760284e+01   2.4499387877e+00    0.4982725    0.2636961  48.09  0.002226237    2.227    0.551
       117  -9.9486    220.1554    184.4449   7.4966373150e+01   1.2103812626e+00    0.3026725    0.2099428 -59.74  0.001460698    2.312    0.568
       118  -8.8524    188.8278    185.1628   8.1317345208e+01   6.6311510695e+00     0.195359    0.1862113  32.39 0.0003352475    1.157    0.136
       119 -12.8209      5.1880    171.4553   1.2267803429e+02   3.7604160713e+01    0.8636628    0.5160484 -80.99  0.004840813    1.338    0.253
       120 -10.6412    236.1129    174.8557   7.0118839870e+01   1.1745767852e-01    0.4908431    0.3145266  56.88  0.001935542    2.415    0.586
