#   1 NUMBER                 Running object number                                     
#   2 MAG_AUTO               Kron-like elliptical aperture magnitude                    [mag]
#   3 X_IMAGE                Object position along x                                    [pixel]
#   4 Y_IMAGE                Object position along y                                    [pixel]
#   5 X_WORLD                Barycenter position along world x axis                     [deg]
#   6 Y_WORLD                Barycenter position along world y axis                     [deg]
#   7 A_WORLD                Profile RMS along major axis (world units)                 [deg]
#   8 B_WORLD                Profile RMS along minor axis (world units)                 [deg]
#   9 THETA_WORLD            Position angle (CCW/world-x)                               [deg]
#  10 FWHM_WORLD             FWHM assuming a gaussian core                              [deg]
#  11 ELONGATION             A_IMAGE/B_IMAGE                                           
#  12 ELLIPTICITY            1 - B_IMAGE/A_IMAGE                                       
         1 -11.8349      7.3245     18.0831   1.0943498883e+02   7.1104036984e+01    0.2533799    0.1774905 -50.05 0.0003026629    1.063    0.059
         2 -11.8110    190.4097     20.2603   5.4947276799e+01   3.4803439125e+01    0.3639369    0.2689764  15.49 0.0003290935    1.591    0.371
         3 -10.5899     43.4442     16.4491   9.1245431396e+01   6.7955553751e+01    0.3611265    0.2829639  66.34  0.002127469    2.212    0.548
         4 -10.9907    131.6497     16.9855   6.3548938452e+01   5.0588183276e+01    0.5212498    0.1985027  37.06  0.001645748    3.564    0.719
         5 -11.0710    115.6591     15.6916   6.6588679989e+01   5.4617219590e+01    0.3935887    0.2434298  33.42   0.00182139    1.714    0.417
         6 -11.8337     80.1221     15.1298   7.6387084949e+01   6.2286720475e+01     0.343621    0.3162352 -13.87  0.001026924    1.117    0.105
         7 -11.8683     25.4792     13.0481   9.8112506293e+01   7.0590937058e+01    0.2931335    0.2658569   7.57  0.001212175    1.321    0.243
         8 -11.0031     74.7499      8.6863   7.4984127036e+01   6.4171055776e+01    0.2654013    0.2391172  31.13  0.001537555    1.212    0.175
         9 -10.1884     66.6335     12.1666   7.9646170256e+01   6.5145792195e+01    0.1922312    0.1088809 -22.30  0.000946939    1.705    0.414
        10 -10.3926    246.6106     10.7617   4.6392149904e+01   2.1569445359e+01    0.1910264    0.1065055 -36.38 0.0002745165    1.554    0.357
        11 -11.9285     45.1384      7.9242   8.6187118519e+01   6.9112169114e+01    0.4590141    0.3733272  75.59  0.002728262    2.310    0.567
        12 -11.2677     52.1298      5.8404   8.2038648876e+01   6.8402771499e+01    0.1769631    0.1470831 -23.72 0.0002980055    1.129    0.114
        13 -10.2081      7.7065     10.6205   1.0633952561e+02   7.2514654095e+01     0.154055    0.1283791  45.07 0.0008536321    1.725    0.420
        14  -9.6778      5.0000      7.9819   1.0672518282e+02   7.3187849248e+01    0.4985829    0.1345408 -42.03  0.002013569    2.836    0.647
        15 -12.6843    209.8369      5.8949   4.8268234171e+01   3.1183488950e+01     0.659225    0.3114389 -52.03  0.001054402    2.256    0.557
        16 -10.3892     14.0582      4.7977   1.0018382073e+02   7.3094889213e+01    0.1943081    0.1377434 -56.05 0.0005233321    1.514    0.340
        17 -10.8641     18.1718      7.5277   9.9273221022e+01   7.2258357452e+01    0.3696175    0.1978936  -0.17  0.001467163    2.788    0.641
        18 -10.9648    106.5272      8.3809   6.5550469709e+01   5.7584841864e+01    0.4124524    0.2146487  42.09  0.001841899    1.887    0.470
        19 -10.7171     87.0407      7.5068   7.0456483762e+01   6.1912198877e+01    0.3076416    0.1444484 -30.83   0.00109758    1.979    0.495
        20 -11.2504    185.3517      8.4295   5.1730734744e+01   3.7397432735e+01    0.3552012    0.1428746  72.71  0.001298536    2.551    0.608
        21 -12.5163    191.5474      5.3454   5.0006562347e+01   3.6043983081e+01     0.504613    0.2830185  49.60 0.0006495636    1.811    0.448
        22  -9.9047    128.2190      8.3928   6.0697409812e+01   5.2396663067e+01    0.1867144    0.1385939  74.51 0.0003325368    1.509    0.337
        23 -11.5052    176.8650      7.0930   5.2344394781e+01   3.9798317627e+01    0.2572843    0.2038794  51.99 0.0007533735    1.241    0.194
        24 -10.8443     39.6660      5.3315   8.7286699680e+01   7.0248083466e+01     0.318857    0.1694897 -48.84  0.001612508    2.262    0.558
        25 -10.6043     37.7784      2.6541   8.6691860398e+01   7.0900522550e+01    0.3271383    0.2046838   1.34  0.001111521    1.920    0.479
        26 -10.7817    224.8056      5.3261   4.6728945637e+01   2.7418370329e+01    0.2230215    0.1610551 -69.77 0.0005728639    1.408    0.290
        27 -10.7333    111.8401      4.8648   6.2671653813e+01   5.6729254984e+01    0.2164724    0.1696118  25.35 0.0003654766    1.229    0.186
        28 -11.6501    161.0530      3.0431   5.3042246540e+01   4.4404599596e+01    0.4082049    0.2968987  86.49  0.001523297    1.486    0.327
        29 -11.0640    217.9048      2.2879   4.6467783949e+01   2.9453146391e+01    0.2703949    0.2059205 -15.92   0.00145532    1.377    0.274
        30 -11.7591    180.7003      2.5406   5.0333462867e+01   3.9198408291e+01    0.4250965     0.254227  59.66  0.001973085    1.582    0.368
        31 -11.1966     73.9031      2.0420   7.1784851507e+01   6.5153615712e+01    0.2814354    0.2245501  31.01   0.00171143    1.224    0.183
        32 -11.5396     24.7679      6.9300   9.5496691038e+01   7.1729958064e+01    0.2295125    0.1484247 -42.65 0.0004676924    1.285    0.222
        33  -9.9454     81.2996      2.3216   6.9561806760e+01   6.3677717040e+01    0.1392435   0.09064332  16.22 0.0002582409    1.625    0.385
        34 -10.6054     50.3450      1.9815   8.0644326737e+01   6.9214383786e+01    0.2116553    0.1596542  17.06 0.0003214635    1.317    0.241
        35  -9.9480      9.5086      1.2934   1.0102274252e+02   7.4075708697e+01    0.1700169   0.08166597  39.81 0.0007725191    3.157    0.683
        36 -10.3101    197.1134    233.4930   1.0330028767e+02   2.4853274343e+00    0.1524138    0.1409478  33.06 0.0004601928    1.287    0.223
        37  -9.4647    207.6846    250.3095   1.0380036464e+02  -7.7646948074e-01    0.1457006    0.1046069  67.08 0.0009695271    2.463    0.594
        38 -11.2463    207.8541    246.3995   1.0328528026e+02  -4.2857586115e-01    0.3949175    0.1678064  45.48  0.002205838    1.919    0.479
        39 -10.8955    128.9267    249.0045   1.1593589189e+02   1.0776470363e+01    0.2418304    0.1909666  -8.14  0.001772252    2.307    0.567
        40 -12.7324    111.4802    244.5405   1.1830272351e+02   1.3792992742e+01    0.6208554    0.3830822  33.34  0.002056622    1.822    0.451
        41 -11.6471    121.3242    247.7832   1.1702485039e+02   1.1998941582e+01    0.2132268    0.1644677  39.99  0.001702207    1.296    0.228
        42 -11.9461    114.7890    249.8223   1.1822813610e+02   1.2635071282e+01    0.9096025    0.6129531   3.55  0.004311053    5.770    0.827
        43 -12.4173     38.7334    203.5506   1.2734270611e+02   2.9402361734e+01    0.5227663    0.4413016 -16.65  0.003425462    2.428    0.588
        44 -11.8614     46.8780    218.6733   1.2689693114e+02   2.5922623016e+01    0.3298982    0.1707518  87.87  0.001784062    1.831    0.454
        45 -11.8094     39.0041    211.9176   1.2780249431e+02   2.7927402822e+01    0.2612583    0.1696592  59.87 0.0003768114    1.150    0.130
        46 -12.3336     46.4999    229.9283   1.2761519505e+02   2.4149003824e+01    0.4523631    0.2193845  82.96  0.001139213    2.002    0.501
        47 -12.6808     39.1389    218.1642   1.2813909518e+02   2.6864291480e+01    0.2958518    0.2077186  48.33  0.002354015    1.368    0.269
        48 -12.3009     20.0250    216.7623   1.3115918084e+02   2.9073515261e+01     0.244312    0.1526804 -85.50 0.0004624789    1.440    0.305
        49 -13.2228     31.6176    231.1047   1.3000115327e+02   2.5575694108e+01    0.8907166    0.3899144  50.01  0.006202754    1.636    0.389
        50 -12.6340     38.9791    227.1957   1.2865637837e+02   2.5411874010e+01    0.6146107    0.2472738  86.98  0.002700281    2.652    0.623
        51 -12.7914     27.9082    219.1126   1.3000826631e+02   2.7893114051e+01    0.4601847    0.2933142  26.72  0.003197829    2.481    0.597
        52 -12.6178     31.0474    212.7965   1.2917503696e+02   2.8624639900e+01    0.5428826    0.2931833 -53.27  0.003390232    3.070    0.674
        53 -13.4620      8.6163    214.0347   1.3285760168e+02   3.0611667186e+01    0.5882415    0.3627403  79.30  0.002647404    1.194    0.162
        54 -14.0310     14.2055    247.3313   1.3322649484e+02   2.4851333045e+01    0.5553811    0.3723786  82.11   0.00509519    1.282    0.220
        55 -13.4558      4.1993    245.9259   1.3458994780e+02   2.5999740362e+01    0.7888372     0.343532 -85.41  0.005999181    2.042    0.510
        56 -12.3379     44.4013    237.0190   1.2832626010e+02   2.3281582972e+01    0.2858563    0.2189356 -83.14 0.0004257725    1.470    0.320
        57 -13.1029     13.3348    223.9555   1.3250830158e+02   2.8541243369e+01    0.4858811    0.2441736  52.29  0.001176516    1.450    0.310
        58 -12.8644     21.5671    237.9922   1.3181859040e+02   2.5532456148e+01    0.4108618     0.247352  61.22  0.002381037    1.112    0.100
        59 -13.5136     24.9150    247.5729   1.3170614435e+02   2.3758712712e+01    0.5259221    0.3935434 -83.48  0.004878913    1.549    0.354
        60 -14.3858     36.0979    243.4582   1.2989651359e+02   2.3208856737e+01    0.7461653    0.4666135  69.64  0.004620732    1.151    0.131
        61 -13.8025     10.8684    231.9398   1.3317783430e+02   2.7506215278e+01    0.5656563    0.3162149  45.72   0.00310208    1.551    0.355
        62 -13.3498      2.3099    228.5106   1.3433179503e+02   2.8832900109e+01    0.3252164    0.2338214  78.40  0.001717351    1.214    0.176
        63 -10.4126    178.7291    234.0539   1.0632882057e+02   5.2348775588e+00    0.1843683     0.124099  53.85 0.0004068246    1.478    0.323
        64 -10.3985    172.8898    233.8500   1.0725217061e+02   6.1534676854e+00    0.1669915    0.1241984  29.17  0.001200404    1.263    0.208
        65  -9.6507    183.2785    233.0145   1.0546186401e+02   4.6567116593e+00    0.1439063    0.1181197  33.72            0    1.095    0.087
        66 -10.5144    156.0158    232.7626   1.0988873534e+02   8.8668845173e+00    0.1612976    0.1177435  52.16            0    1.180    0.152
        67 -10.9085    152.3324    230.2314   1.1020787117e+02   9.7540017842e+00    0.3276744    0.2025505 -74.80  0.001652486    2.856    0.650
        68 -11.6056    143.9128    232.3551   1.1184372562e+02   1.0752388101e+01    0.3413248    0.1471823  43.17   0.00149995    1.779    0.438
        69 -11.7661     58.5895    230.7056   1.2573675593e+02   2.2635057598e+01     0.298518    0.1643516  78.63  0.002073688    1.694    0.410
        70 -10.7788     55.6882    228.6789   1.2607598218e+02   2.3293962898e+01    0.1393136     0.107008 -79.88 0.0005298707    1.463    0.317
        71 -10.6895     81.1597    231.7415   1.2215856528e+02   1.9686649625e+01    0.1582547    0.1097152  70.60 0.0003616298    1.215    0.177
        72 -10.3323     74.5252    231.4937   1.2321980305e+02   2.0569051989e+01     0.171002    0.1347802  70.82 0.0006144586    1.141    0.124
        73 -11.5382     73.9303    227.0476   1.2299462810e+02   2.1332800835e+01     0.305128    0.1392326  63.03  0.001021419    2.028    0.507
        74 -11.7521    242.5475    228.8283   9.5577292225e+01  -3.8328366547e+00    0.2531627    0.2360889 -74.94   0.00129766    2.064    0.515
        75 -11.2064    107.2725    227.9933   1.1752095576e+02   1.6725389915e+01    0.2883464    0.1651964  54.52  0.001124368    1.382    0.276
        76 -10.8014    111.4821    227.1817   1.1673729749e+02   1.6248237080e+01    0.1711715     0.133794  79.76 0.0005337808    1.303    0.233
        77 -11.2955     95.1289    228.3641   1.1958422265e+02   1.8350474605e+01    0.3288133    0.1861746  71.08  0.002092435    1.856    0.461
        78 -11.8668    173.8580    228.0273   1.0637154397e+02   6.7040896326e+00    0.2227129    0.1590257  44.01  0.000283991    1.107    0.096
        79  -9.7308     63.7534    229.3902   1.2482062483e+02   2.2223474110e+01    0.1215345     0.081207  43.63 0.0003082609    1.444    0.308
        80  -9.3035    126.2653    228.2765   1.1435755181e+02   1.3942917072e+01   0.09512801   0.07764108  28.52 -0.0001541599    1.478    0.323
        81 -10.7783    249.5121    227.0073   9.4260150738e+01  -4.6700677697e+00    0.1614575    0.1101067  28.70 0.0004304369    1.110    0.099
        82 -10.6358    234.6632    228.9855   9.6797360389e+01  -2.7002736512e+00    0.2485176    0.2121105  38.24  0.001828955    1.421    0.296
        83 -11.4622     78.9318    223.0132   1.2185580604e+02   2.1329148329e+01    0.3111673    0.1390655 -65.40  0.001878668    2.487    0.598
        84  -9.2442    206.1998    224.9749   1.0068470595e+02   2.0076413314e+00    0.1184464   0.08721203 -27.97            0    1.653    0.395
        85 -10.8587    177.6603    223.7717   1.0519342181e+02   6.6274967047e+00    0.2101618    0.1821633  66.87 0.0008834812    1.407    0.289
        86  -9.4452    164.6901    225.6675   1.0760059575e+02   8.4304226307e+00    0.1092988   0.07802355  20.05 0.0007042501    1.672    0.402
        87 -10.8815    122.2069    223.4953   1.1455130667e+02   1.5231453694e+01    0.2267268    0.2032176  81.63  0.001191448    1.244    0.196
        88 -11.1700    125.0019    216.6562   1.1333730498e+02   1.5828605261e+01    0.2289027    0.1707434  45.81 0.0008891093    1.140    0.123
        89 -10.0970     54.2282    222.3569   1.2591609693e+02   2.4475721348e+01    0.2306881    0.1790665 -30.13  0.001579009    2.925    0.658
        90  -9.7550     97.0134    222.8229   1.1878274925e+02   1.8940042573e+01    0.1614572    0.1162524  25.82  0.001068745    2.002    0.501
        91 -10.4834    158.5981    222.0314   1.0817675263e+02   9.8594849460e+00    0.2143532    0.1241567  52.36 0.0008299187    1.541    0.351
        92  -9.8254     84.9676    221.2709   1.2069554465e+02   2.0814432665e+01    0.1520213    0.1030017  53.19 0.0005481195    1.148    0.129
        93 -10.3222    249.8026    220.3073   9.3190639617e+01  -4.1138516684e+00    0.1886795    0.1159947  47.58  0.001018697    1.856    0.461
        94  -9.4389    188.5306    219.9846   1.0287505907e+02   5.3596340718e+00    0.1370697    0.1132964 -30.28 0.0003122682    1.497    0.332
        95  -9.8043     62.9117    219.9568   1.2431519851e+02   2.3831884976e+01    0.1632026    0.0872355  64.53 0.0004994182    1.557    0.358
        96 -10.7428    134.6450    218.9569   1.1191867278e+02   1.4018314563e+01    0.2457144    0.1305124  39.35   0.00143104    1.644    0.392
        97 -10.8413    106.7048    217.6807   1.1663278893e+02   1.8373109273e+01    0.2679538    0.1634948 -46.82  0.001250701    2.360    0.576
        98 -10.9052    217.2050    217.3278   9.7804039416e+01   1.1139866188e+00    0.2354452    0.1574252  43.98  0.001560865    1.369    0.270
        99 -11.3655    172.9910    216.0901   1.0495807629e+02   8.3425956519e+00    0.2973625    0.2245336  87.57  0.001876634    2.110    0.526
       100 -11.2641    100.4700    216.3379   1.1758689491e+02   1.9472806837e+01    0.3388647    0.2110074  85.87  0.002151787    1.872    0.466
       101 -10.3222     80.5694    210.4777   1.2053832751e+02   2.3156402200e+01    0.1716251    0.1282165  64.76 0.0001999368    1.031    0.030
       102 -10.8549     85.0463    211.0101   1.1979647455e+02   2.2469207433e+01    0.3240405    0.1418234  63.66  0.001640585    2.553    0.608
       103 -11.2675     87.5689    215.7672   1.1977771558e+02   2.1348334711e+01    0.3300809    0.1921746  75.63  0.002070217    1.813    0.448
       104 -11.4134     83.2356    215.4004   1.2049711069e+02   2.1989059651e+01    0.2686092    0.1958916  55.20 0.0006125789    1.106    0.096
       105 -11.6197     72.8445    216.5497   1.2238079829e+02   2.3153563373e+01     0.197488    0.1638726  62.33  0.001577487    1.195    0.163
       106 -10.3800     76.5203    216.4883   1.2174581043e+02   2.2692013691e+01    0.1775187    0.1219689  73.48 0.0005709524    1.249    0.199
       107 -10.4496    142.6068    217.2013   1.1033392255e+02   1.3037034935e+01    0.2495908    0.1223556  44.97  0.001275401    1.615    0.381
       108 -11.2149    146.3294    215.1612   1.0943913878e+02   1.2742883188e+01    0.4746694    0.2745314  75.24  0.001821145    3.340    0.701
       109 -10.6700    197.3968    215.7492   1.0080311135e+02   4.4410856905e+00    0.1464165    0.1044736 -14.27 0.0009466207    1.721    0.419
       110 -10.1924    194.1951    216.3923   1.0142751017e+02   4.8803123561e+00     0.158359   0.09043816  47.96 0.0002835507    1.570    0.363
       111 -10.5624    156.1168    214.5857   1.0766390946e+02   1.1264100775e+01    0.2557895    0.1761182 -83.47  0.001427706    2.374    0.579
       112  -9.9077     59.9845    214.9833   1.2445796067e+02   2.5006386000e+01    0.1315663    0.1248919  42.82   0.00109924    1.596    0.373
       113 -10.2745     58.1902    211.4288   1.2451166493e+02   2.5819623956e+01    0.2677403    0.1372236  48.31  0.001741098    1.554    0.357
       114 -11.0092    118.0711    212.7537   1.1412791936e+02   1.7470497063e+01     0.319044    0.1916307  31.88  0.001864842    1.956    0.489
       115 -11.3315    111.8161    213.4570   1.1530834396e+02   1.8290448714e+01    0.2359929    0.2005896  48.89  0.001161336    1.193    0.162
       116  -9.4822    164.4095    213.4329   1.0607559016e+02   1.0084408714e+01    0.1156837    0.0931731  45.08 3.330753e-05    1.036    0.035
       117 -10.3818    219.7173    212.1444   9.6609909857e+01   1.2767123293e+00    0.2932148    0.1443412  46.60  0.001090715    1.875    0.467
       118  -9.9235     75.0921    212.5101   1.2166900765e+02   2.3533604378e+01    0.1684337   0.08517992  46.04  0.001035544    1.609    0.378
       119 -10.1934     25.1691    211.9263   1.3009754004e+02   2.9374182425e+01    0.1567658   0.09123218  66.79 0.0004490167    1.246    0.197
       120 -10.1293     70.7872    209.9983   1.2221617550e+02   2.4507096234e+01     0.195971    0.1239546 -70.56  0.001310007    1.680    0.405
       121 -12.3070     66.9626    207.4801   1.2268612679e+02   2.5418547361e+01    0.2060201    0.1446396  63.76 0.0003033088    1.089    0.081
       122  -9.8817     13.7592    211.0275   1.3191306545e+02   3.0639199739e+01    0.1319036    0.1017784  84.12 0.0004926074    1.267    0.211
       123 -12.3316     13.4556    196.8459   1.3132317215e+02   3.3132532165e+01    0.2903344    0.1638103  86.31  0.000115316    1.392    0.282
       124 -10.7941     16.7955    191.0414   1.3045560387e+02   3.3866906707e+01     0.176859    0.1197767  54.19 0.0003640635    1.296    0.229
       125 -10.4945     19.1940    210.8156   1.3102161930e+02   3.0154504816e+01    0.2341534    0.1942068 -11.32  0.001790416    2.689    0.628
       126 -12.0040     14.9369    205.8347   1.3149166587e+02   3.1416472193e+01    0.4089462     0.128767  63.16  0.001479906    2.655    0.623
       127 -12.2957     19.2128    201.6395   1.3057787173e+02   3.1739168881e+01    0.2877147    0.2020505 -76.77 0.0008494507    1.491    0.329
       128 -10.4860    214.1898    210.1733   9.7201518766e+01   2.3776354629e+00    0.1752214    0.1279089  23.15 0.0004145757    1.177    0.150
       129 -10.2334    183.6889    209.9962   1.0227882746e+02   7.3820899038e+00    0.1490564    0.1316109  32.45 0.0002251181    1.107    0.097
       130 -10.7226    180.5191    206.9937   1.0238827150e+02   8.2968942739e+00    0.2018499    0.1400838  50.21 0.0003375728    1.337    0.252
       131 -11.6380    183.5180    203.6846   1.0137978602e+02   8.2317611953e+00    0.2337135    0.2077531   5.11 0.0003663698    1.228    0.186
       132 -11.9402    128.9199    208.5317   1.1171541058e+02   1.6466294686e+01    0.3407819    0.2539375  59.34  0.002318564    1.178    0.151
       133 -10.2434    238.0208    208.1665   9.3070780101e+01  -1.1780028434e+00    0.1845423    0.1228281  21.17  0.001005861    1.262    0.208
       134 -10.2334    188.0990    207.4620   1.0115352042e+02   6.9764999825e+00    0.1602325    0.1484051  18.12 0.0005197608    1.176    0.150
       135 -11.2857     52.6652    206.9338   1.2514876207e+02   2.7243017352e+01    0.2325352     0.158731  68.39  0.000583506    1.109    0.098
       136 -11.1502     53.0522    200.0677   1.2458544528e+02   2.8402050720e+01    0.3725586    0.2098191  86.74  0.002252304    1.660    0.398
       137  -9.7760    117.0835    207.4593   1.1371841897e+02   1.8454546833e+01    0.1752809   0.09361824  45.62 0.0004512563    1.531    0.347
       138 -10.8116      3.7938    205.9703   1.3331762128e+02   3.2410943376e+01     0.237079    0.1068066  51.35    0.0013596    1.655    0.396
       139 -10.7244    152.0173    206.8200   1.0737118338e+02   1.3032808623e+01     0.198602    0.1145632  60.43  0.001071403    1.982    0.496
       140  -9.2644    230.6503    204.2891   9.3604302155e+01   3.8554352463e-01    0.1032075   0.08838511  57.61 0.0007025492    1.665    0.399
       141 -11.1074    195.4278    203.6138   9.9319238550e+01   6.2419331938e+00    0.1978643    0.1782914  51.73  0.001416841    1.287    0.223
       142 -10.7838    121.6470    203.2126   1.1240049956e+02   1.8437177321e+01    0.2557625    0.1912924  57.93 0.0005969062    1.128    0.113
       143 -10.7524    121.4059    199.1305   1.1195460508e+02   1.9139353511e+01    0.2102234    0.1459641  47.33   0.00036236    1.213    0.175
       144  -9.8497     45.9873    204.2760   1.2612938400e+02   2.8472516380e+01    0.1454419    0.1083281  66.97 0.0004539247    1.056    0.053
       145 -10.7372    160.6604    202.3173   1.0521236186e+02   1.2259508721e+01     0.218479    0.1570241  42.31 0.0006593628    1.153    0.133
       146 -11.5933     96.5819    208.0212   1.1746408501e+02   2.1370417707e+01    0.3038174    0.2784833  73.93   0.00188693    1.252    0.201
       147 -10.2382     71.7770    202.5938   1.2142402705e+02   2.5652263585e+01     0.167688    0.1251889  82.63 0.0002695253    1.184    0.155
       148 -11.7085     31.1477    202.8098   1.2860625748e+02   3.0337577032e+01    0.5565323   0.08140815  51.00  0.002312362    4.193    0.762
       149 -11.2063     25.3080    194.6731   1.2915634781e+02   3.2383271652e+01    0.3754701    0.1521051 -80.61  0.002223101    2.189    0.543
       150 -11.1333     22.0402    191.9354   1.2957872884e+02   3.3202219462e+01    0.2056503    0.1315016 -85.77  0.000388678    1.332    0.249
       151 -11.9114    240.3193    200.6885   9.1475555275e+01  -7.6680729000e-01    0.3287537    0.1893079  49.95  0.001804064    1.992    0.498
       152 -12.0860    239.0081    197.4925   9.1140895394e+01  -2.2174478276e-01     0.490584    0.3139845  66.50  0.002284364    3.921    0.745
       153 -10.5703    190.9344    200.9946   9.9685599508e+01   7.3330728990e+00    0.1774879    0.1481962  34.86 0.0003201648    1.035    0.034
       154 -11.1688     95.9807    200.2496   1.1678416815e+02   2.2765653424e+01    0.2023085    0.1545788 -76.63 0.0004785926    1.381    0.276
       155 -11.2000    208.0641    199.2273   9.6483256781e+01   4.6649251348e+00    0.2254087    0.1774207 -32.74  0.001515243    1.506    0.336
       156 -10.2179    170.0188    198.5342   1.0299009827e+02   1.1224118713e+01    0.2815981    0.1924658 -66.36  0.001606758    2.218    0.549
       157 -10.6391     90.3629    199.9758   1.1779125065e+02   2.3608765552e+01    0.2886281    0.1377011  42.21   0.00102514    1.845    0.458
       158 -11.3340      4.6366    199.9742   1.3294407621e+02   3.3375675241e+01    0.2135738    0.1083804  43.45 0.0004761457    1.767    0.434
       159 -10.3022    146.0977    199.1304   1.0740585612e+02   1.5158726201e+01    0.1693984    0.1425506  33.88 0.0002692324    1.210    0.174
       160 -12.6762    217.9996    194.6301   9.4060853202e+01   3.5479804012e+00      0.44606    0.2871301  58.51  0.002463565    2.164    0.538
       161 -12.6366    229.3410    195.2855   9.2311082618e+01   1.5865937880e+00     0.361683    0.2219118  21.50 0.0008253115    1.563    0.360
       162 -11.2123    227.3190    189.6868   9.1673957281e+01   2.5632741758e+00    0.2407973    0.1954959 -32.07 0.0007147636    1.484    0.326
       163  -9.8346    161.8876    197.9037   1.0436002199e+02   1.2697085902e+01    0.1558167    0.1278327  61.31  0.000352035    1.262    0.207
       164 -10.2488    137.1888    197.3584   1.0880638872e+02   1.6901203196e+01    0.2555317    0.1446896  64.29 0.0008402794    2.189    0.543
       165 -10.3563    139.9768    194.6869   1.0792901186e+02   1.6869024828e+01    0.1798995    0.1688584 -88.73 0.0007406539    1.194    0.162
       166  -9.8541    132.5179    198.4776   1.0981659662e+02   1.7480362833e+01    0.1195326    0.1002862  49.91 -3.096729e-05    1.058    0.055
       167 -11.6166    109.2878    197.0505   1.1396206095e+02   2.1352261662e+01    0.3557451    0.2230956 -75.97  0.001649113    1.868    0.465
       168 -10.3953    105.4981    195.4995   1.1449362700e+02   2.2188217593e+01     0.373637    0.1116201  36.44  0.001366623    4.144    0.759
       169 -11.5326     57.0442    195.1917   1.2348787015e+02   2.8802915344e+01    0.3055744    0.1557536  71.26 0.0003561321    1.898    0.473
       170 -12.0264     52.5505    192.7977   1.2412393087e+02   2.9772008034e+01    0.2671168    0.1733304  56.23 0.0002673428    1.254    0.202
       171 -11.6520    189.0096    196.3094   9.9286335300e+01   8.2784845740e+00    0.2711043    0.1802454  44.36 0.0003433603    1.294    0.227
       172 -10.8668     62.7486    196.1155   1.2251758476e+02   2.7940484992e+01    0.1795324     0.131566  68.72 0.0003473166    1.057    0.054
       173  -9.8760     82.4405    196.0688   1.1887084123e+02   2.5388364551e+01    0.1515923    0.1025171 -75.28 0.0004397048    1.508    0.337
       174  -9.8655    130.2968    195.3168   1.0981928883e+02   1.8351046324e+01    0.1100158   0.09256083  13.18 0.0002842162    1.609    0.378
       175  -9.9541     95.1200    195.1405   1.1640351804e+02   2.3775377945e+01    0.1616298    0.1402771  50.73 0.0005156912    1.234    0.190
       176 -10.2511     71.0727    194.3511   1.2082544973e+02   2.7205285273e+01    0.1593195    0.1200364  59.56 0.0005306322    1.102    0.093
       177 -11.1349    241.5139    193.0566   8.9980587046e+01  -1.4897397970e-01    0.1647132    0.1075992 -22.26 0.0007830187    1.584    0.369
       178 -10.5452    163.7505    192.6492   1.0324229749e+02   1.3158092108e+01    0.2842008    0.1931502  17.18 0.0007621971    2.005    0.501
       179  -9.7844    148.2284    192.5524   1.0609377485e+02   1.5826942271e+01     0.178125    0.1032472  35.32 0.0009469899    1.715    0.417
       180 -12.7229     66.6359    190.9111   1.2134475924e+02   2.8399139323e+01    0.2614413     0.237826  78.43 0.0006701595    1.293    0.226
       181 -10.7201     34.6280    191.4343   1.2729709813e+02   3.2017775622e+01    0.2415014    0.1302721  58.63  0.001443929    1.470    0.320
       182 -10.8032    188.3880    190.7501   9.8502035910e+01   9.1396568692e+00    0.2020879    0.1560317 -19.43 0.0009823281    1.508    0.337
       183 -11.2494    120.9360    189.7124   1.1085981059e+02   2.0794475956e+01    0.3629737    0.2858022   1.26  0.002154273    2.130    0.531
       184 -11.2892     81.0792    189.6721   1.1848967244e+02   2.6724709021e+01    0.3973593    0.1879156  46.63   0.00183221    1.791    0.442
       185 -10.3038     58.0067    190.4335   1.2292113313e+02   2.9556061094e+01    0.2233064     0.128763  83.17  0.001386848    1.648    0.393
       186  -9.8528     40.2824    191.5723   1.2628023966e+02   3.1385752297e+01    0.1274665   0.09615046  39.46  0.000937499    1.567    0.362
       187 -11.1472    248.1229    190.1770   8.8439334056e+01  -9.0161879996e-01    0.1860308    0.1301738  16.93 0.0004047564    1.207    0.171
       188 -11.3719    192.0309    190.5188   9.7820560040e+01   8.5339146892e+00    0.1980967    0.1339599  29.55 0.0003727264    1.380    0.275
       189 -10.8042    104.9602    189.2801   1.1386937486e+02   2.3355700929e+01    0.2112136    0.1488698 -75.34  0.001331464    1.521    0.343
       190 -12.1953     91.8674    188.8309   1.1633441446e+02   2.5366998245e+01    0.2757084    0.2013067 -84.04 0.0007441457    1.369    0.270
       191 -10.5669     60.8862    187.6578   1.2214159403e+02   2.9718694749e+01    0.1602102    0.1156874  63.91  0.001120477    1.109    0.098
       192 -10.2960      3.6702    187.9685   1.3260346434e+02   3.5604054487e+01    0.1396739    0.1093922  70.65   0.00029152    1.207    0.172
       193 -10.1282    205.8983    187.2015   9.4844013057e+01   6.5461560147e+00    0.2239732    0.1584017  52.16 0.0009874705    1.520    0.342
       194 -11.6959      9.0299    186.1084   1.3157805097e+02   3.5478850012e+01    0.2958724    0.1675977 -79.00  0.001153713    1.540    0.351
       195 -11.6630     15.6916    183.1702   1.3023302300e+02   3.5422482744e+01     0.273424    0.2292633 -54.58  0.001763902    1.791    0.442
       196 -12.1910    230.2693    181.2499   8.9684033942e+01   3.0563033722e+00    0.4523759    0.2903401 -48.28  0.002463798    2.368    0.578
       197  -9.7032    220.9530    186.4450   9.2157466679e+01   4.0299624112e+00     0.179623    0.1044461  42.05 0.0004458822    1.512    0.339
       198 -10.1809    128.2582    186.0013   1.0895712075e+02   2.0242734581e+01    0.1667541    0.1467995  69.41 0.0004493209    1.083    0.077
       199 -10.4326    226.0031    183.8337   9.0853976033e+01   3.4788329344e+00     0.225318    0.1401947  34.96  0.001305833    1.376    0.273
       200 -10.6526    177.5199    183.5176   9.9270236597e+01   1.2095787389e+01    0.2359332    0.1972759  54.56 0.0006102214    1.221    0.181
       201 -10.8865    173.2414    182.7563   9.9932050182e+01   1.2975752782e+01    0.2879747    0.1771036  41.93  0.000638343    1.408    0.290
       202 -12.3521     59.5319    181.6533   1.2186588778e+02   3.1015358406e+01    0.4191859    0.2778705  55.38  0.001457954    1.279    0.218
       203  -9.7157    190.4336    182.7831   9.6804371827e+01   9.8859024427e+00    0.1613239    0.1176448 -16.56 0.0004405494    1.633    0.387
       204 -11.0382    103.4386    183.2803   1.1343661907e+02   2.4663278960e+01    0.2208029    0.1200847  58.64 0.0008964318    1.785    0.440
       205 -11.0886     46.7524    182.3310   1.2438476656e+02   3.2393376296e+01      0.27266    0.1952328  15.78  0.001455963    2.505    0.601
       206 -11.9926     29.2710    180.5117   1.2756388785e+02   3.4612985977e+01    0.3885718    0.2137272 -87.40  0.001580187    1.534    0.348
       207 -10.8721     31.9005    176.3658   1.2677852280e+02   3.5140288747e+01    0.2047656    0.1399765  78.61 0.0006295268    1.128    0.114
       208 -10.5113      4.2715    182.3490   1.3224547502e+02   3.6585763155e+01    0.2100959   0.09909901 -87.62  0.001090008    1.681    0.405
       209  -9.9214     48.7788    186.6780   1.2434577944e+02   3.1342188539e+01    0.1558062   0.07673404  49.74 0.0008267943    1.693    0.409
       210 -10.9655     87.6241    182.2004   1.1642079967e+02   2.7191234815e+01    0.6433918    0.1736511  51.55   0.00239696    3.798    0.737
       211 -11.6350     73.0054    177.4568   1.1880255057e+02   3.0100213117e+01    0.4399788    0.2134656  35.59  0.001901609    2.270    0.560
       212 -10.2013     80.4143    178.4839   1.1743527228e+02   2.8901644210e+01    0.2350088    0.1703693  68.78 0.0007052051    1.192    0.161
       213 -12.5251     81.0505    174.9406   1.1691052851e+02   2.9492699749e+01    0.7826255    0.3192405  48.24  0.003501215    2.151    0.535
       214 -10.6947    147.1087    177.6019   1.0406042078e+02   1.8455477988e+01     0.250567    0.1467327 -50.74  0.001057792    1.943    0.485
       215 -10.6710    104.0595    178.2541   1.1267957910e+02   2.5490810536e+01    0.1935883     0.161291  88.45 0.0005862466    1.159    0.137
       216  -9.4396    209.2413    178.9770   9.2816787989e+01   7.0307383654e+00    0.1452086    0.1043089 -29.18 0.0003417618    1.517    0.341
       217 -12.0933     47.7382    177.0941   1.2376478347e+02   3.3286015662e+01    0.2507148    0.1760964  44.71 0.0003516456    1.446    0.309
       218 -10.1254     12.8392    178.3243   1.3049043147e+02   3.6593558303e+01    0.1181422   0.09257796  33.04 0.0003807866    1.721    0.419
       219 -10.7747    109.1427    176.6961   1.1145553042e+02   2.4986815392e+01     0.208877    0.1661104 -59.64 0.0006421849    1.392    0.282
       220 -10.2707      6.4177    175.7676   1.3153942703e+02   3.7638397973e+01    0.2415057   0.07234706 -75.22  0.001265048    2.690    0.628
       221 -10.9312    136.3826    175.8340   1.0589067059e+02   2.0630579703e+01     0.301063    0.2145842 -20.82  0.001388646    2.293    0.564
       222 -11.0908    135.1033    171.8373   1.0552649634e+02   2.1556627614e+01    0.2557262    0.1683237  54.29  0.000712187    1.413    0.292
       223 -10.5663     22.4670    174.2838   1.2844392734e+02   3.6476247819e+01    0.3021317    0.1040592 -79.92  0.001285288    2.547    0.607
       224 -10.5364    191.3523    173.9540   9.5085148822e+01   1.0983159670e+01    0.3790423     0.141875  42.16   0.00145238    2.377    0.579
       225 -11.0944    157.6980    173.5907   1.0135178372e+02   1.7230327252e+01    0.4912445    0.1703731  40.00   0.00189943    2.810    0.644
       226 -10.0341     98.3457    173.3060   1.1319560981e+02   2.7293435441e+01    0.2541577    0.1390548 -59.69 0.0009505015    1.913    0.477
       227 -10.1150    100.5557    170.4545   1.1236723738e+02   2.7500519835e+01    0.2259662     0.157473  48.32 0.0005766863    1.308    0.235
       228  -9.8458     60.1850    173.9911   1.2101763295e+02   3.2413739596e+01    0.1557562    0.1226733  81.74   0.00109185    1.052    0.050
       229 -10.3618     36.1809    172.8052   1.2568336197e+02   3.5388321746e+01    0.2027887    0.1411117 -41.45  0.001278463    2.438    0.590
       230  -9.2186      2.6641    173.7176   1.3212991197e+02   3.8341042518e+01   0.08857229   0.07046521 -65.06 0.0003195748    1.620    0.383
       231 -10.4298    174.8017    172.1381   9.7828104854e+01   1.4322519683e+01    0.1792545    0.1436973  21.32 0.0004403505    1.312    0.238
       232 -10.8570     62.3465    170.0324   1.2018541136e+02   3.2924486832e+01     0.320449    0.1517064  60.99  0.001238601    2.104    0.525
       233 -10.1747     68.5042    171.4986   1.1908080587e+02   3.1849840959e+01    0.3307777   0.09797844  46.00  0.001439376    2.864    0.651
       234 -10.0528     65.7933    167.9884   1.1926297103e+02   3.2894407763e+01    0.2840755    0.1765672 -88.81  0.000842258    1.549    0.355
       235 -10.4800     31.9258    169.9209   1.2630186440e+02   3.6395526312e+01    0.2323964    0.1276306 -72.24  0.001474123    1.637    0.389
       236 -11.1196     48.6591    167.2438   1.2271277060e+02   3.5119849025e+01    0.3609035    0.1990527 -55.03  0.001780888    2.157    0.536
       237  -9.3187     25.2955    170.3089   1.2763250915e+02   3.6978035581e+01    0.0958468   0.07572187 -61.84 0.0003533899    1.590    0.371
       238  -9.4449     19.3033    170.6708   1.2881983465e+02   3.7475544789e+01    0.1154578   0.05860051  68.58 0.0004522723    1.650    0.394
       239 -11.4739    114.7426    168.4404   1.0915650754e+02   2.5627379827e+01    0.2767711    0.1973402  45.42 0.0009180339    1.305    0.234
       240  -9.8791     14.2793    169.6063   1.2972159102e+02   3.8139539074e+01    0.1218216   0.09929436  34.05 0.0009505069    1.651    0.394
       241 -10.8600      2.6077    169.0410   1.3191077628e+02   3.9240782176e+01    0.2277436     0.129526  35.91 0.0008248264    1.959    0.489
       242 -11.9371     81.0399    166.3738   1.1590315298e+02   3.1171349237e+01    0.3108639    0.2010826  42.32  0.001040344    1.532    0.347
       243 -10.9590     73.5552    166.0181   1.1742856024e+02   3.2269797641e+01    0.2736118    0.1603642 -56.92 0.0008350822    1.844    0.458
       244  -9.5695    105.0666    165.8138   1.1078898245e+02   2.7689987388e+01    0.1490839    0.1403141  36.68 0.0009891799    1.287    0.223
       245  -9.3382     16.5090    166.5162   1.2909884867e+02   3.8545159394e+01    0.1096667   0.07871918  78.29 -3.232943e-05    1.020    0.019
       246 -10.2130    203.0420    164.2648   9.1161796820e+01   1.0198975116e+01    0.2518603    0.1619744 -32.90 0.0008885819    1.668    0.400
       247  -9.3674     37.3275    165.7323   1.2488890013e+02   3.6668294780e+01    0.1168932   0.06526172  66.46 0.0002516064    1.575    0.365
       248 -11.5875     24.3341    164.0885   1.2738414817e+02   3.8301557017e+01    0.2240002    0.1447648  51.86 0.0007219111    1.417    0.294
       249  -9.4586    147.3548    164.2988   1.0181934274e+02   2.0705168368e+01    0.1309817    0.1018967  13.89 0.0007036169    1.699    0.412
       250  -9.9979    199.8857    171.4751   9.3092082929e+01   9.7612033475e+00    0.1849591    0.1138549  42.05 0.0003004968    1.444    0.307
       251 -11.7431    141.0181    161.1604   1.0256878670e+02   2.2424283517e+01    0.2574744    0.2107439  43.81 0.0003468143    1.148    0.129
       252 -11.2334    140.0167    157.0144   1.0205180251e+02   2.3366833253e+01    0.2962705     0.215273  89.35   0.00153732    1.827    0.453
       253 -11.9903     34.5894    158.0638   1.2480627616e+02   3.8505690904e+01    0.4055144    0.1706174  57.08 0.0001236375    2.224    0.550
       254  -9.8832     18.7058    160.6279   1.2827311681e+02   3.9517620145e+01     0.138915   0.08226635  52.11 0.0009285568    1.514    0.339
       255  -9.9353    224.0105    159.0362   8.6471275184e+01   6.9791196036e+00    0.1754574    0.1618282 -76.99 0.0003578862    1.560    0.359
       256  -9.4416    148.9584    159.0578   1.0057219126e+02   2.1340039036e+01    0.1545109    0.1421435  54.19 0.0002982134    1.012    0.012
       257 -11.8731    107.3673    158.1039   1.0916257029e+02   2.8829161510e+01    0.2346178     0.209311  72.59 0.0001754741    1.021    0.021
       258 -10.2329    114.1891    158.3620   1.0773869426e+02   2.7653179450e+01    0.1817073    0.1459149  57.05  0.000789631    1.135    0.119
       259  -9.6044     66.3177    158.3199   1.1807194615e+02   3.4783911419e+01    0.1096795   0.09251495 -41.59 0.0007041666    1.661    0.398
       260  -9.4319     11.5100    158.3887   1.2957603551e+02   4.0597723093e+01     0.104253   0.08117507  86.92 8.225162e-05    1.127    0.112
       261 -10.7167    163.5092    156.2245   9.7108786325e+01   1.9074379695e+01    0.3857117    0.2389035  19.35  0.001678116    2.540    0.606
       262  -9.2991    124.5240    156.4699   1.0522330835e+02   2.6250208985e+01    0.1329914    0.1178868  68.49 0.0008090919    1.040    0.039
       263 -10.0774      3.5229    154.3044   1.3093943679e+02   4.2067721182e+01    0.2422128    0.1102811 -55.58  0.001374303    2.716    0.632
       264  -9.8282    113.7758    154.5947   1.0722479389e+02   2.8462513509e+01    0.1830178     0.111961  53.79 0.0003918323    1.564    0.361
       265  -9.6895     71.1744    154.5788   1.1656259786e+02   3.4918790254e+01    0.1438893    0.1167627  32.64 0.0002869035    1.533    0.348
       266 -10.9906    249.1042    151.1110   8.0764798280e+01   3.3923718728e+00     0.201737     0.170576 -16.01 0.0002870837    1.184    0.156
       267 -10.7407     46.3976    158.9197   1.2239676817e+02   3.7062698013e+01     0.204389     0.149447  55.48 0.0004120664    1.273    0.214
       268 -10.9482    225.3848    149.5457   8.4287431142e+01   7.9990298016e+00    0.3548958    0.1974948  12.04  0.001438048    2.770    0.639
       269 -11.9464     52.4557    158.1317   1.2102896608e+02   3.6529499115e+01    0.2605326    0.1766579 -67.53 0.0004508005    1.423    0.297
       270  -9.4283     65.5014    151.6019   1.1744690966e+02   3.6283098004e+01    0.1226796    0.1000794  78.19 6.933055e-05    1.035    0.034
       271 -10.7230     79.4516    149.7192   1.1408272110e+02   3.4794143782e+01    0.3136202    0.1695193  60.24  0.001570853    1.948    0.487
       272  -9.5779     51.5485    149.4645   1.2029941581e+02   3.8441343833e+01    0.1201635   0.09656933  84.33 8.889307e-05    1.003    0.003
       273 -10.0112    174.2103    147.8477   9.3330267257e+01   1.8402224294e+01     0.189703     0.156888  13.00 0.0003975626    1.345    0.256
       274  -9.9883      4.3470    144.6476   1.3018110741e+02   4.3966923179e+01    0.2330792    0.0956755 -72.98  0.001335381    1.931    0.482
       275 -10.1154     84.8887    143.8273   1.1199317946e+02   3.5249692772e+01    0.1736972    0.1589419 -88.32 0.0002312161    1.111    0.100
       276 -10.1699    242.0726    142.3455   8.0016627463e+01   5.7849749258e+00    0.1783006    0.1553999  23.28 0.0004030687    1.119    0.106
       277 -11.5763    132.2315    140.5776   1.0067885010e+02   2.7951250628e+01    0.2351824    0.2232364 -89.74 0.0003294804    1.045    0.043
       278 -10.3876    109.0931    140.3938   1.0585950853e+02   3.2128916684e+01    0.2155025    0.1771932 -50.64 0.0005330822    1.308    0.235
       279 -10.7242     65.6441    139.1091   1.1579180931e+02   3.8925134120e+01    0.2637737     0.188354  27.05  0.001026324    1.847    0.458
       280  -9.7277    242.1366    138.1314   7.9091881748e+01   6.3203173917e+00    0.1637009    0.1525354 -25.45 0.0003217358    1.259    0.206
       281 -10.6303     49.3551    137.1025   1.1936788048e+02   4.1339881909e+01    0.3687154    0.1461453 -48.02   0.00151747    3.599    0.722
       282 -10.8138     34.2363    137.6896   1.2296500899e+02   4.2823004352e+01    0.2391205    0.1933481  51.62  0.001694524    1.330    0.248
       283  -9.7228     19.1272    137.8629   1.2643776824e+02   4.4188055815e+01    0.1409056    0.1118025 -72.41 0.0003534373    1.271    0.213
       284 -10.9308     98.4379    137.2098   1.0777138385e+02   3.4561076508e+01    0.2336166    0.1737105  60.74  0.001310003    1.318    0.241
       285  -9.8010      6.8262    136.9708   1.2912255436e+02   4.5373610609e+01    0.1786121   0.08856818 -60.53  0.001063193    1.990    0.497
       286  -9.8416    122.0007    135.7590   1.0204325360e+02   3.0808706125e+01    0.1841587    0.1681878  66.80  0.000246651    1.038    0.037
       287 -11.3429     28.5558    132.4321   1.2375331226e+02   4.4507352932e+01    0.2295847    0.1601245 -87.10 7.927648e-05    1.144    0.126
       288 -11.1718     26.2616    129.9746   1.2404779836e+02   4.5252413235e+01    0.1737631    0.1338447  85.59 0.0002949372    1.045    0.044
       289 -10.7007     35.0405    129.3504   1.2187425990e+02   4.4555019556e+01    0.5569198    0.2073687 -47.25  0.002202085    4.203    0.762
       290 -10.4661     61.8534    130.9444   1.1555285433e+02   4.1190857484e+01    0.1853147    0.1580835 -82.82 0.0002705544    1.056    0.053
       291 -10.9910     62.4646    127.5524   1.1490575139e+02   4.1862386264e+01    0.2074573     0.165594 -81.55 0.0008292594    1.078    0.072
       292  -9.7466     48.5181    130.9557   1.1880207013e+02   4.2777618205e+01    0.1811917    0.1027879 -69.83 0.0004737079    1.516    0.340
       293  -9.9194     40.9538    134.0143   1.2098952906e+02   4.2931454572e+01    0.1944005    0.1156516  73.73 0.0005348968    1.662    0.398
       294  -9.2689      1.7156    129.6987   1.2975300263e+02   4.7278334078e+01    0.1022113   0.06834619 -61.40 0.0002438797    1.554    0.356
       295 -10.9533     91.8015    127.0187   1.0755550149e+02   3.7808156368e+01     0.218376    0.1963762  43.81 0.0004011189    1.237    0.192
       296  -9.7094     30.1977    125.8265   1.2265805421e+02   4.5795591232e+01    0.1484001    0.1211458 -63.56  0.000351197    1.304    0.233
       297 -10.0390     20.9052    126.6977   1.2500359222e+02   4.6437387902e+01    0.2344226    0.0909676  34.45  0.001212559    2.739    0.635
       298 -11.2598     57.2014    124.6329   1.1578835214e+02   4.3163004363e+01    0.2370305     0.211317  41.64 0.0008290049    1.340    0.254
       299 -10.3344      3.7379    124.8709   1.2892821665e+02   4.8163522911e+01    0.1604247    0.1134392 -76.44 0.0002800565    1.188    0.158
       300 -10.3197     83.5855    120.8975   1.0848685983e+02   4.0416303829e+01    0.4016143    0.2240462 -85.40  0.001676858    2.677    0.626
       301 -10.4444     63.9978    122.5056   1.1374463962e+02   4.2788553916e+01    0.1798712    0.1208124  44.63 0.0007111831    1.563    0.360
       302  -9.9746     41.0656    121.2118   1.1939151012e+02   4.5742814304e+01    0.2103038    0.1721792 -21.73 0.0009970651    1.826    0.452
       303  -9.6489     21.7273    121.3336   1.2426148076e+02   4.7540572947e+01    0.1200764   0.09291609 -81.79 0.0003182981    1.062    0.058
       304 -11.5402     19.8048    118.4099   1.2443541547e+02   4.8344886077e+01    0.3395508    0.1419536  46.09  0.001542635    2.415    0.586
       305  -9.3660     13.9583    121.7720   1.2621592679e+02   4.8077124004e+01    0.1180695   0.09258684  39.18  0.000373797    1.536    0.349
       306 -10.2564      5.3973    121.1997   1.2824128176e+02   4.8835463907e+01    0.1604216   0.08128686 -89.93 0.0002973588    1.608    0.378
       307 -10.5377    116.3374    120.0772   1.0017338023e+02   3.5103976090e+01    0.2084617    0.1872972  39.53 0.0002695966    1.199    0.166
       308 -10.1780    100.9958    119.5491   1.0383851944e+02   3.7929963375e+01     0.199043     0.171555 -70.65 -5.258462e-06    1.093    0.085
       309 -10.4331     93.2221    118.6027   1.0560456933e+02   3.9421313222e+01    0.3597803     0.271799  78.55  0.001950913    1.451    0.311
       310 -10.5533     54.9254    117.8269   1.1534625917e+02   4.4958549231e+01    0.1866135    0.1560688 -88.56 0.0004377546    1.041    0.040
       311 -11.3984      2.5834    113.7629   1.2830970531e+02   5.0636304149e+01    0.4594041    0.1366658 -61.90  0.002210093    2.664    0.625
       312  -9.6012    138.5596    115.5929   9.3887086128e+01   3.1699952672e+01    0.1414844    0.1386999  68.86 9.184757e-05    1.021    0.020
       313 -10.2229    107.3441    113.9708   1.0106996157e+02   3.8035883358e+01    0.2802387    0.1714466  44.09  0.001336141    1.684    0.406
       314  -9.4029     60.7104    114.3547   1.1327034177e+02   4.5034894815e+01    0.1343604   0.08861155  80.98 0.0004232876    1.677    0.404
       315 -11.2830    120.6398    112.2380   9.7374312079e+01   3.5947856179e+01    0.2432881    0.2341565  78.80  0.000239356    1.034    0.033
       316 -12.0559     74.6196    111.9579   1.0915003932e+02   4.3719540049e+01     0.231295    0.2019678  68.85 0.0002157289    1.154    0.133
       317 -10.7065     38.0808    111.8581   1.1890315346e+02   4.8144291225e+01    0.2771576    0.1665774  69.51  0.001334635    1.799    0.444
       318 -10.9068     37.5153    108.5109   1.1858042570e+02   4.8955912040e+01    0.3707296    0.1700493 -73.52  0.001830223    1.906    0.475
       319 -11.0107     29.4787    112.4023   1.2125370805e+02   4.8842303884e+01    0.3214318    0.1957045  45.75  0.001946453    1.753    0.430
       320 -10.8704    149.9385    111.2225   9.0234149808e+01   3.0176956546e+01    0.2325836    0.2053225 -46.32 0.0002792074    1.137    0.120
       321 -10.6219     86.0686    109.9008   1.0570282177e+02   4.2479720446e+01    0.2992789    0.2068802  80.71   0.00116849    1.783    0.439
       322 -11.2290     20.6170    109.5076   1.2324141202e+02   5.0252321754e+01     0.236661    0.1585013 -59.03 0.0008630158    1.422    0.297
       323 -11.9784    161.1057    102.7426   8.5603701685e+01   2.9337938014e+01    0.2532061     0.251632  19.57 0.0002853388    1.010    0.010
       324 -10.6499     75.4616    102.9858   1.0714493685e+02   4.5619565987e+01    0.2629718    0.1785699  13.33  0.001267741    2.394    0.582
       325 -10.3583     70.5198    101.9100   1.0829821282e+02   4.6560003473e+01    0.2985332    0.1517512 -47.51  0.001373224    1.990    0.497
       326 -11.7510     43.4282    102.0937   1.1595891899e+02   4.9808881262e+01    0.3815739     0.348802  22.72  0.001951168    1.413    0.292
       327 -12.2466     53.1373    100.5720   1.1294607199e+02   4.9078937764e+01    0.4063373    0.3567341 -22.35  0.001481569    1.486    0.327
       328 -11.3645     55.5006     97.0359   1.1160737436e+02   4.9605199101e+01    0.2342491     0.177811 -89.79 -0.0005301997    1.325    0.245
       329 -11.3403      2.8950    106.0755   1.2754705057e+02   5.2293797577e+01    0.4817902    0.1330067 -79.49  0.002025194    3.012    0.668
       330 -10.8293      9.0000    101.7754   1.2548837558e+02   5.2840883124e+01    0.3749119    0.1228431 -73.11 0.0005350073    2.282    0.562
       331 -10.7640    135.1974    101.5438   9.1210806489e+01   3.5233007341e+01    0.2846755    0.2251871 -26.80 0.0002193395    1.424    0.298
       332 -11.2624     82.3326     93.8364   1.0319208847e+02   4.6647439534e+01    0.4526877    0.2644016 -38.02 0.0009348627    2.045    0.511
       333 -10.0956     85.3598    100.2870   1.0382658386e+02   4.4735217777e+01    0.1947261    0.1814418  80.63 0.0006686939    1.094    0.086
       334 -10.9735     86.5226     97.0209   1.0275739969e+02   4.5279250435e+01    0.3264509    0.2541334   9.32  0.001161013    1.840    0.457
       335 -10.6866     36.5096     98.1588   1.1729174690e+02   5.1402602509e+01    0.3347206    0.1039125 -67.93  0.001354519    2.710    0.631
       336  -9.6592     16.4061     99.5051   1.2318600215e+02   5.2818419447e+01     0.118785   0.08969755 -78.90 0.0001966681    1.020    0.019
       337  -9.8836      4.1331     98.6522   1.2648756515e+02   5.3850525238e+01    0.1748483    0.1171794  66.09  0.001173499    1.482    0.325
       338 -12.9265    106.4288     97.6633   9.7492594784e+01   4.1724958802e+01    0.3088455    0.2760597  48.33  0.001160269    1.181    0.153
       339 -11.0259     62.7074     95.9978   1.0931390911e+02   4.8944919851e+01    0.2307581    0.1849756  72.81 0.0003632111    1.335    0.251
       340  -9.8976     24.2335     96.4056   1.2055776421e+02   5.2900490045e+01    0.1516986    0.1012924  50.73 0.0007137102    1.650    0.394
       341  -9.8721     47.1464     94.8824   1.1363830155e+02   5.1053701001e+01     0.169352    0.1284233 -51.85 -0.000430966    1.293    0.227
       342 -11.2976     23.5527     91.8290   1.2009283307e+02   5.3991462958e+01    0.3282233    0.2193661 -23.23  0.001651388    2.251    0.556
       343 -10.6379    106.4978     91.4760   9.5887174453e+01   4.3042396135e+01    0.3514044    0.2441044  66.94  0.001322302    1.810    0.448
       344 -10.0938     29.1857    103.1404   1.2010496884e+02   5.0952932830e+01    0.1734372    0.1335476 -66.20 0.0003244766    1.158    0.136
       345 -10.5552    113.8734     90.8725   9.3758382482e+01   4.1766762308e+01    0.2537829    0.2148732  66.21 0.0004384782    1.284    0.221
       346 -10.9495      7.3825     90.2059   1.2462473113e+02   5.5522609547e+01    0.3076188    0.1731804  72.50   0.00180008    1.874    0.466
       347 -12.1958      9.3695     85.7997   1.2348137162e+02   5.6380426369e+01    0.2191906    0.1770593 -72.61 0.0002413188    1.096    0.088
       348 -10.5420     88.1753     89.3273   1.0042608305e+02   4.6717355006e+01     0.298507    0.2060836 -30.78  0.001454893    1.805    0.446
       349 -11.6333     77.9309     88.1184   1.0309638880e+02   4.8596286783e+01    0.2659921    0.1893474 -56.30 0.0003443927    1.254    0.203
       350 -10.8961     63.4382     87.0491   1.0716859802e+02   5.0878867368e+01    0.2401811    0.2110573 -48.49 0.0005476425    1.157    0.136
       351 -11.2522     28.4363     85.8355   1.1766987131e+02   5.4942506419e+01     0.365958    0.2921252  73.16   0.00244909    1.320    0.242
       352 -10.4619    132.5722     82.6292   8.6637874580e+01   3.9585897181e+01    0.3365162    0.2352801  43.67  0.001135394    1.491    0.329
       353 -10.1255     43.1150     80.1744   1.1198774012e+02   5.4832809892e+01    0.3805774    0.2314939  51.37   0.00200604    1.959    0.490
       354  -9.9459     48.0334     85.7552   1.1160057725e+02   5.3035918145e+01    0.2253609    0.1692165  73.42 0.0003441561    1.502    0.334
       355 -11.1907     50.0516     83.2157   1.1044079140e+02   5.3386357559e+01    0.3026897    0.2216313  35.81  0.001552495    1.607    0.378
       356 -10.5045     53.4930     82.4926   1.0920613113e+02   5.3151050813e+01    0.2481919    0.1709313 -86.10 0.0008505182    1.649    0.394
       357 -10.2843    154.6316     86.0085   8.2427419609e+01   3.3952420893e+01    0.3255686    0.2286607 -15.69  0.001426208    1.785    0.440
       358 -10.0721    118.4699     84.4807   9.0774839505e+01   4.2184310361e+01    0.1477675    0.1397995 -58.76 7.448594e-05    1.031    0.030
       359 -10.4204     98.1651     84.0031   9.6181402416e+01   4.6166094780e+01    0.2101987     0.193263 -48.02 0.0005251081    1.044    0.042
       360 -10.0931     20.0266     81.9933   1.1965123282e+02   5.6491950313e+01    0.1821869    0.1429329 -75.93 0.0004708484    1.036    0.035
       361 -11.0571     77.1725     81.0350   1.0153884222e+02   5.0284582693e+01    0.2104456    0.1850819 -49.33 0.0006667321    1.075    0.070
       362  -9.3693    101.4693     79.4647   9.3971794667e+01   4.6532199302e+01    0.1442456    0.1339898 -52.79  4.24277e-05    1.007    0.007
       363 -10.0906     68.1550     78.9824   1.0378233072e+02   5.2051795918e+01    0.2014469     0.162664 -40.25 0.0005297503    1.257    0.205
       364 -10.1444    109.8201     77.6887   9.1122032688e+01   4.5310937089e+01    0.2928426     0.131314  38.43  0.001089455    2.637    0.621
       365 -10.1877     96.6071     77.6238   9.4832397035e+01   4.7807770805e+01    0.2641186    0.1309915  28.43 0.0009475461    3.270    0.694
       366 -12.0084     51.9724     74.8220   1.0792111343e+02   5.5059125271e+01    0.4037527    0.3535421 -24.54  0.002585084    1.335    0.251
       367 -10.1173      3.5138     76.9769   1.2411793469e+02   5.8702979167e+01    0.1832311   0.08511151 -70.93  0.001023069    1.578    0.366
       368 -10.0397    131.0860     75.3104   8.4808787379e+01   4.1342776919e+01    0.2040419    0.1877463  55.65 0.0002884217    1.137    0.120
       369  -9.9081     80.9554     74.3274   9.8561098365e+01   5.1165439635e+01     0.181821    0.1743278 -78.35 0.0004970285    1.101    0.092
       370  -9.7677     69.0992     73.8580   1.0214330002e+02   5.3053475911e+01    0.2020584    0.1685844 -79.24 0.0005895281    1.281    0.219
       371 -11.4347     59.2847     73.8204   1.0529024170e+02   5.4386727102e+01     0.276845    0.2260127  47.57 0.0009595237    1.409    0.290
       372  -9.9843     36.0695     72.0858   1.1257047277e+02   5.7364320230e+01     0.201092     0.168407  46.05 0.0008713166    1.421    0.296
       373  -9.4045    106.4048     70.2584   8.9807981128e+01   4.7499741732e+01    0.1469475    0.1134555   7.23 0.0006376409    1.725    0.420
       374  -9.9768     79.9796     69.7026   9.7527429753e+01   5.2316281684e+01     0.181341    0.1736307 -45.43 0.0003011944    1.075    0.070
       375 -11.0686     53.1143     69.6393   1.0625551793e+02   5.6080239461e+01    0.2371754    0.1786174 -61.49 0.0002786907    1.152    0.132
       376 -10.5881     45.1111     69.1244   1.0882945130e+02   5.7107642918e+01    0.2793921    0.1604468 -47.47  0.001039651    1.556    0.358
       377 -11.3776     47.8999     63.1119   1.0632888025e+02   5.8129643641e+01    0.3604552    0.1614103 -59.33 0.0003572306    1.934    0.483
       378 -10.4218     87.9346     69.0674   9.4873090568e+01   5.1136612436e+01    0.2156638    0.1931004 -31.22   0.00050143    1.122    0.109
       379 -10.1798    152.1867     72.9453   7.9071040642e+01   3.6924439304e+01    0.2289695     0.206192 -70.89 0.0006202567    1.224    0.183
       380 -11.3632     22.1368     67.6270   1.1639711447e+02   5.9564728226e+01    0.5222406    0.2912198  46.75  0.002940776    2.204    0.546
       381 -10.0608     17.3298     67.0035   1.1794018125e+02   6.0058741487e+01    0.1809116    0.1493777  65.46 0.0002346431    1.400    0.286
       382  -9.9776    112.1666     65.5261   8.6681411413e+01   4.7287288662e+01    0.2372926    0.1953136 -14.91 0.0005450921    1.355    0.262
       383  -9.7337     75.4490     66.5185   9.8019798656e+01   5.3706367553e+01    0.1385007    0.1219505 -49.46 0.0001141372    1.006    0.006
       384 -10.8057      1.3724     65.9961   1.2326306776e+02   6.1254548147e+01    0.1742074   0.08416408 -73.19 0.0003980535    1.557    0.358
       385  -9.9407     52.3026     65.6051   1.0547143931e+02   5.7068734324e+01    0.1334464   0.09547573 -89.46 0.0007006392    1.816    0.449
       386  -9.5168    137.0013     63.7157   7.9653673924e+01   4.2173139814e+01    0.1789618      0.13688  51.48 0.0004794268    1.352    0.260
       387 -10.6088      9.6135     62.9088   1.1988959828e+02   6.1476946620e+01    0.2032881    0.1898051 -10.81 0.0009010882    1.389    0.280
       388 -11.3838      6.1184     59.2914   1.2049323545e+02   6.2480749192e+01    0.2530669    0.2188238  35.30 0.0007781399    1.494    0.331
       389 -11.2202     22.6594     57.4185   1.1403370177e+02   6.1792505020e+01    0.2806925    0.1997922  46.87  0.001474664    1.747    0.428
       390 -11.9564     27.7017     55.6351   1.1172481035e+02   6.1774333949e+01    0.6781417     0.237268 -47.72  0.002774456    2.413    0.586
       391 -10.1772     16.1339     61.3820   1.1727173994e+02   6.1393590710e+01    0.2482898     0.132675 -83.07  0.001303694    2.003    0.501
       392 -10.0145     77.5957     61.7806   9.5865039627e+01   5.4371208991e+01    0.1982867    0.1215189 -56.85 0.0007196853    1.634    0.388
       393  -9.7025    169.4805     60.9639   7.1654528441e+01   3.4710340705e+01    0.2236928    0.1498224 -31.05 -5.050769e-05    1.459    0.315
       394 -11.1049     68.7252     60.7675   9.8479107441e+01   5.5936815523e+01    0.3720626    0.2337875  40.46  0.001547083    1.817    0.450
       395 -10.1935     38.9165     60.2159   1.0875963667e+02   5.9728017561e+01    0.1898476    0.1578691 -76.71 0.0008889788    1.226    0.184
       396 -10.5172     48.1245     58.8636   1.0507896737e+02   5.9031313083e+01    0.1884265    0.1621843 -73.63 0.0004477497    1.211    0.174
       397  -9.8515     31.2971     59.0132   1.1122647755e+02   6.0718251700e+01    0.1758615    0.1281019 -63.26 0.0003630505    1.132    0.117
       398  -9.8912    110.8589     57.1883   8.4234631197e+01   4.9157124701e+01    0.2206791    0.1951146 -63.50 0.0005021941    1.249    0.199
       399 -11.0908    103.3420     56.2355   8.6047249515e+01   5.0867006929e+01     0.421506    0.3339624  31.80  0.002205634    1.385    0.278
       400 -10.1279     93.3168     57.6337   8.9527092825e+01   5.2515901425e+01    0.1461112    0.1112027 -75.00 -5.119154e-05    1.776    0.437
       401 -10.9463     52.3386     55.8577   1.0268479594e+02   5.9178918580e+01    0.3059484    0.1785267 -71.30   0.00143066    2.238    0.553
       402  -9.8470    225.9476     55.7379   6.0848837498e+01   2.1252207139e+01    0.1887463    0.1854855 -79.44 0.0003029041    1.088    0.081
       403 -11.0504    132.6765     55.8824   7.8061143549e+01   4.4571920471e+01    0.2496144    0.2192996  59.30 0.0003587233    1.215    0.177
       404  -9.9287     78.9418     56.3131   9.3640781668e+01   5.5280940077e+01    0.1877984    0.1748014 -27.58  0.000590507    1.073    0.068
       405  -9.7649     58.7202     56.6611   1.0065346888e+02   5.8196898875e+01     0.162852    0.1228638  44.86 0.0006270534    1.571    0.364
       406  -9.4649    181.3971     55.7530   6.7767216040e+01   3.2484337665e+01    0.1568205    0.1177104 -75.07 0.0006940783    1.682    0.406
       407  -9.7085    150.6836     54.3051   7.3357987205e+01   4.0504481780e+01    0.1564642    0.1194175 -67.21 0.0003246849    1.625    0.385
       408 -10.8252    119.9383     53.1513   8.0345077081e+01   4.7947217157e+01    0.4537427    0.2676063  15.28  0.001567144    3.343    0.701
       409 -12.0477     40.3368     52.7328   1.0618551848e+02   6.1208974181e+01    0.3545153    0.3095274 -15.42  0.002371138    1.306    0.234
       410 -10.7515     60.9634     51.1834   9.8094286939e+01   5.9040433654e+01    0.2797908    0.1613398 -45.04 0.0004956455    1.487    0.328
       411 -10.2728     83.2459     51.3930   9.0531095796e+01   5.5539792635e+01    0.1834189    0.1342235  55.07 0.0009455017    1.664    0.399
       412 -10.5917     65.6589     50.0319   9.6030972442e+01   5.8610911714e+01    0.2824225    0.1948475 -59.09  0.001076839    1.513    0.339
       413  -9.7599    174.2122     50.5864   6.7414457053e+01   3.5111793863e+01    0.2039538    0.1406975  46.80 0.0002685387    1.476    0.322
       414  -9.7499    128.9735     49.9815   7.6895988442e+01   4.6449208392e+01    0.1812795    0.1690781 -23.28 0.0003626031    1.027    0.026
       415 -11.1849     98.1338     49.8336   8.5300819170e+01   5.3098986845e+01    0.3065022    0.2470076 -64.33 0.0006794637    1.489    0.328
       416 -10.0049     86.6059     50.2072   8.9020229242e+01   5.5180965912e+01    0.2061732    0.1219395 -33.49 0.0008173605    1.668    0.401
       417 -10.6550     12.8114     50.6271   1.1623776112e+02   6.3979476726e+01    0.2022582    0.1196043  21.97  0.001231328    2.171    0.539
       418 -10.2033     16.1893     47.6589   1.1420995762e+02   6.4397888125e+01    0.3417225    0.1289645 -47.74  0.001668506    2.158    0.537
       419 -11.2082     12.2611     46.1348   1.1541705338e+02   6.4988399762e+01    0.2960701    0.1915912 -79.97 0.0007288086    1.566    0.361
       420  -9.5818     31.6413     48.2421   1.0823789069e+02   6.3026675528e+01    0.1113085   0.08996266  75.90 0.0006927978    1.593    0.372
       421 -10.4910    122.8032     46.1416   7.7054694625e+01   4.8517059835e+01     0.249889    0.2311149 -25.51 0.0005904426    1.033    0.032
       422 -10.1617    114.3391     46.9835   7.9603346962e+01   5.0260755256e+01    0.2094044    0.1756886 -29.10 0.0003362573    1.129    0.114
       423 -11.4037     61.7336     44.8456   9.5620219360e+01   6.0218059349e+01     0.262974    0.1971411 -40.25 0.0003190674    1.147    0.128
       424 -10.2031     21.6479     44.9819   1.1132057449e+02   6.4572601697e+01    0.1775557    0.1181461 -60.15  0.000563317    1.195    0.163
       425 -10.3593     80.9386     43.1826   8.8263062001e+01   5.7510131849e+01    0.2343161    0.1772285 -37.06 0.0003142593    1.182    0.154
       426  -9.7780     34.0823     44.3664   1.0611658170e+02   6.3617523592e+01    0.1591885    0.1086053  45.97 0.0009327842    1.896    0.473
       427  -9.3837    199.7224     43.6910   6.1020894836e+01   2.9462173977e+01    0.1510529    0.1134932  22.07  0.000217298    1.556    0.357
       428  -9.3481    163.6114     43.2391   6.6945422895e+01   3.8937408916e+01    0.1545364    0.1173161 -76.15 0.0006923718    1.649    0.394
       429 -10.7202    141.4868     42.4098   7.1210854930e+01   4.4670418744e+01    0.2524542    0.2433524 -17.16 0.0001259931    1.018    0.018
       430 -10.1166     70.1464     41.8182   9.1461392297e+01   5.9551721454e+01    0.1964718     0.168431 -51.36 0.0004975922    1.201    0.167
       431 -12.0633     56.8033     41.0813   9.6088136390e+01   6.1648321731e+01    0.2522544    0.2055417 -36.31 0.0002867997    1.056    0.053
       432 -10.1827     92.9678     41.2716   8.3640053185e+01   5.5655864798e+01     0.199909    0.1862721  11.11  0.001169524    1.105    0.095
       433  -9.6209     39.0945     40.1867   1.0273797133e+02   6.3974233801e+01    0.1639066    0.1131926   5.68 0.0009100051    1.889    0.471
       434 -10.4415     19.5097     40.9858   1.1109568723e+02   6.5585956916e+01    0.2487309    0.1633968  27.04  0.001569484    1.904    0.475
       435  -9.7395     24.0309     39.5308   1.0877021540e+02   6.5535357344e+01    0.1510997    0.1203228  17.37  0.000863639    1.556    0.357
       436 -11.4196      9.6727     39.3280   1.1480556713e+02   6.6606152411e+01    0.2542816     0.207572 -29.52  0.001076641    1.332    0.249
       437 -11.1349    103.6298     38.9660   7.9531164399e+01   5.3913409345e+01    0.2342749    0.2118316  59.23 0.0003676889    1.261    0.207
       438 -10.6855      4.5810     37.2694   1.1647161959e+02   6.7333934090e+01    0.2917427    0.1643219 -77.97   0.00117967    1.782    0.439
       439  -9.2068     41.3412     36.9399   1.0068470617e+02   6.4386070967e+01    0.3036092    0.1804287 -72.10  0.001210728    2.678    0.627
       440  -9.6759     86.5071     37.5172   8.4199727794e+01   5.7538282112e+01    0.1399329    0.1261341 -27.90 4.355315e-05    1.040    0.038
       441 -10.9520    193.9032     35.2768   5.9258697439e+01   3.2079377300e+01    0.2532009     0.212262 -18.44 0.0003231476    1.201    0.167
       442 -10.3087    128.7315     36.3701   7.1897014981e+01   4.8689909265e+01    0.2303597    0.1492553  65.96 0.0006130887    1.806    0.446
       443 -10.9417    119.6899     34.3798   7.3348812981e+01   5.1113784401e+01    0.3128068      0.23777 -66.83  0.001211972    1.746    0.427
       444 -10.1455     60.8249     34.2474   9.1919348274e+01   6.2393394039e+01    0.2327397    0.1827812 -38.64 0.0007916659    1.100    0.091
       445 -10.6303     55.8946     34.3775   9.3871509568e+01   6.3069024554e+01    0.2357031    0.2107442 -89.13 0.0009989359    1.522    0.343
       446 -10.3351     29.3975     34.3067   1.0479146115e+02   6.6141544791e+01    0.1926341    0.1742828 -70.66 0.0006233766    1.287    0.223
       447 -11.6157    140.0878     33.0103   6.8037509156e+01   4.6402492864e+01    0.4556302    0.3651581  61.95  0.001507126    1.306    0.234
       448 -10.2491     91.9563     33.5375   8.0834238875e+01   5.7179898017e+01    0.2155399    0.1743822 -28.37 0.0005734705    1.129    0.115
       449 -11.7636     77.5734     33.1401   8.5386843781e+01   5.9908679954e+01    0.3587585    0.2790794  78.44 0.0009946481    2.048    0.512
       450 -11.1217    246.5874     31.0993   5.1740199731e+01   1.9371859443e+01    0.2585639    0.2251795 -19.47 0.0005993295    1.132    0.116
       451 -10.9172    206.4879     31.5181   5.6369494229e+01   2.9260095397e+01    0.2479475    0.2367243  68.17  0.000654645    1.078    0.072
       452 -11.5392    107.0662     30.1746   7.4987856508e+01   5.4585083739e+01     0.430067     0.275769  -5.21  0.000904896    1.977    0.494
       453 -10.3920     33.8987     30.5353   1.0147953704e+02   6.6455311542e+01    0.2478973    0.1890602 -32.98  0.001605829    1.164    0.141
       454 -10.2808     24.4636     30.8603   1.0577008003e+02   6.7281333349e+01    0.2173677     0.153031  30.58  0.001396463    1.765    0.433
       455 -10.1414     19.4145     29.5094   1.0758920973e+02   6.7970534823e+01    0.2448721    0.1483046  58.19  0.001283166    2.934    0.659
       456 -11.9415     17.7819     23.5577   1.0625487180e+02   6.9287319117e+01    0.3122294    0.2653953  84.40  0.001586505    1.638    0.390
       457 -10.3971     70.9719     28.3035   8.5648782387e+01   6.1867365527e+01    0.3527719    0.1691132  33.50  0.001536766    2.527    0.604
       458 -11.3056     99.9218     26.9364   7.5640373839e+01   5.6604585331e+01    0.6240215    0.2561875  51.78  0.002451683    2.554    0.608
       459 -10.3553     37.6127     27.2935   9.8594126465e+01   6.6687879132e+01    0.2319573    0.1551342  48.86  0.001325209    2.129    0.530
       460 -11.0222    242.9981     25.2535   5.0532370277e+01   2.0878365744e+01    0.2298237    0.1816979 -29.97 0.0006952925    1.162    0.139
       461 -11.9949      1.9020     25.4461   1.1451796861e+02   6.9936325321e+01    0.2688456     0.129651 -64.64  0.001541978    1.646    0.393
       462 -10.9395      9.9723     22.9537   1.0981951845e+02   6.9968801043e+01    0.1936985    0.1403788 -51.18 0.0006820153    1.045    0.043
       463 -10.1477      5.9350     23.3167   1.1191179100e+02   7.0146495547e+01    0.1789362    0.1461212 -48.61  0.001331917    1.101    0.092
       464 -10.2266     98.8662    249.1391   1.2065874675e+02   1.4867828289e+01     0.126613    0.1018315  45.86 0.0004627021    1.313    0.238
       465 -11.1481    131.6882     23.3281   6.6100466796e+01   4.9795839616e+01    0.4773875    0.2182624 -32.76  0.001896174    2.085    0.520
       466  -9.9884     90.0163     24.6888   7.7636369714e+01   5.8969255099e+01    0.1903252    0.1764637  17.26 0.0008127526    1.108    0.098
       467  -9.7668    153.4982     23.4155   6.1779181163e+01   4.4231911577e+01    0.1478808    0.1418177  31.56 9.339848e-05    1.021    0.021
       468 -12.0640    117.9695     22.5945   6.8973263449e+01   5.3195793110e+01    0.4170904    0.2609677  44.43 0.0001457795    1.588    0.370
       469 -10.5057     66.1684     22.6411   8.4880053030e+01   6.3606666964e+01    0.2410021      0.16567 -27.66 0.0005790505    1.295    0.228
       470  -9.7359     25.8975     22.8896   1.0214514881e+02   6.8722931988e+01    0.1515645    0.1297866 -59.75 0.0005984556    1.306    0.234
       471 -11.4881    130.0909    241.1231   1.1500833608e+02   1.1629747604e+01    0.3729758    0.1432309  45.70  0.002078668    1.922    0.480
       472  -9.8740     78.7289     22.0672   8.0128003169e+01   6.1524172843e+01    0.1895818    0.1547581 -19.29  0.001100387    1.089    0.082
       473 -11.7206    136.9146    246.4558   1.1443178175e+02   9.9624797493e+00     0.230169    0.2060286   3.82  0.001920177    1.596    0.373
       474 -11.2686     34.5576     18.4938   9.6229737868e+01   6.8660664824e+01    0.3106075    0.2412717 -36.57   0.00102356    1.045    0.043
       475 -10.9422    182.3394     18.8307   5.5570005385e+01   3.7113453868e+01    0.2878553    0.2453937   0.78 0.0009070131    1.254    0.202
       476 -11.4565     38.6648     21.2261   9.5572110089e+01   6.7698832112e+01    0.3691481    0.3207223   9.48   0.00254788    1.286    0.223
       477 -10.7022    198.4760     18.8195   5.3464333022e+01   3.2826622667e+01    0.2447033    0.1919422 -66.37 0.0006902531    1.347    0.258
       478 -10.7376     92.7809     18.6306   7.4053015965e+01   5.9291928540e+01    0.2829745    0.1789003 -33.87   0.00113273    1.504    0.335
       479 -11.2344    219.5150     14.9366   4.9960469942e+01   2.7783644133e+01    0.2129488    0.1352192 -22.94 0.0004764493    1.548    0.354
       480 -10.5506    133.4777    244.5593   1.1479611060e+02   1.0696533182e+01    0.1882353    0.1278075  55.58 0.0005412568    1.213    0.176
       481  -9.8696    158.0059     17.3548   5.8758039670e+01   4.3758810375e+01    0.2025958     0.188139  62.49 0.0004873133    1.076    0.071
       482 -12.3884    147.1653    242.8140   1.1242844321e+02   8.9289919669e+00    0.4107442    0.3115224  40.47  0.002011554    1.138    0.122
       483 -10.6788    112.4664     15.5258   6.7292591868e+01   5.5382132733e+01    0.2767904    0.2166123   5.55 0.0005988128    1.297    0.229
       484 -11.2247    102.1376    246.1137   1.1991076985e+02   1.4846227398e+01    0.3474056    0.1207099  54.75  0.001188941    2.568    0.611
       485 -10.1562     60.6871     17.1471   8.4384566285e+01   6.5371062169e+01    0.2674455    0.2153277 -81.33   0.00148281    2.186    0.543
       486  -9.9437     87.0223    231.0148   1.2114299766e+02   1.9033414614e+01    0.1601908    0.1020218  61.20 -0.003769674    1.232    0.188
       487  -9.7051     14.0133     15.2131   1.0489408039e+02   7.1193006764e+01    0.1321516   0.09189811  14.97 0.0008786296    1.737    0.424
       488 -11.6142    208.7449     14.1790   5.0859107237e+01   3.0633310899e+01    0.3097613    0.1870881  58.00  0.001442079    1.652    0.395
       489 -10.0024    185.5902     13.7393   5.3449135325e+01   3.6794566810e+01    0.1998562     0.128688 -36.16  0.000292631    1.515    0.340
       490 -10.1953    139.2043     14.1257   6.0885178398e+01   4.9009681909e+01    0.2193583    0.1844856  24.03 0.0003092832    1.190    0.160
       491 -10.5652    179.7897     13.4356   5.4110137424e+01   3.8377043174e+01    0.2099768    0.1275104  55.02 0.0004685364    1.593    0.372
       492 -10.7315    148.1914     13.0286   5.8811877554e+01   4.6809913667e+01    0.2854712    0.1647165  48.42  0.001257466    1.668    0.401
       493  -9.8349     62.3603     12.5705   8.1465589023e+01   6.5803436229e+01    0.1702119    0.1410969 -49.37 0.0002949015    1.497    0.332
       494  -9.9431    175.2656     17.5834   5.6151780134e+01   3.9141550771e+01    0.2224135    0.1256169  53.80 0.0006845484    1.708    0.415
       495 -11.0822     91.0259    232.4856   1.2060376067e+02   1.8282613402e+01    0.4103415    0.1346983  53.08  0.002080418    2.546    0.607
       496 -11.2827     85.4998    245.3590   1.2246320673e+02   1.7130379558e+01    0.1969201    0.1341922  59.45 0.0005877218    1.062    0.058
       497 -11.6521    102.4031    234.7392   1.1892843821e+02   1.6413823790e+01    0.4708244    0.3089153 -76.00  0.002889689    1.788    0.441
       498 -10.4908    105.9711    235.2780   1.1839145624e+02   1.5844829646e+01    0.1472802    0.1230496  59.02 0.0002024646    1.161    0.138
       499 -11.8430     92.0480    242.0581   1.2118943121e+02   1.6751218642e+01    0.3504459    0.2513504  37.64  0.001765241    1.537    0.349
       500 -12.1707     95.4097    239.1785   1.2042869912e+02   1.6718680104e+01    0.7212994     0.199932  51.67  0.003429241    2.953    0.661
       501 -10.0074     94.8886    246.7770   1.2109994067e+02   1.5715466396e+01    0.1751393   0.07802511  57.75  0.001068412    1.914    0.478
       502 -12.4792     83.7218    237.7804   1.2219494497e+02   1.8453364320e+01    0.2783287    0.1558941  48.25 0.0004539442    1.347    0.258
       503  -9.9130     75.0081    246.2194   1.2415001850e+02   1.8326200050e+01    0.2809462   0.07742721  46.99  0.001400464    2.444    0.591
       504 -12.6762     75.6880    241.1758   1.2370877503e+02   1.8972325551e+01    0.4344531    0.2474919  71.54  0.002339338    1.613    0.380
       505 -11.3789    200.3584    244.8409   1.0424451307e+02   8.1972632425e-01    0.1943043    0.1646942  25.50 0.0004028284    1.190    0.160
       506 -10.6348    197.5667    240.7380   1.0416369774e+02   1.6511625974e+00    0.1853302    0.1191834  46.88 0.0004352151    1.376    0.273
       507 -11.3108    202.1178    240.2395   1.0338759668e+02   1.0245577864e+00    0.3330499    0.1477847  43.96  0.001955464    1.751    0.429
       508 -10.5684    164.0155    245.4257   1.1001925430e+02   6.1321870401e+00     0.358474    0.1160864  40.51  0.001794463    2.385    0.581
       509  -9.4593     66.6436    245.6870   1.2540227223e+02   1.9420889536e+01    0.1094606   0.09125621 -87.88 0.0007855829    1.434    0.303
       510 -11.3380     63.0831    243.6674   1.2582649914e+02   2.0140306197e+01    0.2411661    0.1719148  49.46   0.00118902    1.284    0.221
       511 -11.6663    182.9702    241.6504   1.0657783653e+02   3.7359699262e+00    0.3533558    0.1918026  32.94  0.001287757    1.598    0.374
       512 -11.5282    167.8956    238.8358   1.0865389335e+02   6.3226255297e+00    0.1920044    0.1684301  49.72 0.0004120515    1.207    0.172
       513  -9.6701    221.3131    239.6583   1.0034159745e+02  -1.7461851606e+00   0.09440991   0.07721118  55.60 0.0007046851    1.702    0.413
       514 -10.9295    110.0126    238.4976   1.1801549544e+02   1.4828405334e+01    0.2278964    0.1466016 -56.53 0.0009395611    2.029    0.507
       515 -10.5249    143.8032    238.2105   1.1248996775e+02   1.0005889479e+01    0.2169865    0.1388443  37.75 0.0009208648    1.356    0.263
       516 -11.1309    139.2142    237.3779   1.1315133492e+02   1.0791863349e+01    0.2817459    0.1588237  49.28  0.001848591    1.363    0.266
       517  -9.4071    216.2220    244.9472   1.0182030421e+02  -1.5028830737e+00     0.105558   0.08319873 -18.26 0.0003497304    1.551    0.355
       518 -10.3814    187.6049    236.2053   1.0516880248e+02   3.6365800341e+00    0.2106952    0.1380837  32.79 0.0007865505    1.249    0.199
       519 -11.6350    219.7600    231.6548   9.9479183195e+01  -7.4825938328e-01    0.2722679      0.21521 -44.49  0.001627176    1.912    0.477
       520 -10.2723    132.8137    235.0631   1.1396284709e+02   1.2041027947e+01     0.159507    0.1147112  58.87   0.00043893    1.221    0.181
       521 -10.5503    231.4346    233.8314   9.7988231318e+01  -2.6777533906e+00    0.1874052    0.1151566  36.95 0.0006157717    1.260    0.206
