#   1 NUMBER                 Running object number                                     
#   2 MAG_AUTO               Kron-like elliptical aperture magnitude                    [mag]
#   3 X_IMAGE                Object position along x                                    [pixel]
#   4 Y_IMAGE                Object position along y                                    [pixel]
#   5 X_WORLD                Barycenter position along world x axis                     [deg]
#   6 Y_WORLD                Barycenter position along world y axis                     [deg]
#   7 A_WORLD                Profile RMS along major axis (world units)                 [deg]
#   8 B_WORLD                Profile RMS along minor axis (world units)                 [deg]
#   9 THETA_WORLD            Position angle (CCW/world-x)                               [deg]
#  10 FWHM_WORLD             FWHM assuming a gaussian core                              [deg]
#  11 ELONGATION             A_IMAGE/B_IMAGE                                           
#  12 ELLIPTICITY            1 - B_IMAGE/A_IMAGE                                       
         1 -13.3898    222.1467      7.0850   3.5996969320e+01   2.8998700127e+01     1.294118      1.05634  47.68  0.006117133    1.525    0.344
         2 -14.2847    195.7016     37.4854   4.6457118073e+01   3.1687760820e+01     2.743782     1.714353  20.61   0.01157611    2.797    0.642
         3 -10.2551    189.6674     14.7905   4.1058717099e+01   3.5858734647e+01    0.2487555    0.2076979 -87.60 0.0008234996    1.091    0.083
         4 -10.7311     76.6820     13.9622   6.2705633143e+01   6.2318047305e+01     0.597032    0.2886681  66.45  0.002181909    4.374    0.771
         5 -10.9638     66.1759      2.3931   6.0679495830e+01   6.5459993825e+01    0.2820371    0.2469115 -83.91  0.001826737    1.827    0.453
         6  -9.1082    167.8515    233.4921   9.6845568508e+01   2.2617879421e+00    0.2733784    0.1787952  58.53  0.001461199    1.976    0.494
         7 -10.3777    248.2136    250.1181   8.4888747661e+01  -1.1699052241e+01    0.2582957    0.1374039  38.33  0.001564897    1.909    0.476
         8 -10.8924    245.1926    247.1958   8.4927652044e+01  -1.0984658012e+01    0.2761002    0.1372255 -11.41   0.00144967    2.472    0.595
         9 -10.6409     27.1002    214.7546   1.2258840853e+02   2.6080669179e+01    0.2473837    0.1700702  81.04  0.001218202    1.157    0.136
        10  -9.8134     28.9144    209.7313   1.2188844808e+02   2.6923255946e+01    0.1637265    0.1163198  66.96  0.000453535    1.139    0.122
        11 -10.2583    184.0029    211.7286   9.0200962017e+01   3.1110173472e+00    0.3702072    0.2229029 -53.82   0.00182573    2.203    0.546
        12 -10.0929    171.8748    212.2511   9.2713837719e+01   5.0883130924e+00    0.2536587     0.169641 -11.88  0.001248486    2.092    0.522
        13  -9.5146     56.5394    209.2289   1.1635770248e+02   2.3796991967e+01    0.3766195    0.1865936  89.38  0.001368925    2.331    0.571
        14  -8.2732     58.9936    206.2382   1.1556582086e+02   2.4116382600e+01    0.1430232    0.1361993 -86.90            0    1.293    0.227
        15  -9.5269     42.5738    208.9121   1.1914325918e+02   2.5564339909e+01    0.2235468    0.1249339  67.73 0.0003727586    1.650    0.394
        16 -11.7524    194.7269    205.9641   8.7077593900e+01   2.2404332875e+00    0.6823477    0.2760528  29.07  0.002539325    3.136    0.681
        17 -10.9868     65.4034    205.1625   1.1412297500e+02   2.3506977842e+01    0.4067906    0.1941591 -77.68  0.001124175    2.250    0.556
        18  -8.4331     35.5454    208.5737   1.2050780103e+02   2.6438858108e+01    0.1249953   0.08702148  71.02  0.000218091    1.174    0.148
        19 -10.4824     72.1177    250.2742   1.1697731300e+02   1.3822369642e+01    0.1671843    0.1208924  58.20 0.0003792214    1.073    0.068
        20 -10.3216     53.3274    230.5033   1.1882556115e+02   1.9899290031e+01    0.3176047      0.16168 -88.45  0.001726326    2.070    0.517
        21 -12.7415     53.4926    198.5515   1.1595566233e+02   2.6468373410e+01    0.4694394    0.2882666 -52.36  0.002584577    1.939    0.484
        22 -10.9445    193.4250    195.8845   8.5485092790e+01   4.1535105857e+00     1.017099    0.5504562 -62.63  0.003443903    4.763    0.790
        23 -11.4603    133.7572    196.1202   9.8071438232e+01   1.4758540609e+01    0.4041864    0.2617774 -70.28  0.001222563    1.986    0.497
        24  -8.7917     69.5239    198.6158   1.1253592317e+02   2.4362847515e+01    0.2831669    0.1519654 -56.12  0.001131929    1.974    0.493
        25  -9.5643     38.7036    199.2908   1.1910978133e+02   2.8063428495e+01     0.159967    0.1208407  72.50  0.000338364    1.090    0.082
        26 -15.8202     72.0714    149.8243   1.0521008391e+02   3.5371653198e+01     15.04247     7.274928  85.82   0.03036428    6.443    0.845
        27  -9.1318     48.8714    217.3066   1.1860293336e+02   2.3073828733e+01    0.2237984      0.15075  26.17  0.001329105    1.987    0.497
        28  -9.1055     81.8213    194.4697   1.0934880767e+02   2.3533037899e+01    0.2792247    0.1705244  70.66  0.001379036    1.837    0.456
        29 -10.1579     58.8879    229.6620   1.1771205990e+02   1.9362711114e+01    0.1777007    0.1362481  86.53 0.0003576207    1.178    0.151
        30 -10.9382    127.2294    192.5306   9.8928863367e+01   1.6634493591e+01    0.2513017    0.2016342 -60.47  0.001355135    1.319    0.242
        31 -11.0648     74.5155    189.1095   1.1030393989e+02   2.5772467400e+01    0.4393757    0.2386189  70.65   0.00151566    2.307    0.567
        32 -12.6227     64.2433    184.9401   1.1211138864e+02   2.8122513866e+01    0.7826709    0.6685508 -44.36  0.004830699    1.475    0.322
        33 -10.0354    149.5454    187.9463   9.3204204814e+01   1.3582929700e+01    0.2895898    0.2373246  88.00  0.001537146    1.536    0.349
        34  -8.5996     41.6555    188.2204   1.1747600662e+02   3.0169024362e+01    0.1570753   0.09976264 -70.16 0.0002892912    1.430    0.301
        35  -9.2908     44.5431    230.4561   1.2045060135e+02   2.0976143823e+01    0.1193248    0.0855295  68.60 0.0008058625    1.090    0.083
        36 -11.0704     34.4214    228.0945   1.2213719167e+02   2.2608097698e+01    0.1961397    0.1416894  50.68 0.0004242037    1.280    0.219
        37  -8.8864     37.5432    185.7293   1.1812971252e+02   3.1190971262e+01     0.155193   0.09898004  86.48 0.0003743962    1.399    0.285
        38 -10.8107     98.8552    181.1068   1.0359270668e+02   2.3896703029e+01    0.3746052     0.289652 -11.80  0.001550822    1.998    0.499
        39 -10.2256    189.2137    177.3963   8.2729355504e+01   8.2107551425e+00    0.4953535    0.3431056 -56.28  0.002402227    1.817    0.450
        40 -10.2075    149.9512    177.8261   9.1242105407e+01   1.5572049508e+01    0.3950227    0.2515558 -70.55  0.001484974    2.331    0.571
        41 -11.0005    143.9620    178.3300   9.2685186834e+01   1.6589898819e+01    0.3996449    0.3016603 -48.21  0.001233423    1.374    0.272
        42  -9.7050     55.0406    173.8206   1.1289035060e+02   3.1875884048e+01    0.2803486    0.1906887  63.86  0.001083414    1.431    0.301
        43 -10.2375     46.6044    172.6332   1.1472536990e+02   3.3170948633e+01    0.4061086    0.3372529  -0.38  0.002298562    1.786    0.440
        44 -10.6795    138.9846    170.9448   9.2422866128e+01   1.9097341466e+01    0.3826798    0.2194419  40.18  0.001115941    1.711    0.416
        45  -9.6932    239.9899    169.4684   7.1525590432e+01   4.5065298035e-01    0.1869832    0.1273122  36.32 0.0004600796    1.546    0.353
        46 -10.0219     57.7613    166.3503   1.1129406610e+02   3.3297193390e+01    0.4923567    0.1694756 -52.33  0.001874187    3.004    0.667
        47  -9.0161    187.5135    162.5726   7.9980761143e+01   1.1334922147e+01    0.2748526    0.1340561 -51.86  0.001038096    2.516    0.603
        48 -11.5648     93.7342    151.8206   9.9902925913e+01   3.1579281344e+01    0.7118723     0.508776 -33.97  0.003419614    1.747    0.428
        49 -10.7693    133.8618    145.3929   8.8370424468e+01   2.5777430700e+01     1.244175    0.3245817 -54.74  0.002920377    5.715    0.825
        50  -9.6217    186.9965    151.9780   7.7755002527e+01   1.3497728010e+01    0.2305603    0.2209765 -16.77 0.0006770419    1.030    0.029
        51  -9.6494    174.7278    149.3180   7.9759989769e+01   1.6552158997e+01    0.2590653       0.2372 -83.95 0.0006988087    1.274    0.215
        52  -8.7006    112.5021    150.5140   9.4823198166e+01   2.8652107198e+01    0.1483046     0.142516 -79.22 0.0008105038    1.011    0.011
        53  -8.8502     50.4288    224.4922   1.1889175100e+02   2.1436486704e+01    0.1761761    0.0931965  87.44 0.0006210515    1.937    0.484
        54 -10.6343    105.8836    137.8149   9.3898438834e+01   3.2860482570e+01    0.5560343     0.364816 -34.33  0.002438973    1.841    0.457
        55 -11.6384     93.8001    137.8554   9.7158925564e+01   3.4943549892e+01    0.2850959    0.2547217 -47.14 0.0004179768    1.136    0.119
        56 -10.4640    105.8877    130.6811   9.2322082705e+01   3.4563733550e+01    0.3965224    0.3191958 -63.58  0.001148297    1.232    0.188
        57  -9.8587    135.9999    129.9660   8.4261481512e+01   2.8845717322e+01    0.3447886    0.2061794 -47.01  0.001355541    1.631    0.387
        58 -10.4252    113.9240    129.0293   8.9772663508e+01   3.3460822533e+01    0.3577506    0.3152492   1.81 0.0009197434    1.338    0.252
        59  -8.3797     98.5866    130.4503   9.4269271268e+01   3.5917708289e+01    0.1499156    0.1387139 -71.35 0.0002202906    1.041    0.040
        60  -8.5845    160.9828    127.9828   7.7763062993e+01   2.3942043508e+01    0.3200025    0.1993016 -85.21 0.0009609222    4.149    0.759
        61 -10.4001    101.3198    124.9209   9.2258261391e+01   3.6762173728e+01    0.3129303    0.2369289 -31.71 0.0007773729    1.496    0.331
        62 -10.8714    120.4022    122.8690   8.6559640730e+01   3.3639634726e+01    0.4981015    0.3636093  -9.12  0.002134267    2.010    0.503
        63  -9.8498    135.0000    120.8248   8.2243252242e+01   3.1112724115e+01    0.4279911    0.0875001 -45.90  0.001030649    4.748    0.789
        64  -9.3668    109.4066    118.3057   8.8418439020e+01   3.6837661591e+01    0.2408628    0.2316843  22.06 0.0002732276    1.109    0.098
        65  -9.9687    231.3415    113.7179   6.0577768087e+01   1.1445854980e+01    0.2949861    0.2485955 -30.57 0.0007976567    1.076    0.071
        66  -8.9188    167.8208    112.6994   7.2308269985e+01   2.5604045804e+01    0.3095931    0.2021432 -65.30  0.001227601    2.117    0.528
        67 -11.5456    117.6261    109.6608   8.3924126053e+01   3.7221324035e+01    0.8410146    0.5664244  70.94  0.003426159    2.211    0.548
        68  -9.4787    205.5432    110.1432   6.4086958288e+01   1.7568641416e+01    0.2737558    0.2180701  41.56 0.0007119172    1.359    0.264
        69  -9.8334    134.6206    105.2046   7.8198964260e+01   3.4637697836e+01     0.521226    0.1475444 -42.62  0.001480386    3.462    0.711
        70 -10.3796     40.1236    223.9516   1.2079365445e+02   2.2773142762e+01     0.202454    0.1304697  73.37 0.0006745621    1.294    0.227
        71  -9.9622     63.9725     99.8199   9.7488157038e+01   4.8678803802e+01    0.2648508    0.1958399  24.03  0.001311748    1.566    0.361
        72  -8.0801     76.4786    224.0110   1.1379214115e+02   1.8130178415e+01    0.1545633    0.1122257 -76.12 0.0003403563    1.391    0.281
        73 -10.8280     51.4422     89.6217   9.9146756156e+01   5.2661159728e+01    0.3026612    0.2541506 -83.13 0.0008996886    1.375    0.273
        74 -10.3821     54.6007    222.0251   1.1788812132e+02   2.1412047221e+01    0.2760225    0.1351561  53.64 0.0003978153    1.754    0.430
        75  -8.9358    184.0987     77.3208   5.9330194202e+01   2.8465895155e+01    0.2127132      0.19481  67.32 0.0006764078    1.121    0.108
        76  -9.4385     65.4108     70.4264   8.8813568570e+01   5.5056788209e+01    0.2376128    0.2167412 -24.32 0.0008081634    1.047    0.045
        77  99.0000     57.4303    219.2855   1.1709957210e+02   2.1607199266e+01    0.4419325     0.206924  64.76  0.002158579    2.256    0.557
        78 -12.7353    180.1813     51.5449   5.2697524320e+01   3.3562336270e+01    0.7985103    0.7345969   9.42 0.0008327284    1.246    0.197
        79  -9.6561     72.1490    245.2549   1.1655723541e+02   1.4711781684e+01    0.1839204    0.1136752  67.56 0.0004319236    1.474    0.322
        80  -8.8124     80.8704    220.1407   1.1251927556e+02   1.8283065720e+01    0.1945497    0.1388459  63.69  0.000400989    1.241    0.194
        81 -19.4518      9.5259    144.4301   1.2064573393e+02   4.3415247041e+01     19.17549     3.482433 -75.90   0.05621268    5.379    0.814
        82  -9.8579    157.9316    235.6494   9.9081406892e+01   3.5107167265e+00    0.2155127    0.1908886 -58.22 0.0007640916    1.379    0.275
