#   1 NUMBER                 Running object number                                     
#   2 MAG_AUTO               Kron-like elliptical aperture magnitude                    [mag]
#   3 X_IMAGE                Object position along x                                    [pixel]
#   4 Y_IMAGE                Object position along y                                    [pixel]
#   5 X_WORLD                Barycenter position along world x axis                     [deg]
#   6 Y_WORLD                Barycenter position along world y axis                     [deg]
#   7 A_WORLD                Profile RMS along major axis (world units)                 [deg]
#   8 B_WORLD                Profile RMS along minor axis (world units)                 [deg]
#   9 THETA_WORLD            Position angle (CCW/world-x)                               [deg]
#  10 FWHM_WORLD             FWHM assuming a gaussian core                              [deg]
#  11 ELONGATION             A_IMAGE/B_IMAGE                                           
#  12 ELLIPTICITY            1 - B_IMAGE/A_IMAGE                                       
         1 -14.7506    212.8754     26.0739   3.8380447071e+01   2.9379151873e+01    0.9794009    0.7077177 -42.58  0.005648563    1.326    0.246
         2 -18.7470    237.8059     35.7499   3.8230947246e+01   2.2639925871e+01      8.54283     5.380727 -32.41   0.03617014    1.636    0.389
         3 -13.5055    134.6069     19.0394   4.6823606969e+01   4.9112740903e+01    0.8436639    0.2823187 -19.93  0.002939481    3.983    0.749
         4 -12.1786    143.5859     18.9464   4.5253820659e+01   4.6935702786e+01     0.407645    0.2748052  13.75 0.0009782772    2.004    0.501
         5 -10.5987    189.4818     14.6601   3.7941002247e+01   3.6165658006e+01    0.2966358    0.1578522 -61.04  0.001420842    1.978    0.494
         6 -12.3650    119.2292      5.2881   4.4815600243e+01   5.4039660158e+01    0.3347581    0.2096949   9.78  0.001736966    2.017    0.504
         7 -10.4622    181.0053      4.6815   3.6214652602e+01   3.9186294457e+01    0.1859356    0.1760538  -3.43  0.000571879    1.326    0.246
         8 -11.8639    159.0809      1.9792   3.7870325032e+01   4.4723484491e+01    0.2883416    0.2024697  34.34  0.001626972    1.707    0.414
         9 -10.9111    104.8363      2.3960   4.6513582961e+01   5.7587146658e+01     0.194988   0.09236632  52.09  0.000947801    1.729    0.422
        10 -11.6845    182.4808    211.9678   8.6609829254e+01   3.3007838017e+00    0.2498899     0.177337  49.72 0.0008469903    1.580    0.367
        11 -14.2182     14.5254    173.8254   1.1968200924e+02   3.6656055484e+01    0.6265316    0.4573975 -35.35  0.003664692    1.947    0.486
        12 -11.3357    250.1773    177.2040   6.7432013758e+01  -1.9956949937e+00    0.3331165    0.1595698 -29.89  0.001586725    1.909    0.476
        13 -11.5410    133.4243    144.2292   8.4251256169e+01   2.6501457928e+01     1.244938    0.2844343 -54.99  0.002222402    9.544    0.895
        14 -11.4645    245.4808    174.4594   6.7656380806e+01  -8.3668179935e-01    0.2191075    0.1826654   9.16  0.000796559    1.183    0.155
        15 -12.6051    177.6095    141.2189   7.3214911550e+01   1.7923428543e+01    0.3089361    0.2361371  -7.64  0.001428505    1.653    0.395
        16 -13.6469    188.9968    138.6915   7.0246719370e+01   1.6038133410e+01    0.5958395    0.3962427  42.65  0.001302597    1.580    0.367
        17 -13.0030    211.9578    135.7804   6.5163088546e+01   1.1877446328e+01     0.427287    0.3141299 -52.53  0.001719823    1.431    0.301
        18 -13.3190    239.3943    172.4304   6.8266646912e+01   4.6254697659e-01    0.4878953    0.3676178  17.36  0.001446245    1.391    0.281
        19 -10.3207    209.8807    170.1133   7.3096747842e+01   5.9456715016e+00    0.1946185     0.186906 -42.26 0.0003045036    1.199    0.166
        20 -13.0859    190.3335    131.5225   6.8278370374e+01   1.7179942211e+01    0.3594515    0.3383864  57.14  0.001726106    1.143    0.125
        21 -11.3440    136.0000    130.7755   8.0427854948e+01   2.9063638413e+01    0.7953281   0.08814356 -46.94  0.001416591    8.824    0.887
        22 -11.4594    134.9936    122.0591   7.8505782505e+01   3.1253401150e+01    0.8234734    0.1672671 -46.80  0.001978059    4.858    0.794
        23 -12.0967    160.6104    128.5604   7.3928314693e+01   2.4253207325e+01    0.4269724     0.320752 -47.77  0.001723211    1.306    0.234
        24 -12.6246    210.8011    123.8085   6.2582935426e+01   1.4338946069e+01    0.3687078    0.2553582 -26.39  0.001767503    1.510    0.338
        25 -12.1421    163.5852    121.8258   7.1561052530e+01   2.5025878902e+01    0.3862041    0.2480706 -55.90  0.001098304    1.722    0.419
        26 -12.4182    158.9691    115.6652   7.1023126485e+01   2.7357709866e+01    0.4842143    0.3215129 -68.51 0.0008042035    2.097    0.523
        27 -12.1208    167.7126    114.0881   6.8656875155e+01   2.5703380993e+01    0.4460513    0.3696188 -36.14   0.00117639    1.191    0.160
        28 -11.8478    245.4685    164.8309   6.5704926102e+01   7.1154739813e-01    0.2875197    0.1863001  -0.48  0.001435853    1.993    0.498
        29 -12.0472    134.5869    108.3284   7.4982639477e+01   3.4384951092e+01     1.215315    0.2049604 -44.74  0.002685831    5.786    0.827
        30 -15.3491    221.8880     63.7417   4.6402623388e+01   2.2197223367e+01      1.33663    0.7160261  80.03   0.00584629    2.387    0.581
        31  -9.7726    178.3186    110.2732   6.5424188960e+01   2.4054351586e+01    0.1505704    0.1218679  10.81  0.000321211    1.567    0.362
        32 -11.6443    112.7116    108.0420   8.0823307058e+01   3.9077899955e+01    0.2308276    0.2015302 -43.91  0.001166652    1.109    0.098
        33  -9.8377    140.7367    105.6635   7.2695414629e+01   3.3590509665e+01    0.1560636    0.1245827  -7.85 0.0003869134    1.585    0.369
        34 -11.1368    127.1335    104.8732   7.5982032142e+01   3.6763264704e+01    0.2476034    0.2177318 -79.85  0.001047011    1.278    0.218
        35 -11.6329    210.9563    103.9332   5.7785070391e+01   1.7938828676e+01    0.2181953    0.1980141 -51.41 0.0003381644    1.032    0.031
        36 -11.0959    146.6375    102.3886   7.0345552014e+01   3.2939627198e+01    0.2813415    0.2615266   7.28 0.0004793223    1.175    0.149
        37 -12.5341    156.3300     97.7357   6.6791131335e+01   3.1641379676e+01    0.6394445    0.5082722  36.69  0.003077442    1.366    0.268
        38 -11.0816    133.1967     98.1497   7.2497304945e+01   3.6867124664e+01    0.2777241     0.238332 -80.15 0.0003711931    1.346    0.257
        39 -13.9513     68.7670    144.4171   1.0182024006e+02   3.7767571182e+01     1.200368     1.081409  33.17  0.004865238    1.245    0.197
        40 -11.6704    139.9406     92.4469   6.9154478618e+01   3.6507956998e+01    0.3129358    0.2786681  82.82 0.0006041229    1.240    0.194
        41 -13.2508     45.7802    160.4807   1.1054835802e+02   3.6702249636e+01    0.3657013    0.3196935  -0.48 0.0009749551    1.527    0.345
        42  -9.8740    131.7096     91.3225   7.0900040579e+01   3.8610479676e+01    0.1558799    0.1229058 -77.81  0.000255463    1.608    0.378
        43 -11.2019    201.2099     88.3842   5.5531449901e+01   2.2871708079e+01    0.3587172     0.263963  75.85 0.0009194243    1.553    0.356
        44 -12.6866    153.6014     87.8175   6.4599812599e+01   3.4219859162e+01    0.3471534    0.2689812 -38.98  0.001669839    1.277    0.217
        45 -11.2688    153.6711     78.7426   6.1942358036e+01   3.5892930678e+01    0.5619705    0.1906002  44.33  0.001718918    3.398    0.706
        46 -13.8268    168.3848     75.3637   5.7925707476e+01   3.2931839610e+01    0.5371094    0.4337718 -26.71  0.001824025    1.335    0.251
        47 -10.6871    159.9256     77.1201   6.0134690956e+01   3.4675190770e+01    0.2214922    0.2154529 -67.80 0.0004378009    1.008    0.008
        48 -14.3958     52.7943    156.0043   1.0808069166e+02   3.6974401281e+01    0.8940521    0.8004798 -78.57  0.003141966    1.057    0.054
        49 -11.3559    116.8146     69.3770   6.8030076911e+01   4.6183946624e+01    0.2212971    0.1334826  38.86 0.0007288693    1.742    0.426
        50 -14.6950     17.1919    178.9541   1.1949657600e+02   3.5213785786e+01    0.7626718     0.657717 -45.78  0.005179089    1.506    0.336
        51 -12.5923    149.4473     35.6841   4.9577461141e+01   4.3582831313e+01    0.5371475    0.1756772 -27.52  0.001846777    3.454    0.710
        52 -10.8690    160.0352     34.0087   4.7255194757e+01   4.1172894194e+01    0.2252503    0.1564424 -66.65 0.0006102995    1.625    0.385
        53 -12.0040    117.9791     31.4785   5.4562747681e+01   5.1687520449e+01    0.2132269     0.183964 -20.61 0.0007434271    1.231    0.188
        54 -12.8913    144.3819     28.0354   4.8043978384e+01   4.5751695016e+01     0.522768     0.222658 -29.22  0.002170173    2.483    0.597
        55 -11.0636    159.8729     29.4667   4.5914820172e+01   4.1762146849e+01    0.2299965    0.1967094 -34.90 0.0005235443    1.253    0.202
        56 -12.3555    154.1169     27.0597   4.6095016668e+01   4.3465161988e+01     0.426244    0.3636024 -83.97  0.002487598    1.174    0.148
        57 -12.5643    192.5403    194.5699   8.1404534818e+01   4.6365702092e+00    0.9721063    0.5117102 -64.50  0.002658659    7.069    0.859
        58 -11.1002    158.6096     22.3536   4.3968810678e+01   4.2880456002e+01    0.4261704    0.2337764 -78.93  0.001764592    2.534    0.605
        59 -13.4006      2.3541    191.9033   1.2365713673e+02   3.3572558503e+01    0.6994863     0.209781 -76.31  0.003126437    2.671    0.626
        60 -12.8512    208.3194    186.4338   7.6716860802e+01   3.3279073332e+00    0.4053796    0.3227379 -84.29  0.002071062    2.191    0.544
        61 -13.4854     59.5443    151.9592   1.0564563928e+02   3.7128876138e+01    0.6088942    0.4072054 -88.78  0.001390325    1.602    0.376
        62 -12.2916    190.0036    149.0055   7.2420299295e+01   1.3778936170e+01    0.3367587    0.2136338 -59.00  0.001432021    2.021    0.505
        63 -14.8697    186.3673     78.6476   5.5513275437e+01   2.8031175092e+01     1.972046     1.031297  39.25  0.007593248    2.571    0.611
        64 -14.8105    203.0859     70.5026   5.0665788934e+01   2.5433164502e+01      1.32147     1.045093  54.90  0.007117384    1.355    0.262
        65 -10.6764    202.0026    248.0214   8.8714918990e+01  -5.3059729022e+00     0.180757     0.145585  15.98 0.0003477255    1.010    0.010
        66 -12.8605    126.1595     23.5897   4.9989277062e+01   5.0665618748e+01    0.4092535    0.2456938  12.51  0.001827795    2.436    0.589
