#   1 NUMBER                 Running object number                                     
#   2 MAG_AUTO               Kron-like elliptical aperture magnitude                    [mag]
#   3 X_IMAGE                Object position along x                                    [pixel]
#   4 Y_IMAGE                Object position along y                                    [pixel]
#   5 X_WORLD                Barycenter position along world x axis                     [deg]
#   6 Y_WORLD                Barycenter position along world y axis                     [deg]
#   7 A_WORLD                Profile RMS along major axis (world units)                 [deg]
#   8 B_WORLD                Profile RMS along minor axis (world units)                 [deg]
#   9 THETA_WORLD            Position angle (CCW/world-x)                               [deg]
#  10 FWHM_WORLD             FWHM assuming a gaussian core                              [deg]
#  11 ELONGATION             A_IMAGE/B_IMAGE                                           
#  12 ELLIPTICITY            1 - B_IMAGE/A_IMAGE                                       
         1 -13.0080    203.8434     51.5588   1.8430452896e+01   2.7590570939e+01    0.9704534    0.9172687  84.36  0.003472924    1.088    0.081
         2 -12.9488    213.0552     44.4530   1.5512274293e+01   2.6430731897e+01    0.6756593    0.6371248  46.09  0.001360803    1.262    0.208
         3 -12.9723    240.2436     20.9579   7.5029829196e+00   2.3368560946e+01    0.8473824    0.6948881 -66.80  0.004264911    1.028    0.027
         4 -12.1012      3.1653      9.2538   6.0755167281e+01   7.2164422258e+01    0.9540483     0.238127 -43.46  0.004333954    3.216    0.689
         5  -9.3059    158.1780      8.8163   1.3224781416e+01   4.3585736931e+01    0.1769627    0.1383487  46.72 0.0005111334    1.291    0.226
         6 -15.1816      4.5977    146.1617   9.0836782823e+01   4.3746411632e+01     7.203651    0.7134672 -71.48   0.01955203    6.415    0.844
         7  -8.9429    114.7465    250.5693   7.8198345509e+01   7.7733950750e+00    0.1827739   0.09254866  47.81 0.0009533024    1.677    0.404
         8 -10.3576     70.4215    241.8260   8.5791321948e+01   1.5734293731e+01    0.6838948    0.3774881  73.41  0.003313451    2.034    0.508
         9 -10.2606     74.7730    249.2750   8.5647783788e+01   1.3769731322e+01    0.2523798    0.1875637 -57.51  0.001224834    1.653    0.395
        10 -11.3058     79.6484    247.6681   8.4587644402e+01   1.3391833455e+01    0.4775245    0.2283158  55.56  0.001596011    1.920    0.479
        11 -10.5348     75.9900    243.2128   8.4861543220e+01   1.4716335113e+01    0.2095147    0.1512719 -76.49 0.0007552906    1.451    0.311
        12 -15.6290     57.2108    233.5769   8.7575608317e+01   1.9055089659e+01     6.072582     3.765752  19.58   0.02329696    2.658    0.624
        13 -17.3696      7.6918    229.2257   9.6386994961e+01   2.5489481505e+01     1.970742     1.790833 -79.63  0.009608342    1.448    0.309
        14 -14.9255     13.2646    242.7760   9.6167195712e+01   2.2344598175e+01    0.7911438    0.3105659 -69.70  0.004501832    2.398    0.583
        15  -9.0932    141.5068    212.0368   6.7535452947e+01   1.0438678840e+01    0.1903305    0.1361415 -55.06  0.001017638    1.567    0.362
        16 -15.7385      8.4203    207.4544   9.4948228618e+01   2.9814960448e+01     0.945366    0.8258016 -20.31  0.006373233    1.844    0.458
        17 -10.4843    190.9454    191.4117   5.3503395454e+01   5.4655300142e+00    0.7048036    0.3602777 -62.83  0.002011556    6.197    0.839
        18  -9.8840     58.5866    197.5120   8.3725775296e+01   2.6403699874e+01    0.3016562    0.2002926  66.70   0.00124694    1.458    0.314
        19  -9.0993     69.9065    195.6732   8.0995699441e+01   2.5292180439e+01    0.2784156    0.1409167 -48.14  0.001264914    2.392    0.582
        20 -15.3377     33.9691    185.2093   8.7861188895e+01   3.2093606200e+01     5.061858     2.481054  79.21   0.02038618    2.435    0.589
        21 -10.7474    161.4353    186.5287   5.8770583055e+01   1.1828414134e+01    0.4522552    0.2473495 -57.10  0.001811945    2.321    0.569
        22 -10.8587     76.7137    183.5331   7.7830249493e+01   2.7064194921e+01    0.4005056    0.2601315  86.91  0.000973846    1.792    0.442
        23 -10.2921    176.8514    184.8929   5.5146496030e+01   9.2584400750e+00    0.2263953    0.1924618   2.66  0.001091402    1.224    0.183
        24  -9.5853    109.2936    240.8983   7.8147148851e+01   1.0297381864e+01    0.2780229    0.1813625 -26.38  0.001378991    2.841    0.648
        25 -10.8002     98.9722    180.9299   7.2149690453e+01   2.4218539724e+01    0.2967519    0.2763273  71.57 0.0006664072    1.011    0.011
        26 -10.0411    128.9172    181.1306   6.5108007396e+01   1.8983075117e+01    0.2266724    0.1919356  69.88 0.0005673313    1.275    0.215
        27  -8.4970     93.5398    180.5231   7.3382422269e+01   2.5188176357e+01     0.139233    0.1286615  78.94 9.465668e-05    1.003    0.003
        28 -10.6258    172.7047    177.3759   5.4536268080e+01   1.1495826900e+01    0.3357453    0.2928879 -16.72 0.0006964729    1.179    0.152
        29  -9.9978    126.4744    176.0385   6.4748826186e+01   2.0538656719e+01    0.2253812    0.1432928 -52.67  0.001039975    1.615    0.381
        30 -10.5640    178.9971    167.4854   5.1152041351e+01   1.2215632919e+01    0.3804277    0.3021126  30.02   0.00177103    1.265    0.209
        31 -11.1212    182.4872    174.0037   5.1774197236e+01   1.0271252743e+01    0.5175359    0.3360051  38.28  0.002475583    1.518    0.341
        32 -10.6863    181.4766    170.5135   5.1263137354e+01   1.1139998821e+01     0.405136    0.2605047  23.76  0.001815538    1.852    0.460
        33 -10.3322    198.8405    171.1885   4.7851011630e+01   7.6798999860e+00    0.4639219    0.2127544 -51.64    0.0015765    2.868    0.651
        34 -14.0098     12.9407    218.3451   9.4794888581e+01   2.7141217196e+01    0.5076743    0.2093202  70.98  0.001631147    2.467    0.595
        35 -10.4672    102.8338    170.6885   6.9488573163e+01   2.5915432296e+01    0.3583071    0.2376526  78.72  0.001582887    2.080    0.519
        36 -10.5403    230.4852    166.5038   4.0936265229e+01   2.7231271399e+00    0.2475923    0.1217556 -37.12 0.0001309831    1.871    0.466
        37 -11.3270    247.1220    165.2884   3.7855311680e+01   9.4041220866e-02    0.5389424    0.2634606 -47.23  0.002406566    2.348    0.574
        38 -11.1204     67.0362    126.6774   7.0755343400e+01   4.1965827612e+01    0.7976196    0.6050606 -50.32  0.004046189    1.224    0.183
        39 -12.2407     77.7029    153.3607   7.2838010781e+01   3.4013107981e+01    0.9963331    0.8169409 -23.03  0.005366811    1.541    0.351
        40 -13.7828     68.4386    145.1530   7.3868267739e+01   3.7323836971e+01     2.226799     1.287975  86.09  0.002434169    2.779    0.640
        41 -10.7852     52.1606    131.9682   7.6066496614e+01   4.2622100802e+01    0.3646485    0.2023769  30.06 0.0002740682    2.040    0.510
        42 -11.0624     70.4884    159.5070   7.5751110238e+01   3.3587544968e+01    0.3281067    0.2604167  82.17 0.0009276332    1.296    0.228
        43 -10.2688     40.8088    164.1494   8.3905640349e+01   3.6215985296e+01    0.5817783    0.2711337  86.04  0.001615473    3.275    0.695
        44 -10.6083     52.3124    160.0679   8.0486474715e+01   3.5844411361e+01    0.5368609    0.2923433  64.24    0.0019914    2.300    0.565
        45 -10.4924    235.1628    159.9946   3.8763974700e+01   2.9940082816e+00    0.2681913    0.1932987  82.17  0.001230297    2.807    0.644
        46 -10.6395     32.7997    155.5224   8.4822492656e+01   3.9108197146e+01    0.4028633    0.2714752  73.35  0.001542208    1.542    0.352
        47  -9.8725     28.6878    155.3390   8.5834033789e+01   3.9560596661e+01     0.252281     0.170393  74.91 0.0007969631    1.510    0.338
        48 -10.6462    133.8329    146.3461   5.6916322880e+01   2.5753457825e+01     1.171739    0.2656528 -52.81  0.002645566    6.175    0.838
        49 -11.7605     86.5489    146.2768   6.9177076042e+01   3.4346368061e+01    0.6484361    0.4491212 -30.25  0.003033146    1.862    0.463
        50  -9.2957     26.5462    146.4266   8.5279241198e+01   4.1875236579e+01    0.2867365    0.1339221 -55.12  0.000810143    1.913    0.477
        51 -10.0897     22.6357    146.1245   8.6256382550e+01   4.2303654644e+01     0.322694    0.1979188  75.90 0.0003275141    1.782    0.439
        52  -9.3919     38.3468    146.2756   8.2156588446e+01   4.0737545589e+01    0.3094087    0.1506669  40.17  0.001008104    2.172    0.540
        53  -9.2054     35.4973    142.9824   8.2449691744e+01   4.1822242651e+01    0.2553384    0.1040065 -62.17  0.001126417    2.020    0.505
        54  -9.7944     31.9591    143.4839   8.3465475189e+01   4.2057030938e+01    0.2539636    0.2217347  25.90 0.0009157429    1.384    0.278
        55 -10.4297     54.8083    147.5215   7.7949873746e+01   3.8547540357e+01    0.4494728    0.3633544 -16.69  0.002382215    1.631    0.387
        56  -9.3186     21.9423    136.9702   8.5275955730e+01   4.4532109695e+01    0.1917278    0.1537996 -67.21 0.0004240198    1.069    0.064
        57 -10.6950    103.8924    132.0918   6.1487219307e+01   3.4754746516e+01    0.7566624    0.4844206  -9.82  0.002767214    3.091    0.676
        58 -11.6385     88.4250    133.1660   6.5997537089e+01   3.7171362457e+01    0.2799663    0.2565349 -45.53 0.0004335749    1.083    0.076
        59  -8.9536     44.7717    134.4523   7.8590291307e+01   4.2880687599e+01    0.2343749     0.124685  36.11  0.001128518    2.043    0.511
        60 -11.4909     66.1050    163.2803   7.7460789346e+01   3.3295530516e+01    0.4579238    0.3430574 -11.93  0.002339571    2.031    0.508
        61  -9.1871     43.9643    129.4600   7.7982112728e+01   4.4169967901e+01    0.1818375    0.1334579  31.30 0.0004563946    1.552    0.356
        62  -9.3170    110.6416    126.8656   5.8436765700e+01   3.4714645870e+01    0.2542461    0.2091483  21.10 0.0008677971    1.377    0.274
        63 -10.0933     97.9003    122.0816   6.0827801836e+01   3.8157945209e+01    0.3004798    0.2484383   1.70  0.001028868    1.468    0.319
        64  -9.5744     75.0196    122.1026   6.7448601415e+01   4.1902967918e+01    0.4232849    0.2499045  76.69  0.001497454    3.561    0.719
        65  -9.7179    116.9443    122.2144   5.5607461579e+01   3.4554949784e+01    0.2501969    0.1817606   7.14    0.0010782    1.964    0.491
        66  -9.9620     54.2747    117.9159   7.2774615761e+01   4.5728096335e+01     0.346301    0.1721883 -61.25  0.001538626    1.840    0.457
        67 -13.2748     20.9583    195.2707   9.1563068779e+01   3.1207979643e+01    0.5982856    0.3114307  67.08  0.002509193    1.861    0.463
        68  -9.0684    107.0590    116.6479   5.6924901984e+01   3.7721875940e+01    0.2003907    0.1890061  27.94 0.0003798768    1.100    0.091
        69  -9.6916    205.2952    110.2475   3.2763707570e+01   1.7692716918e+01    0.2816013    0.2046305  45.59 0.0008851952    1.469    0.319
        70 -10.1751    115.2373    108.6051   5.2581853611e+01   3.7914025249e+01    0.2857631    0.2459835  18.40   0.00145636    1.271    0.213
        71  -9.9156    100.8903    117.3909   5.8844618475e+01   3.8699264808e+01    0.3040949    0.2275694 -81.80 0.0009937596    1.781    0.438
        72  -9.3969    134.8615    107.0155   4.6984030185e+01   3.4145337777e+01    0.3942989    0.1688332 -54.43  0.001249389    3.138    0.681
        73 -10.2380     28.8463    107.1565   7.8576321363e+01   5.0964302785e+01    0.2388363     0.194238 -31.48 0.0006092864    1.298    0.230
        74 -10.5436     24.4473    105.5589   7.9679106782e+01   5.1717013200e+01    0.3460908    0.2528469 -82.19  0.001706033    1.427    0.299
        75  -9.3388    120.3255    103.3214   4.9773447385e+01   3.8012164901e+01    0.1572101    0.1211421  -1.90 0.0007047265    1.683    0.406
        76  -8.7651     46.1838    102.3848   7.2032834321e+01   5.0318612128e+01    0.1695786    0.1228736  42.63 0.0003516792    1.596    0.373
        77  -9.5997     32.6359     96.6181   7.5254982585e+01   5.3043862965e+01    0.3859446    0.1822212  54.89  0.001478182    3.935    0.746
        78  -9.9667     51.8957     93.2394   6.8004300441e+01   5.1724521088e+01    0.2659029    0.2051438  71.31  0.001426955    1.794    0.443
        79 -11.1647     19.2289     90.6055   7.8552678347e+01   5.5546320723e+01    0.4106717    0.1994244  37.11  0.002067573    2.473    0.596
        80 -14.6014      8.5552    185.8609   9.3403815517e+01   3.4431746025e+01      1.68166    0.6225296 -63.42  0.007039694    2.334    0.572
        81 -10.1506    167.1495    223.6653   6.4062111791e+01   3.9637040393e+00    0.2131258    0.1880742 -62.78  0.001321368    1.412    0.292
        82  -8.7014    234.2818     85.6811   2.2428059979e+01   1.5645051703e+01    0.1398481   0.09513384 -62.22 0.0002743361    1.583    0.368
        83  -8.9125     39.0172     85.5101   7.0525308818e+01   5.4896442032e+01    0.1759674    0.1014959  52.20 0.0008105134    2.580    0.612
        84  -8.9751    184.5117     77.4687   2.8155810360e+01   2.8191369152e+01    0.1446027     0.140713 -73.28 9.089167e-05    1.020    0.019
        85 -10.0870     44.0076     74.3196   6.5782656782e+01   5.6745749012e+01    0.2318346    0.1943714  70.96  0.001369799    1.690    0.408
        86 -10.9463     28.7774     67.2736   6.9550197878e+01   5.9778362054e+01    0.2908529    0.2081073  29.10 0.0003418945    1.616    0.381
        87 -12.2536    191.2832     60.2769   2.2488143892e+01   2.9296647922e+01    0.6548784     0.456446  42.31 0.0009096072    1.638    0.390
        88  -9.2572    241.5312    249.5184   5.4337648500e+01  -1.1004487004e+01    0.1156996   0.08758811   7.74 0.0002672455    1.005    0.005
        89 -10.4991    124.6901    247.8820   7.5960423026e+01   6.7110807659e+00    0.3121835    0.1428577 -53.55  0.001551034    2.578    0.612
        90 -11.7068     13.0713     60.0210   7.3803871241e+01   6.2533563155e+01    0.4172979       0.2953 -81.81 0.0007392573    1.996    0.499
        91 -14.0153     27.7010    232.2916   9.2995533252e+01   2.2820133712e+01    0.8582645    0.4017513  83.59  0.001437024    2.170    0.539
        92 -10.1246     30.1757     34.2315   5.8094500369e+01   6.5774353196e+01    0.2115306    0.1326428 -28.93 0.0005393974    1.360    0.265
        93  -9.9858    101.4529    246.2361   8.0279954723e+01   1.0519576055e+01    0.3631526    0.1591997 -60.47  0.001793585    2.620    0.618
        94 -10.3874    102.4725    241.0246   7.9505822924e+01   1.1306043558e+01    0.4134459     0.216478 -41.67  0.001978957    2.921    0.658
        95  -9.1940     60.4871     21.0405   4.0314791286e+01   6.3465345327e+01    0.1844234    0.1452192  21.91 0.0004493771    1.112    0.101
        96  -9.1815    189.3413     14.9445   1.1022556976e+01   3.5517036897e+01    0.1764904    0.1601716 -59.81 0.0006552347    1.139    0.122
