#   1 NUMBER                 Running object number                                     
#   2 MAG_AUTO               Kron-like elliptical aperture magnitude                    [mag]
#   3 X_IMAGE                Object position along x                                    [pixel]
#   4 Y_IMAGE                Object position along y                                    [pixel]
#   5 X_WORLD                Barycenter position along world x axis                     [deg]
#   6 Y_WORLD                Barycenter position along world y axis                     [deg]
#   7 A_WORLD                Profile RMS along major axis (world units)                 [deg]
#   8 B_WORLD                Profile RMS along minor axis (world units)                 [deg]
#   9 THETA_WORLD            Position angle (CCW/world-x)                               [deg]
#  10 FWHM_WORLD             FWHM assuming a gaussian core                              [deg]
#  11 ELONGATION             A_IMAGE/B_IMAGE                                           
#  12 ELLIPTICITY            1 - B_IMAGE/A_IMAGE                                       
         1 -13.3979    170.2982     55.7924   6.0491586268e+01   3.5286589793e+01     1.880908      1.15639  28.03  0.005559467    2.273    0.560
         2 -13.4149    185.0460     41.2582   5.3497981510e+01   3.3571227669e+01     1.048671    0.9956956  36.55  0.003547764    1.135    0.119
         3 -13.8470    207.8322     10.2119   4.1847061035e+01   3.1451841391e+01     1.049614      1.01496  59.81   0.00394436    1.192    0.161
         4 -12.2378    236.7029      2.8191   3.7519396927e+01   2.5259807488e+01     1.411413    0.3031803  75.42  0.004510937    4.690    0.787
         5 -10.9701     57.4609      2.9807   6.9766983863e+01   6.7481503986e+01    0.2172329    0.1776444  53.62  0.001399617    1.653    0.395
         6 -11.6722     61.3076    204.2765   1.1901555775e+02   2.5023979083e+01    0.2219831     0.191264 -89.74 0.0005155068    1.195    0.163
         7 -13.5426    246.5030    239.3023   8.8342945173e+01  -1.0044387452e+01     1.658573    0.6691146 -27.07  0.008613762    2.690    0.628
         8 -10.9903    193.2346    195.5188   9.0470265192e+01   4.4763405261e+00     1.055845    0.5561361 -62.73  0.003263452    5.993    0.833
         9  -9.4365     87.7559    202.7001   1.1346534834e+02   2.1627080871e+01    0.2022269    0.1909713 -28.72  0.001343149    1.487    0.328
        10  -9.6932     16.0504    201.1830   1.2750756675e+02   3.0815127736e+01    0.1277381    0.0917068  58.20  0.000390021    1.240    0.193
        11 -10.2382    204.3250    200.4316   8.9214909378e+01   1.6961981659e+00     0.261885    0.1133551  37.51   0.00113411    2.098    0.523
        12 -10.2403     80.3678    194.6026   1.1407052648e+02   2.4388141592e+01     0.498737    0.2050033  53.67  0.001602973    2.396    0.583
        13 -11.5286     65.5814    194.2342   1.1714511898e+02   2.6537506321e+01    0.3458727    0.2199041 -49.97  0.001265675    2.025    0.506
        14 -12.2079    150.0741    189.4775   9.8282566947e+01   1.3628125262e+01     0.560112    0.3693365 -65.20  0.002036395    1.952    0.488
        15  -9.2228     15.4983    187.4643   1.2674446436e+02   3.3682453176e+01    0.1128924   0.08679631  85.08 6.630564e-05    1.079    0.073
        16 -19.4207     34.0549    145.8683   1.1895310015e+02   4.1127012601e+01     19.19978     5.224284 -73.69   0.06795666    3.620    0.724
        17 -10.6145     71.5450    243.3949   1.2045551527e+02   1.6301431683e+01    0.2229624    0.1311713  88.04 0.0007035974    1.764    0.433
        18  -9.8552     62.8749    250.7549   1.2248601985e+02   1.6189590050e+01    0.1474538    0.0832094  23.14 0.0005943782    3.946    0.747
        19 -11.3939    150.9959    179.9832   9.6406886896e+01   1.5289566908e+01    0.4323055    0.2963163 -74.20  0.002006578    2.078    0.519
        20 -11.3451    145.2561    180.5951   9.7776503934e+01   1.6266243395e+01    0.3315156     0.275458  18.93 0.0009291746    1.379    0.275
        21 -12.1634    141.6866    175.8214   9.7710961997e+01   1.7907920113e+01    0.6106367    0.4366025 -80.31  0.001684595    1.886    0.470
        22 -10.7685    188.6233    176.1700   8.7690668656e+01   8.6334855334e+00    0.6513651    0.3745401 -56.42  0.001608996    2.511    0.602
        23 -11.6086     70.5114    207.1180   1.1745138290e+02   2.3214378306e+01    0.4807786    0.2801818  26.10  0.001069994    2.518    0.603
        24  -8.7981    194.4695    172.5117   8.5763200323e+01   8.1258151492e+00    0.1432282    0.1302762  16.94 1.070184e-05    1.009    0.009
        25  -9.4493    156.4169    189.7128   9.6971722564e+01   1.2392746897e+01    0.1770928    0.1343444 -34.12 0.0008549896    1.530    0.347
        26 -10.2041      2.0612    162.7016   1.2781487105e+02   4.0124303240e+01    0.1491503    0.1385355 -82.98 0.0005496275    1.363    0.267
        27 -12.7396     75.1913    248.9953   1.2025875309e+02   1.4858808810e+01    0.3117557    0.1532825 -62.39  0.001859457    2.369    0.578
        28 -10.9175     93.9509    156.9178   1.0562842751e+02   3.0628423101e+01    0.2642013    0.2447836 -81.65 0.0003517987    1.069    0.064
        29  -9.0510    149.3977    156.1780   9.2128779383e+01   2.0455160701e+01    0.2131548    0.1422108 -60.55 0.0009474932    1.747    0.428
        30 -11.1837    133.8493    145.8133   9.3630872973e+01   2.5853223552e+01     1.275723    0.3137522 -54.38  0.003015767    5.920    0.831
        31 -12.2626     99.3675    150.5280   1.0315680259e+02   3.1205989248e+01     0.611077    0.4825342 -31.86  0.003158874    1.611    0.379
        32 -10.6059    113.2886    151.1420   9.9787885626e+01   2.8608401181e+01    0.4150781    0.2476078  66.95  0.001614878    2.306    0.566
        33  -9.4543    174.6761    149.0810   8.4896950831e+01   1.6591895971e+01     0.259319    0.2086756  58.18 0.0006671697    1.343    0.255
        34  -9.9434    187.4178    151.6889   8.2759178084e+01   1.3369024667e+01    0.3173119    0.2160887 -73.89  0.001271077    2.614    0.617
        35  -9.9225    143.4885    144.9714   9.1119114307e+01   2.4066523726e+01    0.2383631    0.1506268 -49.22  0.001041056    1.620    0.383
        36  -9.2710    113.4371    142.2441   9.7978054045e+01   3.0621364291e+01    0.2029757    0.1398674 -68.87 0.0006491891    1.600    0.375
        37 -11.5734    109.4738    137.8220   9.8082006951e+01   3.2377265980e+01    0.6818785    0.3463787 -39.00  0.002591155    2.503    0.601
        38 -11.7606     98.2519    136.5950   1.0077516321e+02   3.4659638591e+01    0.3031558    0.2779208 -48.93 0.0008490864    1.148    0.129
        39 -11.1597    105.7985    130.8025   9.7555170002e+01   3.4687070186e+01    0.4219593    0.3490507 -75.56  0.001172643    1.248    0.199
        40 -10.5617    135.6962    127.5047   8.9014654767e+01   2.9542468824e+01    0.7610915    0.1409794 -50.84  0.001509709    7.589    0.868
        41  -9.3375     98.2646    214.8617   1.1272964496e+02   1.7638256760e+01    0.2177889    0.1662471  12.30  0.001223919    2.125    0.529
        42 -10.0419    161.6718    128.8431   8.3065117799e+01   2.3571985907e+01    0.4250824    0.2955594  64.73  0.001831858    1.754    0.430
        43 -10.4044    116.3615    128.5007   9.4237164692e+01   3.3238721330e+01    0.3020404    0.2635816 -11.34 0.0007439091    1.390    0.281
        44 -10.5962    104.0853    124.1469   9.6541999027e+01   3.6558243650e+01    0.3162501    0.2650376 -24.19 0.0008628098    1.422    0.297
        45  -9.8910    120.4345    123.3173   9.1948535822e+01   3.3627802916e+01    0.2942471    0.1432877 -44.07  0.001113617    2.087    0.521
        46  -9.4315    152.2738    119.2979   8.2884786547e+01   2.7700226815e+01    0.2810175    0.1874705 -41.42  0.000720704    1.504    0.335
        47  -9.5361    111.0088    117.9769   9.3199599991e+01   3.6701555779e+01    0.2225031     0.216125 -63.55 0.0003174892    1.019    0.019
        48  -9.8327    231.2572    113.8836   6.5494667726e+01   1.0688438954e+01    0.2503089    0.2125682  40.10 0.0007436126    1.254    0.203
        49  -9.8629    167.6506    112.6940   7.7576296942e+01   2.5522210316e+01    0.3919916    0.2551181 -73.53  0.001436737    2.602    0.616
        50 -10.4755    134.8043    111.6572   8.5247713875e+01   3.3237137976e+01    0.5678945    0.1197591 -46.89  0.001371126    4.862    0.794
        51 -11.5463    119.2761    110.5196   8.9066847839e+01   3.6769542490e+01    0.5986164    0.3851297  63.50  0.002469622    2.031    0.508
        52 -10.0605    134.5979    104.6085   8.3404669608e+01   3.4815195479e+01    0.4522517    0.1504882 -44.19  0.001392637    2.961    0.662
        53 -10.7745     73.2117    103.4161   1.0071091617e+02   4.6533826537e+01     0.327075    0.1956178 -63.30   0.00113968    1.657    0.396
        54  -9.8542    205.4442    110.1819   6.9122232997e+01   1.7107452122e+01    0.3315498    0.2185642  42.52 0.0009824658    1.593    0.372
        55  -9.9830    186.4771     86.3237   6.6361278009e+01   2.6001029140e+01    0.3007304    0.3004166 -65.25  0.001198633    1.019    0.019
        56  -9.6255     74.4114     73.8945   9.2386303454e+01   5.3024096333e+01    0.2087278    0.1943284  44.78 0.0003953356    1.225    0.183
        57  -8.8396     85.9016    239.9662   1.1761714977e+02   1.4910030804e+01    0.1378511    0.1258672  40.40 0.0003601678    1.428    0.299
        58  -9.1632    167.5269    229.0725   1.0098477303e+02   3.7438790682e+00    0.1575872    0.1270737 -46.58 0.0005312317    1.522    0.343
        59 -12.6625    190.1236     34.9080   5.0862704172e+01   3.3095384807e+01    0.5827008    0.5719306 -56.75    0.0011995    1.084    0.077
        60 -11.8122     57.9324    214.4510   1.2058360086e+02   2.3429280131e+01     0.244691    0.1567716  57.12  0.001059478    1.275    0.216
        61 -11.6635    198.3187     23.0924   4.6397821563e+01   3.2433963647e+01    0.3483225    0.2690901 -21.73  0.001173565    1.454    0.312
        62 -11.6411     63.2520    221.4054   1.2016753205e+02   2.1394561829e+01    0.3947077    0.1896856  73.43  0.001469687    2.353    0.575
        63 -11.4013    190.8668     15.5993   4.5196010951e+01   3.5193788010e+01    0.4419757    0.2614163  79.25   0.00208809    1.658    0.397
        64 -12.8585     10.2142    206.4572   1.2886904881e+02   3.0327079978e+01    0.4462821    0.2183089  38.29  0.002793268    2.061    0.515
