#   1 NUMBER                 Running object number                                     
#   2 MAG_AUTO               Kron-like elliptical aperture magnitude                    [mag]
#   3 X_IMAGE                Object position along x                                    [pixel]
#   4 Y_IMAGE                Object position along y                                    [pixel]
#   5 X_WORLD                Barycenter position along world x axis                     [deg]
#   6 Y_WORLD                Barycenter position along world y axis                     [deg]
#   7 A_WORLD                Profile RMS along major axis (world units)                 [deg]
#   8 B_WORLD                Profile RMS along minor axis (world units)                 [deg]
#   9 THETA_WORLD            Position angle (CCW/world-x)                               [deg]
#  10 FWHM_WORLD             FWHM assuming a gaussian core                              [deg]
#  11 ELONGATION             A_IMAGE/B_IMAGE                                           
#  12 ELLIPTICITY            1 - B_IMAGE/A_IMAGE                                       
         1  -9.6057    109.2706     24.4856   2.3277060964e+01   5.4831455406e+01    0.4716661    0.1943576  45.40  0.001665486    3.224    0.690
         2  -8.7986    171.5757     12.9272   1.1908832286e+01   4.0682607315e+01    0.2856185    0.1810701 -56.92   0.00157308    1.289    0.224
         3 -10.2102    165.8785      5.3848   1.0144167016e+01   4.2770834966e+01    0.5266017    0.4584298 -48.65  0.003485902    1.195    0.163
         4  -9.6942    235.6948      1.9916   6.1474441087e+00   2.8769977650e+01    0.2896279     0.155189 -81.29  0.001880745    1.805    0.446
         5 -10.3579    208.6410    213.0941   5.0635897462e+01   3.8734777164e+00    0.3005212    0.2380421  40.22  0.002178908    1.890    0.471
         6  -8.5847    188.1827    204.1091   5.2742030040e+01   7.3795805659e+00    0.1892648    0.1327298  -9.45  0.001231864    1.295    0.228
         7  -7.5295    224.6646    203.3362   4.6647396102e+01   3.5332141447e+00   0.09092878   0.08337433 -42.19 -0.0005180853    1.745    0.427
         8  -9.3422    231.9856    200.4443   4.5119052449e+01   3.1749343528e+00     0.362496    0.1410518 -21.88  0.001644674    3.457    0.711
         9  -9.5383    249.3471    197.4276   4.2241116681e+01   1.8825029163e+00    0.2430385    0.1749969 -11.85  0.001963913    1.081    0.075
        10  -9.7951    225.0944    193.4650   4.5033912879e+01   4.7969137944e+00    0.2754319    0.1524185   0.99  0.001595086    2.226    0.551
        11 -10.1051    200.4142    194.1942   4.9058137251e+01   7.4334937942e+00     0.359667    0.2311427 -43.30  0.002259184    1.643    0.391
        12  -9.5483    230.0056    189.4229   4.3664333158e+01   4.8194358312e+00    0.2703083     0.106879 -33.39  0.001468278    2.072    0.517
        13  -8.1076    245.4672    181.9838   4.0319276321e+01   4.1896932460e+00    0.1663839   0.07954466 -33.49  0.001033879    1.603    0.376
        14  -8.8856    218.5181    168.4783   4.1839006383e+01   9.0534710984e+00    0.1879227    0.1009487  22.38  0.001032919    2.330    0.571
        15  -8.7020    124.0492    166.1866   5.9851016308e+01   2.3090562004e+01    0.2548355    0.2052806 -48.86  0.001388121    1.270    0.212
        16  -9.1811    198.2865    160.5949   4.3605779654e+01   1.2896136826e+01    0.3491571   0.08991133 -37.17  0.001235386    3.727    0.732
        17  -7.4138    242.6720    155.6871   3.6258599909e+01   7.9739338133e+00    0.1115909   0.07060806 -12.16 0.0007042919    1.669    0.401
        18  -8.0695    229.3016    155.3501   3.7965233026e+01   9.6258504672e+00    0.1179725   0.07430917 -13.99 0.0007038885    1.695    0.410
        19  -9.5042    220.6400    153.8589   3.8911876870e+01   1.0941767522e+01       0.1897    0.1489059   4.41  0.001187649    1.354    0.261
        20  -8.2179     80.3295    145.3314   6.8322248339e+01   3.5038461499e+01    0.1573875    0.1181626 -23.45 0.0007051797    1.717    0.418
        21  -9.4642    240.3853    131.0010   3.2083698384e+01   1.1672530525e+01    0.2217322    0.1527618 -37.58  0.001521063    1.141    0.123
        22  -9.5136     57.7366    128.2554   7.2960227100e+01   4.3012953487e+01    0.3908753    0.2683923 -60.38  0.001779902    1.445    0.308
        23 -10.0924    116.5367    119.7674   5.2250880279e+01   3.4866592203e+01    0.8109661    0.6123804 -40.51   0.00390563    1.373    0.271
        24 -11.6531    243.8443    105.7464   2.6890705670e+01   1.4720348926e+01    0.9732656     0.479053 -32.10  0.005555491    1.651    0.394
        25  -9.4535    228.6442    110.7766   2.9569243665e+01   1.6212600910e+01    0.3613587    0.2215219 -25.45  0.002122639    1.600    0.375
        26  -9.6108    159.9702     99.2204   3.7203093863e+01   3.0320037729e+01    0.4468455    0.3501038  14.14  0.002272539    1.807    0.447
        27  -8.7157    180.8297    100.8633   3.3986211806e+01   2.5904663228e+01    0.3614509    0.1794628 -33.66  0.001598057    1.992    0.498
        28  -7.7168    107.3188     95.3288   4.8491194457e+01   4.2373323396e+01    0.1551447    0.1273373  -6.25 0.0005926364    1.685    0.406
        29  -9.3897    211.4908     89.7277   2.7186114214e+01   2.2111548904e+01    0.4409376    0.2168936 -35.41  0.002231605    1.708    0.415
        30  -9.4311    210.0061     85.2718   2.6374235769e+01   2.3041699324e+01    0.3517196    0.3115451 -24.50  0.002239063    1.253    0.202
        31  -9.3591    240.6670     88.6733   2.3839488504e+01   1.7526706683e+01    0.3137067    0.1779775 -35.54  0.001566367    1.353    0.261
        32  -9.3401     84.0517     82.2893   5.2042631653e+01   5.0356224793e+01    0.5624313     0.401782  13.48  0.002305757    2.206    0.547
        33  -9.5017    213.7072     70.2039   2.2584871555e+01   2.4577322249e+01    0.5284789    0.2235088 -46.11  0.002568147    1.890    0.471
        34 -10.3267    139.3497     64.4578   3.1513497409e+01   4.1214174249e+01    0.7731645    0.4973849 -62.79  0.003559364    1.655    0.396
        35  -9.7635    184.3241     62.8714   2.4126566819e+01   3.1375744752e+01    0.5661817    0.3876039 -26.84  0.003041948    1.605    0.377
        36  -8.8635     86.7166     64.5635   4.5115800975e+01   5.3714619149e+01    0.3247672    0.2494876 -70.52  0.001533192    1.439    0.305
        37  -9.2513    250.2444     61.6923   1.7628626632e+01   1.9587246640e+01    0.5270824    0.1210449 -33.55  0.002126879    3.353    0.702
        38  -9.0483     95.3346     54.0011   3.8425159791e+01   5.3770915022e+01    0.4252833     0.352318   0.11  0.002079681    1.677    0.404
        39  -9.3474    234.3708     47.5034   1.5837570280e+01   2.3937380087e+01    0.3415101    0.2282354  -8.51  0.001956391    2.439    0.590
        40 -10.3389    199.6501     44.9375   1.8007125528e+01   3.0743251752e+01    0.6569559    0.3580702 -36.08  0.003513903    1.564    0.361
        41  -7.4500     13.3123     49.6525   7.7704270958e+01   6.9738382496e+01    0.1461422    0.1009265  59.96 0.0007046254    1.714    0.417
        42  -9.7460     81.3275     43.6844   3.8663109926e+01   5.9012658324e+01    0.5929181     0.438731 -16.17  0.002773194    1.846    0.458
        43  -9.2218     49.5251     42.6784   5.1713312206e+01   6.6185928435e+01    0.3908859    0.2906829  26.79  0.001935537    1.498    0.332
        44  -9.5617    140.4159     38.6727   2.3158105332e+01   4.5008175252e+01    0.4581617     0.322282 -60.90  0.002371722    1.323    0.244
        45  -9.0904    172.5064     36.6334   1.8481988919e+01   3.7656580530e+01    0.3525822    0.2271049 -38.37  0.001904301    1.402    0.287
        46  -9.2192    181.0106     25.6566   1.4680763339e+01   3.7119380994e+01    0.3689927    0.2981828  -7.55  0.002222217    1.714    0.416
        47  -9.5530    220.1476    220.5207   4.9908700258e+01   1.7729568503e+00    0.2666738     0.163755   1.39  0.001869053    1.464    0.317
        48  -9.2204    142.8562     17.9277   1.6004875114e+01   4.7019237264e+01    0.3488562    0.3000298  44.30   0.00207123    1.468    0.319
        49  -8.9711    202.8050     18.6417   1.1351785072e+01   3.3291475063e+01    0.2246795    0.1921828 -57.67 0.0009770825    1.162    0.139
        50  -9.2608    238.2420     15.6340   8.8992351682e+00   2.6929583837e+01    0.2468463    0.1682575  35.00  0.001510145    2.847    0.649
        51 -10.1878    213.4295    218.4092   5.0653255095e+01   2.6910401542e+00    0.2260439    0.1726981  40.86  0.001627716    2.047    0.512
        52  -9.0362    190.3515    217.5260   5.4375763703e+01   5.1861957576e+00    0.2839088    0.1921573 -39.36  0.001911477    1.556    0.357
