#   1 NUMBER                 Running object number                                     
#   2 MAG_AUTO               Kron-like elliptical aperture magnitude                    [mag]
#   3 X_IMAGE                Object position along x                                    [pixel]
#   4 Y_IMAGE                Object position along y                                    [pixel]
#   5 X_WORLD                Barycenter position along world x axis                     [deg]
#   6 Y_WORLD                Barycenter position along world y axis                     [deg]
#   7 A_WORLD                Profile RMS along major axis (world units)                 [deg]
#   8 B_WORLD                Profile RMS along minor axis (world units)                 [deg]
#   9 THETA_WORLD            Position angle (CCW/world-x)                               [deg]
#  10 FWHM_WORLD             FWHM assuming a gaussian core                              [deg]
#  11 ELONGATION             A_IMAGE/B_IMAGE                                           
#  12 ELLIPTICITY            1 - B_IMAGE/A_IMAGE                                       
         1 -15.5930      7.0617     69.4804   1.4425960171e+02   6.0200286897e+01     1.633848    0.7817918 -74.95  0.004171638    1.685    0.406
         2 -15.1444    119.2747     54.8549   9.8089721977e+01   4.7821549649e+01     1.557834    0.8508888  32.86  0.001917732    2.198    0.545
         3 -15.1322    122.7352     36.7640   9.0168192412e+01   5.0014362254e+01     1.584999    0.8568323  44.57  0.006577549    1.853    0.460
         4 -12.9599     34.8403     33.0403   1.2238209694e+02   6.6868204150e+01    0.6505624    0.5848268  89.21  0.003889285    1.447    0.309
         5 -13.2964      8.0628      3.1625   1.2578344197e+02   7.5542571169e+01     0.620626      0.45311 -58.29   0.00393904    1.362    0.266
         6 -14.4332     25.0877     31.5059   1.2702084204e+02   6.8144122788e+01     1.629962    0.8190821 -44.16  0.008108176    1.644    0.392
         7 -15.0518      8.0234     29.3707   1.3593474320e+02   6.9791032973e+01    0.9622797    0.8388981  44.70  0.006543652    1.463    0.316
         8 -14.8799     13.8853     20.3803   1.2943855230e+02   7.1484584132e+01    0.9775538    0.6784324 -25.64  0.003882921    1.394    0.282
         9 -14.4983     25.0754     13.8451   1.1947713536e+02   7.1924774717e+01    0.6740905    0.6250734  22.35  0.002669306    1.353    0.261
        10 -14.5905    166.2856     30.4160   7.8756440289e+01   3.9919766620e+01     1.255175    0.7246707  63.37  0.003391081    1.796    0.443
        11 -12.6506    139.3666     21.7277   8.0334811069e+01   4.7871598238e+01    0.6469302    0.6169921  78.08  0.002219741    1.148    0.129
        12 -13.7802    189.6106     26.6898   7.4112262610e+01   3.4454117863e+01     1.449257    0.5202308 -47.98  0.004366915    3.543    0.718
        13 -12.5064    186.4965     13.9813   7.0406613147e+01   3.6536166375e+01    0.3134903    0.2451234 -15.04 0.0006534753    1.260    0.207
        14 -11.1925    188.7688     11.0302   6.9202958884e+01   3.6241879074e+01    0.2721924    0.2235895 -10.18 0.0004585808    1.220    0.180
        15 -13.0846    214.7923     20.6101   6.9431694521e+01   2.9004657301e+01    0.4779829    0.3113849 -18.07  0.002003844    1.458    0.314
        16 -15.5906     99.4622     12.9965   8.5820475763e+01   5.8825537796e+01     1.533557    0.8630434  50.93  0.003523714    1.718    0.418
        17 -12.6088     39.3665     14.8611   1.1151168859e+02   7.0043111423e+01     0.512038    0.3026033  19.16  0.002084295    1.970    0.492
        18 -14.4534     42.3966      5.6495   1.0443057518e+02   7.1217143330e+01     1.000306    0.7555605 -25.59  0.005262178    1.135    0.119
        19 -12.2201    213.9342      9.9226   6.6440147796e+01   3.0217654728e+01    0.3924933    0.2554206  62.94  0.001931177    1.611    0.379
        20 -12.9425    218.7823     15.0246   6.7468588825e+01   2.8617854888e+01    0.4308539    0.3810903 -37.12  0.001500297    1.037    0.036
        21 -12.9439    223.1907      6.6796   6.4780153615e+01   2.8363337468e+01    0.7498115    0.3383527  -2.28  0.002938631    3.095    0.677
        22 -11.1969    201.8819     11.8271   6.8104565813e+01   3.2926080363e+01    0.2004126    0.1767652  31.76 0.0003773392    1.209    0.173
        23 -12.5234     46.7618     20.5949   1.1056235458e+02   6.7940087621e+01    0.5678949    0.3808787 -34.02  0.002706054    1.289    0.224
        24 -10.9735    153.8804      8.1022   7.2553211746e+01   4.5508682990e+01    0.2118379     0.190422 -57.08 0.0003045987    1.189    0.159
        25 -11.8059    121.9248      4.4031   7.6422414511e+01   5.4177586744e+01    0.4256578    0.2429958  87.71  0.001713119    2.515    0.602
        26  -9.9041    193.0000      3.9655   6.6538424945e+01   3.5807866817e+01    0.2278199   0.07499079 -18.70 0.0008033458    2.949    0.661
        27 -13.7449     17.6901     12.3847   1.2353675514e+02   7.2909043779e+01    0.6233566    0.3404619 -60.47  0.002508711    1.872    0.466
        28 -10.4369     67.6521      3.6785   9.1308565765e+01   6.6977200761e+01    0.1500972   0.09438163  16.55 0.0007049201    1.739    0.425
        29 -10.9232     59.2459      2.0212   9.3776562696e+01   6.8842899349e+01    0.2841803    0.1550723 -28.43  0.001369899    1.686    0.407
        30 -10.5570     62.4779      1.4921   9.2059592300e+01   6.8284817350e+01    0.2259991    0.1296233  47.66   0.00075539    1.797    0.443
        31 -11.5712    232.3359      1.7725   6.2811559416e+01   2.6732764547e+01    0.2565508    0.1725775  68.78 0.0009036157    1.610    0.379
        32 -11.9016     81.3919      1.8038   8.5308505028e+01   6.4262616225e+01    0.5428249    0.1494852  50.62  0.001886269    3.114    0.679
        33 -14.7738     13.9859    158.0441   1.4971466032e+02   3.9265346755e+01     1.935015     0.967721 -40.45  0.009805748    3.264    0.694
        34 -13.1971     55.5917    246.6873   1.4624951457e+02   1.9764418508e+01    0.7531028    0.3851406  20.74  0.004601762    2.662    0.624
        35 -13.8390     27.7260    246.3127   1.5088672989e+02   2.2445475790e+01    0.4673889    0.3130197  51.09  0.003959861    1.049    0.046
        36 -11.8706      2.7505    249.9929   1.5497706692e+02   2.3996451729e+01    0.2702859    0.1203506  40.47  0.002075379    1.573    0.364
        37 -14.2846      8.9782    245.6706   1.5390013839e+02   2.4128578305e+01    0.6949373      0.28457  50.78  0.002937375    1.616    0.381
        38 -13.9417     22.7110    181.1236   1.4902726472e+02   3.3924593199e+01    0.5210555    0.5112247  58.65  0.003352214    1.324    0.245
        39 -15.0448      8.0860    183.5697   1.5216150682e+02   3.4622713525e+01    0.9629215    0.7978029  58.36  0.007885748    1.136    0.120
        40 -14.5189     15.3810    175.2216   1.5028448661e+02   3.5674154042e+01      1.07138    0.3379771  47.14  0.005522382    2.445    0.591
        41 -12.7408    201.4926    191.5583   1.1315764392e+02   8.6783457857e+00    0.3712416    0.2417211  17.85  0.001827622    1.334    0.251
        42 -10.8163     81.2498    193.3949   1.3754162173e+02   2.5552175292e+01    0.1728836   0.08681269  42.95  0.000955761    1.671    0.401
        43 -10.4428    107.6858    192.6813   1.3188918514e+02   2.2286454054e+01    0.1137265   0.08945948  -3.37 0.0007038015    1.650    0.394
        44 -11.1915    100.6601    185.6898   1.3255131943e+02   2.4463198996e+01    0.1163834   0.09150083  -4.91 0.0004324582    1.691    0.409
        45 -12.5441     48.7358    181.3175   1.4345820740e+02   3.1460635488e+01    0.3995389    0.2607463 -55.59  0.002552272    1.780    0.438
        46 -11.8062    122.5321    181.9062   1.2732869711e+02   2.2068327963e+01    0.3807721    0.2358627  71.90   0.00178042    2.928    0.659
        47 -11.5902    109.0105    183.3325   1.3044675144e+02   2.3745325001e+01    0.1799268    0.1458688  36.83  0.001169826    1.090    0.083
        48 -13.2994     86.7361    180.6688   1.3501680185e+02   2.7211797602e+01    0.6309717    0.2131573  44.03  0.002752572    2.610    0.617
        49 -11.8298    194.1471    178.0921   1.1217283832e+02   1.1565428529e+01    0.2062047    0.1480677   8.14 0.0008859721    1.283    0.221
        50 -12.1839    134.2724    171.7196   1.2325370301e+02   2.2079249251e+01    0.2840383    0.2009761  86.87  0.001418866    2.510    0.602
        51 -13.5469    124.1192    167.0787   1.2477136206e+02   2.4483486735e+01    0.5955513    0.4126303 -70.21  0.003217853    1.938    0.484
        52 -11.7465    177.4582    168.3755   1.1362974709e+02   1.5652685235e+01    0.2716827    0.1775065 -12.84  0.001440975    1.758    0.431
        53 -11.0218    192.6186    164.8204   1.1000784741e+02   1.3673469767e+01    0.1702999    0.1174906 -39.89 0.0009500427    1.685    0.407
        54 -12.1258    236.9537    159.8074   1.0119181986e+02   7.2033065768e+00     0.321122   0.07790074  39.60  0.001184106    3.878    0.742
        55 -11.7208     28.6960    157.6015   1.4624016381e+02   3.8172719963e+01     0.362777    0.1369861 -58.65  0.001750141    2.694    0.629
        56 -12.8314     24.4724    156.3929   1.4715818735e+02   3.8785704933e+01    0.3901187    0.3416418 -14.47  0.001742347    1.559    0.359
        57 -13.0965    111.2486    155.6280   1.2592719899e+02   2.8639352181e+01    0.5693075     0.362369  70.72  0.002644127    2.445    0.591
        58 -12.7286     77.7810    157.0949   1.3426689733e+02   3.3036037326e+01    0.3991607    0.2785957  25.96  0.001306565    1.542    0.351
        59 -13.4321     74.1488    153.5128   1.3470448604e+02   3.4247570013e+01    0.7053632    0.4378617  28.95  0.003217797    1.679    0.404
        60 -12.1176     55.6895    155.9764   1.3956365860e+02   3.5884231574e+01    0.3737983    0.2458513   5.14   0.00144301    2.293    0.564
        61 -12.0344    188.7654    155.9483   1.0901458170e+02   1.5627142833e+01    0.2266865    0.1899633 -45.15  0.001350993    1.539    0.350
        62 -12.5675    122.0508    155.8342   1.2340390375e+02   2.6919000886e+01    0.2746484    0.2519225  -2.05  0.001716902    1.143    0.125
        63 -12.2242     85.7291    153.5460   1.3183103643e+02   3.2735840378e+01    0.4974519    0.3189609 -38.03  0.002591233    1.970    0.492
        64 -11.5397     42.0212    154.2130   1.4274880557e+02   3.7671352506e+01    0.2127472    0.1042911  55.05   0.00109199    1.993    0.498
        65 -12.2969    189.1094    151.1285   1.0797044628e+02   1.6295400955e+01    0.2196639    0.1661004   7.16  0.001149678    1.253    0.202
        66 -12.0979    103.5735    149.6588   1.2682056942e+02   3.1000595372e+01    0.3241983    0.2749663 -14.58  0.001646777    1.397    0.284
        67 -11.8543    245.6572    148.7822   9.7578443663e+01   7.1688125540e+00     0.264999    0.1966924 -19.29  0.001688554    1.242    0.195
        68 -12.1886      7.2115    148.0562   1.5077729493e+02   4.1859870466e+01    0.3139951    0.1644143 -88.06  0.001859648    1.631    0.387
        69 -11.4566     44.6660    145.2845   1.4122887872e+02   3.9354664375e+01    0.2014926    0.1868143  56.17 0.0004082239    1.133    0.118
        70 -11.7076     38.4967    145.5507   1.4283535533e+02   3.9892558578e+01      0.21207    0.1870981  84.89 0.0006743458    1.046    0.044
        71 -12.2983    148.6218    141.8172   1.1460139845e+02   2.5068321757e+01    0.4149282    0.2799072 -33.44  0.002114373    1.552    0.356
        72 -11.4634     88.5056    141.0435   1.2924637706e+02   3.5010419191e+01     0.244796    0.1907571  14.03 0.0009008676    1.526    0.345
        73 -13.3030     42.6893    139.6449   1.4116136413e+02   4.0805176816e+01    0.5178124    0.2623515 -63.31   0.00204796    1.827    0.453
        74 -11.8092    246.3106    135.9906   9.4786088977e+01   8.5982664695e+00    0.3065132     0.196455  66.79  0.001364746    3.868    0.741
        75 -11.7649     64.3176    134.6624   1.3473601646e+02   3.9584502803e+01    0.3105587    0.2026786 -70.77  0.001685887    1.491    0.329
        76 -10.6172     61.0133    134.0000   1.3554649709e+02   4.0124157974e+01    0.2436865    0.1610715  40.34 0.0009003824    1.495    0.331
        77 -12.8376    133.3173    132.5279   1.1626645606e+02   2.9569377746e+01    0.4967091    0.3516002 -64.99  0.002417766    1.865    0.464
        78 -12.1414    110.5742    131.9093   1.2186430140e+02   3.3598212956e+01     0.477234    0.3272152   8.28  0.002239573    2.048    0.512
        79 -12.4901    109.8694     96.1521   1.1387965662e+02   4.1420609021e+01    0.2908455    0.2629625 -66.50 0.0003446001    1.213    0.176
        80 -13.1078    111.8147    101.3627   1.1467843510e+02   3.9937472958e+01    0.4909407     0.335647  60.59  0.001821323    1.906    0.475
        81 -14.6235    104.9684    123.4306   1.2164673964e+02   3.6330240156e+01     2.709241    0.9332023  35.73  0.009624594    2.981    0.665
        82 -14.9180    106.4766    108.2477   1.1788002542e+02   3.9391894132e+01     1.308032     1.255394 -28.79  0.006569852    1.020    0.020
        83 -14.0787     91.4932    109.2128   1.2242955563e+02   4.1658019385e+01    0.9416046    0.7688876  14.19  0.004064082    1.404    0.288
        84 -12.7390     86.3393    115.1120   1.2518006362e+02   4.1102468682e+01    0.4496436    0.3184029  10.50  0.001314562    1.865    0.464
        85 -14.8973     29.8559    119.1948   1.4254087495e+02   4.6676188717e+01     2.491241    0.3864141 -60.65  0.008395448    4.120    0.757
        86 -13.0398      4.0922    119.8389   1.4995646064e+02   4.8320570209e+01    0.5181913    0.4629357 -85.77  0.002558729    1.142    0.124
        87 -14.1478     22.5544     86.4624   1.4081109430e+02   5.5129732164e+01    0.9165317    0.6370673 -17.36  0.004501428    1.848    0.459
        88 -14.9117     18.1865    110.8235   1.4514324029e+02   4.9542379787e+01    0.9468085    0.9225112 -58.06  0.004870317    1.223    0.182
        89 -14.3155      2.6253     96.7252   1.4871675406e+02   5.3813284428e+01     1.281455    0.4668891 -84.52   0.00569312    2.376    0.579
        90 -15.4437     25.2506     94.7243   1.4102680056e+02   5.2913779341e+01     2.264392     1.167669 -15.71  0.009891424    3.289    0.696
        91 -11.8172    185.0039    124.4773   1.0291199534e+02   2.1246595986e+01    0.2122722    0.1855106  56.99 0.0005007555    1.452    0.311
        92 -12.1657    180.5643    121.7701   1.0316785281e+02   2.2556308381e+01    0.4024632      0.29388   1.13  0.001446326    1.476    0.323
        93 -12.6607     80.8498    115.8497   1.2692895830e+02   4.1732748975e+01    0.5477223    0.3134617 -44.71  0.002136203    1.822    0.451
        94 -12.0416     46.2853    109.5207   1.3632239456e+02   4.7464376954e+01     0.415095    0.2773691 -55.04  0.002001778    1.408    0.290
        95 -11.9701    121.1337    111.8416   1.1471234544e+02   3.5994742555e+01    0.3137525    0.2006503  52.15  0.001420237    1.783    0.439
        96 -11.8924     61.9400    109.6179   1.3146973721e+02   4.5692524518e+01    0.6579362    0.3438368 -76.61  0.002841884    2.263    0.558
        97 -12.7577     62.6319     99.8118   1.2940262003e+02   4.7948716966e+01     0.676283    0.4288368  81.76  0.003074559    2.217    0.549
        98 -12.3192    249.2505    106.3692   8.7711851017e+01   1.1726661378e+01    0.2590002    0.1408593 -15.17  0.001281203    1.701    0.412
        99 -12.5662    137.0289     96.2936   1.0653907117e+02   3.6056077926e+01    0.5250574    0.3155919 -43.06  0.002040757    1.651    0.394
       100 -12.6026    122.8565    103.2157   1.1210568595e+02   3.7474640499e+01     0.419654    0.3038908  29.88  0.001785755    1.456    0.313
       101 -12.6313    135.9499    103.4566   1.0874178638e+02   3.4858220962e+01    0.5999522    0.2984428  42.85  0.001764738    2.030    0.507
       102 -12.0483    128.9689    102.4789   1.1028862782e+02   3.6440460110e+01    0.3523959    0.2325494  48.12  0.000922225    1.613    0.380
       103 -12.5095     43.3213     91.9416   1.3439071670e+02   5.2023423825e+01    0.6486235    0.2475645 -71.36  0.002501038    2.688    0.628
       104 -12.8710     47.1870    100.4804   1.3458259249e+02   4.9552464604e+01    0.5241261    0.3811722  49.35  0.002950378    1.477    0.323
       105 -12.5086     52.7091     98.1366   1.3234226213e+02   4.9525505637e+01    0.4802823     0.283214 -44.74  0.001998402    1.737    0.424
       106 -11.2415     76.0216     95.8490   1.2420131238e+02   4.7089329403e+01    0.2013298    0.1918908 -60.35 0.0002776966    1.024    0.023
       107 -11.4615     85.1239    110.2214   1.2453254063e+02   4.2404676866e+01    0.2037721    0.1829756 -29.15  0.000725984    1.184    0.155
       108 -11.6679     49.2786     94.6082   1.3283750317e+02   5.0757276896e+01    0.2932408    0.1594677 -80.19  0.001297723    2.135    0.532
       109 -11.6602     89.4836     87.6759   1.1781988976e+02   4.6890253493e+01    0.4128936     0.246343  49.34  0.001823137    1.939    0.484
       110 -11.8840    125.4058     86.4914   1.0680671015e+02   4.0406863647e+01    0.3717613    0.2643135 -56.18  0.001701514    1.641    0.391
       111 -13.6539    188.4428     84.4016   9.1854640867e+01   2.6945736798e+01     0.694867     0.371322  44.21  0.001752057    1.918    0.479
       112 -11.8094    132.8183     86.2064   1.0474525777e+02   3.8917516671e+01    0.2188034    0.1787941   5.55  0.001075094    1.345    0.257
       113 -14.3879    160.8919     80.3379   9.6238947574e+01   3.3810981950e+01     1.405094    0.8663895  16.40  0.001503445    2.333    0.571
       114 -13.5707    171.3858     76.9410   9.3003790447e+01   3.1981088031e+01    0.7481501    0.5452421   0.69  0.003501679    1.556    0.357
       115 -13.3595    178.0052     76.9648   9.1695377284e+01   3.0459383423e+01    0.4807678    0.4041173  38.80  0.001382538    1.216    0.178
       116 -12.1562    241.5006     83.8279   8.3337061315e+01   1.5944325766e+01    0.3341845    0.2634806 -80.29  0.001853606    1.988    0.497
       117 -12.3788    238.2298     80.0266   8.2818491117e+01   1.7053675245e+01    0.3559701     0.312777  63.42  0.002057708    1.448    0.309
       118 -10.4346     98.6224     84.2812   1.1398687540e+02   4.6065564751e+01    0.1484691    0.1181344  77.97 0.0007010527    1.713    0.416
       119 -11.8818    113.8823     80.6507   1.0830646757e+02   4.3940092983e+01    0.3703522    0.3256146 -47.45  0.001198378    1.158    0.136
       120 -11.7019    235.0034    249.2327   1.1621155296e+02  -1.6973761942e+00     0.138019   0.06086496  31.39 0.0008910067    1.676    0.403
       121 -12.6887    217.0897     79.5548   8.5700803398e+01   2.1427378402e+01    0.4419079    0.3223499  37.53  0.001187346    1.438    0.305
       122 -12.5030    210.9921     78.0027   8.6222729564e+01   2.2940432764e+01    0.4057457    0.3051641 -63.16  0.002030191    1.847    0.459
       123 -12.9448    135.1285     66.4256   9.7914350345e+01   4.2145914682e+01    0.6789045    0.4459236  30.79  0.002188896    1.707    0.414
       124 -13.0916    135.2885     79.6921   1.0213812531e+02   3.9647008360e+01     0.827563    0.4086681  49.79  0.002888469    2.162    0.538
       125 -11.4129    128.0939     73.2835   1.0200988111e+02   4.2439145745e+01    0.4819604     0.263475 -23.32  0.001806684    2.312    0.567
       126 -11.8820     90.6197     80.1569   1.1535471211e+02   4.8391170814e+01     0.431455    0.3128222  14.22 0.0009352388    1.713    0.416
       127 -11.3288     69.6062     80.2093   1.2252882418e+02   5.1691398154e+01    0.2515468    0.2326847 -29.18 0.0007751199    1.093    0.085
       128 -14.3205     61.4942     65.8459   1.2152999743e+02   5.6183712457e+01      1.59131    0.7113127  30.98  0.006554206    2.510    0.602
       129 -13.8391     38.8861     68.2119   1.3116817005e+02   5.8252526227e+01     1.852738    0.4211318  30.43  0.006323935    4.258    0.765
       130 -12.7163     56.4702     78.8255   1.2691998587e+02   5.3757825774e+01     0.448294    0.2924598 -39.63  0.001131205    1.552    0.356
       131 -13.8171     60.8373     75.4817   1.2446314865e+02   5.4005090871e+01     0.609352    0.5636882 -61.39  0.001271752    1.067    0.063
       132 -12.0026     41.9213     77.3697   1.3203268246e+02   5.5724602748e+01    0.3078903    0.2757509 -39.70  0.001008398    1.142    0.125
       133 -11.2695    193.4050     75.5375   8.8442704399e+01   2.7174287293e+01    0.2741137    0.2004388 -70.14 0.0008318288    2.069    0.517
       134 -10.8374    219.8035     75.1642   8.4121150522e+01   2.1441670636e+01     0.195019    0.1512485   7.12 0.0003382557    1.308    0.236
       135 -13.9970    105.7286    246.9615   1.3760260550e+02   1.4275208657e+01    0.9071645    0.5338639  86.74  0.005659818    3.009    0.668
       136 -13.2612     77.0362     73.5940   1.1805659931e+02   5.2114590300e+01    0.7625166    0.5187439   8.97  0.002869968    2.002    0.501
       137 -14.2514     89.0196     63.6187   1.1069601095e+02   5.2288604851e+01     1.576026    0.8781076 -23.25  0.004804638    2.648    0.622
       138 -13.2371    111.1286     42.0772   9.5493347006e+01   5.1881670939e+01    0.6319814    0.3832001  37.05  0.001625765    1.745    0.427
       139 -14.4999     91.8179    232.4584   1.3892152320e+02   1.7925565045e+01    0.6535254    0.4028338  75.78  0.004311043    2.145    0.534
       140 -13.3010    199.8875     70.0396   8.5773538639e+01   2.6502420167e+01    0.6721246    0.3734939  49.97  0.002498102    1.874    0.466
       141 -10.7887    114.9678     71.2661   1.0502879126e+02   4.5631112272e+01    0.2045377    0.1937687   2.26 0.0003290351    1.043    0.041
       142 -11.2120    100.2675     65.0939   1.0746198830e+02   4.9854809644e+01    0.2570459    0.2215736  36.45  0.001079849    1.217    0.179
       143 -11.6536    158.3886     64.1679   9.1733225751e+01   3.7094717451e+01    0.2316154    0.1327115 -40.40 0.0009553107    1.746    0.427
       144 -11.5792    130.6779     61.9124   9.7524569067e+01   4.3971656693e+01     0.223681    0.1951873 -27.73 0.0008229073    1.096    0.088
       145 -14.2913    101.3800     50.3312   1.0174065105e+02   5.2538853264e+01     1.034408    0.6972308  53.97   0.00197218    1.722    0.419
       146 -13.2842     79.2493     60.4510   1.1308092100e+02   5.4684080716e+01    0.6159074    0.4888788  -8.40   0.00317542    1.421    0.296
       147 -13.7324    177.7940     57.8551   8.5895210213e+01   3.3404101334e+01    0.6984786    0.5973114 -55.22  0.002052133    1.328    0.247
       148 -11.8823     38.7907     60.4776   1.2928764490e+02   6.0128159052e+01    0.3251665    0.2520439  74.95  0.001805914    1.622    0.384
       149 -12.7733     25.4579     59.5286   1.3481413849e+02   6.1520027029e+01    0.4409203    0.2452896 -42.78  0.002248205    1.689    0.408
       150 -12.2272     63.8604     57.9908   1.1813662625e+02   5.7649647656e+01    0.2421203    0.2082538  25.90 0.0007418659    1.274    0.215
       151 -11.0132     31.5217     57.9296   1.3178121669e+02   6.1414947085e+01    0.2006844    0.1108051 -59.70 0.0003611259    1.493    0.330
       152 -12.8331     64.0932     50.6812   1.1550828983e+02   5.9235210009e+01    0.8217628    0.3784393  30.19  0.003318722    2.538    0.606
       153 -12.4009     66.9629     43.4252   1.1155773806e+02   6.0328610375e+01    0.6344336    0.3190568 -41.42  0.002743862    1.794    0.443
       154 -11.1184     86.3109     49.5692   1.0654366696e+02   5.5686477574e+01    0.2392351    0.2204478 -25.85 0.0005865856    1.047    0.045
       155 -10.8854    250.1435     49.0710   7.3576691676e+01   1.8327534817e+01    0.1891031    0.1561844  -0.72 0.0003967443    1.202    0.168
       156 -12.8149    152.3234     46.9259   8.7176157442e+01   4.1239174918e+01    0.6078587    0.2586226  50.57  0.001064294    2.301    0.565
       157 -10.2562      4.2803     47.2762   1.4199144977e+02   6.5715819689e+01    0.1266511    0.0721608 -47.92 0.0006909944    1.502    0.334
       158 -12.6771    158.7370     43.5635   8.4708790887e+01   4.0124384611e+01    0.5723699    0.2901197  54.83  0.002107088    1.971    0.493
       159 -13.4773    171.0525    242.2063   1.2573787975e+02   6.8078812345e+00    0.4882036    0.2961204  22.33  0.003380313    1.375    0.273
       160 -12.5658    146.1774    238.0645   1.2961539705e+02   1.0470930578e+01    0.3611951    0.2175942  49.96  0.001760269    1.804    0.446
       161 -13.4675      8.5524     42.8873   1.3901726175e+02   6.6580772678e+01    0.9655215    0.6133945  58.74  0.005323583    2.055    0.513
       162 -12.1567    145.0060    231.5186   1.2910523363e+02   1.1453952586e+01    0.2390376    0.1540266 -43.13  0.001650101    1.971    0.493
       163 -12.5549     26.6983    236.7840   1.5071642333e+02   2.3960715434e+01    0.3004002    0.1922769   9.01  0.002070361    2.646    0.622
       164 -12.6764     15.9435    197.6635   1.5115817671e+02   3.1396229641e+01    0.4657259    0.1716082 -61.48  0.002528538    3.125    0.680
       165 -13.6951      9.9469    210.8654   1.5275936290e+02   2.9564406319e+01     0.647947    0.4472725  34.45  0.005175464    1.431    0.301
       166 -12.7035    198.3242     37.2209   7.6257034770e+01   3.1128540786e+01    0.5020422    0.3341913 -74.70  0.002041571    2.032    0.508
       167 -12.8967    205.1571     40.2501   7.6275204895e+01   2.9143861358e+01    0.5462725    0.3628118 -76.64  0.001871847    2.077    0.519
       168 -13.0386    211.8683     43.2709   7.6305260949e+01   2.7223122030e+01    0.4966519    0.2382136  54.66  0.002157378    2.159    0.537
       169 -13.6360    219.4190     41.5784   7.4906916693e+01   2.5696906688e+01    0.6846277    0.4984045  84.50  0.002211902    1.712    0.416
       170 -11.0459    169.1974     43.2037   8.2652597054e+01   3.7557636136e+01    0.2042682    0.1756415 -60.36 0.0006148603    1.322    0.244
       171 -11.4793     25.8968     42.8465   1.3030544516e+02   6.5472245000e+01    0.2070611    0.1463082 -40.33 0.0004836888    1.258    0.205
       172 -11.3282    104.6785     36.8044   9.5225024426e+01   5.4208416092e+01    0.3605552    0.1700792 -35.85  0.001413587    2.015    0.504
       173 -12.7937     75.8037     37.5926   1.0556107993e+02   5.9966760332e+01    0.3469377    0.2579055  35.56 0.0007886326    1.424    0.298
       174 -12.0805     70.5285     36.7516   1.0730287437e+02   6.1067082472e+01    0.3176546    0.2523218  20.65 0.0008237796    1.325    0.246
       175 -12.0305    243.3333     36.4379   7.1010260717e+01   2.1070400566e+01    0.5440141    0.2352329  79.09  0.002198664    3.515    0.716
       176 -11.3724     45.4373     36.5128   1.1842540148e+02   6.4886353014e+01    0.2206368    0.1814157 -39.87 0.0006655485    1.048    0.046
       177 -12.1746     47.5598     31.9728   1.1550577345e+02   6.5571010749e+01    0.4368673    0.2429982 -20.29  0.001851167    2.473    0.596
       178 -11.3984     52.0146     36.3067   1.1521456041e+02   6.4059936632e+01    0.3570973    0.1633217  27.19  0.001477107    2.637    0.621
       179 -12.5900     24.5609    217.4537   1.5034433573e+02   2.7232631958e+01    0.5069737    0.2604707  57.99  0.003533486    1.529    0.346
       180 -13.6776     26.6650    226.2023   1.5031891812e+02   2.5618854851e+01    0.5028378    0.2637783 -66.66   0.00354664    2.225    0.551
       181 -12.7906    152.2741     31.4062   8.1573400128e+01   4.3380286681e+01    0.4296292    0.2889186  -9.62  0.001083584    1.585    0.369
       182 -14.4985    146.2359     30.7100   8.2476767636e+01   4.5009880453e+01     1.145878    0.6291377  59.46  0.003826226    1.846    0.458
       183 -10.9194    211.2514     33.2437   7.3469411996e+01   2.8509899514e+01    0.1930067    0.1472815 -47.39 0.0004385314    1.319    0.242
       184 -14.0558     20.2656    224.4539   1.5137846373e+02   2.6456928591e+01    0.5342951    0.3269182  77.53  0.003859351    1.459    0.315
       185 -11.5681    194.9159     23.7160   7.2515322085e+01   3.3460235563e+01    0.3689494    0.2653188  -9.64  0.001471146    1.415    0.293
       186 -13.8506     57.4372    203.6577   1.4330239782e+02   2.6426914419e+01     0.751361     0.347164 -79.65  0.004233933    2.486    0.598
       187 -12.9480     53.0310    214.2902   1.4487444018e+02   2.5060965738e+01     0.402735    0.2101815  59.59  0.002122681    1.741    0.426
       188 -11.4139     96.7686     30.8219   9.5077317218e+01   5.6928247870e+01    0.2594071    0.2510841 -29.02    0.0010971    1.165    0.142
       189 -11.5053     97.8477     27.1440   9.3062626880e+01   5.7262318268e+01    0.3028807     0.293277   9.00   0.00139036    1.127    0.112
       190 -11.7451    216.0423     29.0210   7.1717939629e+01   2.7851900033e+01    0.2282517    0.1466812 -52.31 0.0007448921    1.658    0.397
       191 -12.9877     56.2343     27.7647   1.0945084735e+02   6.5156392825e+01    0.4786842    0.3331782  36.40  0.001672931    1.587    0.370
       192 -11.1757     39.5996     25.2438   1.1656901505e+02   6.7979700028e+01    0.1968449    0.1053076 -39.73  0.000455201    1.606    0.377
       193 -13.7718     68.0208    222.9522   1.4261398921e+02   2.2062533538e+01    0.5374354    0.4737975 -12.80  0.004338451    1.613    0.380
       194 -14.4572     62.8591    214.9575   1.4303708659e+02   2.3919255819e+01    0.7891271    0.6048961  75.69  0.005813258    1.278    0.218
       195 -13.5282     99.0699    216.0197   1.3611922843e+02   1.9555417438e+01    0.4082038    0.3390508 -50.12  0.003091964    1.497    0.332
       196 -11.5548    249.1293    225.3113   1.1064720784e+02  -1.2881343271e+00    0.1804015   0.09596642  18.76   0.00120487    1.441    0.306
       197 -11.6427    222.8236     21.7390   6.8983857548e+01   2.7042729479e+01    0.2348214    0.2045564 -45.14 0.0004425411    1.103    0.093
       198 -11.0521     70.9115     16.9779   9.7569724461e+01   6.4460760936e+01    0.2075026      0.18566  -6.53 0.0004122989    1.059    0.055
       199 -11.5877    200.3362    215.6544   1.1715558518e+02   5.9555942471e+00    0.1551153    0.1288917  44.84  0.001110324    1.690    0.408
       200 -11.5218     85.2239    215.3945   1.3875004499e+02   2.1327303488e+01    0.2132251    0.1573483  60.73  0.001090598    1.288    0.223
       201 -10.9986    156.2327    214.0182   1.2491049660e+02   1.2268649032e+01    0.3196923    0.1308923  28.06  0.001510885    2.452    0.592
       202 -11.9603    239.2026    213.5967   1.1038319897e+02   1.0269614346e+00    0.1627031   0.07712441  25.46 0.0009590442    1.716    0.417
       203 -13.3193     94.6367    218.8715   1.3723858273e+02   1.9650510771e+01    0.3013447    0.2394659  49.23  0.001803109    1.078    0.072
       204 -10.7921    136.5412    210.9859   1.2828336996e+02   1.5419547031e+01     0.147781    0.1153034 -47.81 0.0009710205    1.576    0.365
       205 -10.4699     40.3661    211.2965   1.4711305820e+02   2.6823492103e+01    0.0908782   0.07905663 -17.26 0.0007031009    1.722    0.419
       206 -10.9523     80.6515    208.3265   1.3903915679e+02   2.3029021327e+01    0.1196555   0.06772986  57.81 0.0006755007    1.754    0.430
       207 -10.9320    149.6104    206.8690   1.2522638573e+02   1.4196323776e+01     0.211665    0.1334896  27.30   0.00096125    1.376    0.273
       208 -11.6497    133.8654    201.0746   1.2756025749e+02   1.7287740871e+01    0.3264126    0.1607796  42.44  0.001463787    1.771    0.435
       209 -13.5620     39.4636    195.1248   1.4635885246e+02   2.9773276371e+01    0.4281178    0.2942333  60.05  0.002237718    1.203    0.169
       210 -13.1248    164.6466    196.3365   1.2081868123e+02   1.3527649870e+01    0.4505409    0.3036534  66.69  0.002261521    3.044    0.671
       211 -13.3672     29.9870    169.9674   1.4679023881e+02   3.5502575380e+01    0.6831778    0.4795468 -33.44  0.004329648    2.129    0.530
