#   1 NUMBER                 Running object number                                     
#   2 MAG_AUTO               Kron-like elliptical aperture magnitude                    [mag]
#   3 X_IMAGE                Object position along x                                    [pixel]
#   4 Y_IMAGE                Object position along y                                    [pixel]
#   5 X_WORLD                Barycenter position along world x axis                     [deg]
#   6 Y_WORLD                Barycenter position along world y axis                     [deg]
#   7 A_WORLD                Profile RMS along major axis (world units)                 [deg]
#   8 B_WORLD                Profile RMS along minor axis (world units)                 [deg]
#   9 THETA_WORLD            Position angle (CCW/world-x)                               [deg]
#  10 FWHM_WORLD             FWHM assuming a gaussian core                              [deg]
#  11 ELONGATION             A_IMAGE/B_IMAGE                                           
#  12 ELLIPTICITY            1 - B_IMAGE/A_IMAGE                                       
         1 -11.3361    118.8032     11.8307   1.7739911845e+00   5.4114934805e+01    0.1972801    0.1781295  54.43 0.0003397733    1.161    0.139
         2 -11.1758     86.0383     12.3073   8.5736582474e+00   6.2385849402e+01    0.1876595    0.1689385  68.24 0.0003826462    1.047    0.045
         3 -12.0410     91.8626      8.5017   5.3269315429e+00   6.1320810856e+01    0.3898228    0.2577157  30.21  0.001485149    1.780    0.438
         4 -10.8551     55.4744      8.9306   1.6613208037e+01   6.9922685636e+01    0.1777687    0.1286931 -26.92 0.0002801173    1.445    0.308
         5 -10.8724     25.5648      1.7849   2.7808146628e+01   7.6688695030e+01    0.1551052    0.1147059 -40.09 0.0005743653    1.514    0.339
         6 -10.7532      4.2437      1.3715   4.6867666798e+01   7.9701898308e+01    0.1467315    0.1043863  27.83 0.0002557773    1.459    0.314
         7 -10.6536     86.3692    246.8088   6.4989343248e+01   1.2601937548e+01    0.1356527     0.106305 -46.51 0.0003663578    1.604    0.377
         8 -10.6728    237.6834    249.9438   3.7225084913e+01  -4.5684743704e+00     0.136863    0.1063315  50.07 0.0009080301    3.466    0.711
         9 -10.4680    170.5856    250.5215   4.8568983717e+01   2.2129705383e+00     0.110358   0.08444317  10.42 0.0001015666    1.017    0.016
        10 -12.4539    139.4370    247.9274   5.4203040585e+01   6.1619579131e+00    0.3129378    0.2113804 -46.02  0.001699699    1.784    0.439
        11 -11.9717    124.6733    249.7639   5.7348744022e+01   7.6288843100e+00    0.1974125    0.1608592  31.54 0.0005630671    1.116    0.104
        12 -11.7149    114.4930    248.6828   5.9305473155e+01   8.9990293519e+00    0.2370648    0.2002528 -87.18  0.001336903    1.622    0.383
        13 -12.0181     69.4533    247.8918   6.8648815841e+01   1.4330101660e+01    0.3634211    0.1830482  58.79  0.001964383    2.174    0.540
        14 -13.0499     56.8178    249.1689   7.1397600571e+01   1.5479713709e+01    0.3391424    0.1962062  25.60 0.0008562653    1.546    0.353
        15 -15.6747     23.1576    190.6254   7.5705441338e+01   3.0948400372e+01     2.462209    0.7530813 -74.17  0.009835186    3.104    0.678
        16 -14.6111     35.3159    231.0909   7.5011748739e+01   2.1077818606e+01     1.554232    0.6804652  87.75  0.007704822    2.687    0.628
        17 -13.4110      9.6020    209.0660   7.9906058391e+01   2.8021262000e+01    0.4769443    0.2930576  26.19  0.002064757    1.588    0.370
        18 -14.6005      5.0141    201.0769   8.0717701454e+01   3.0149222614e+01     1.056804    0.6873164  24.31  0.006361951    1.576    0.365
        19 -15.0159      5.7731    186.4193   7.9993707305e+01   3.3428430439e+01     1.248783    0.5885313  85.50  0.005607482    1.974    0.493
        20 -13.6851     13.0299    188.6795   7.8220925335e+01   3.2305735145e+01    0.6210743    0.2856504 -63.61  0.002707308    2.313    0.568
        21 -13.2990     19.9232    247.6929   7.9011479876e+01   1.9417081370e+01     0.378958    0.2542317  62.74 0.0004140183    1.270    0.213
        22 -14.3643     12.2353    216.0141   7.9548247679e+01   2.6316558001e+01    0.8373164    0.5927053 -24.96  0.004365407    2.206    0.547
        23 -13.6894      3.8009    210.8584   8.1316546731e+01   2.8119765348e+01    0.5604435    0.2975084  83.94  0.003181844    1.755    0.430
        24 -14.5414      2.2897    223.1627   8.2001588246e+01   2.5683927448e+01    0.9166965    0.2659812 -84.21  0.004027653    3.450    0.710
        25 -15.0802     15.8012    229.6671   7.9246926657e+01   2.3216988752e+01     0.864738    0.5767109   7.07  0.005268538    1.997    0.499
        26 -13.8573     13.9997    224.4685   7.9456780037e+01   2.4418687138e+01    0.3663103     0.281282  46.04  0.001561824    1.081    0.075
        27 -16.2621      6.4074    244.2852   8.1674750866e+01   2.1242786256e+01     1.735686     1.112864 -37.85   0.01060936    2.661    0.624
        28 -14.9640      5.3690    234.3094   8.1631872734e+01   2.3219192315e+01    0.4779733    0.4745479 -64.79  0.002975711    1.409    0.290
        29 -10.7199    226.3479    246.6919   3.8530081631e+01  -3.1548744129e+00   0.08673675   0.07484369  21.03 0.0007043818    1.705    0.414
        30 -11.1144    163.5148    246.4874   4.9384249216e+01   3.5572842452e+00    0.1885639    0.0835693  37.03 0.0007995244    2.080    0.519
        31 -10.7228     64.4565    245.9720   6.9574433612e+01   1.5218385748e+01    0.1477614    0.1133689 -80.67  0.001016163    1.552    0.356
        32 -10.8098    147.1612    245.2174   5.2370341192e+01   5.6467532412e+00    0.1438061    0.1171802  34.54 0.0004559596    1.273    0.215
        33 -11.2461    132.0817    245.1840   5.5360998970e+01   7.4478651761e+00     0.172442    0.1327323   6.69 0.0007167434    1.244    0.196
        34 -11.4956    205.8782    244.1423   4.1513520616e+01  -8.0639578094e-01    0.1531499    0.1221086   8.75 0.0004768792    1.207    0.171
        35 -11.4216    143.4097    243.7878   5.2939412153e+01   6.3032854323e+00    0.1852874     0.115188 -53.63  0.001139059    2.088    0.521
        36 -10.7674    193.0012    242.4953   4.3501268901e+01   7.7195066792e-01    0.1525411   0.08765839  24.59  0.000328032    1.456    0.313
        37 -10.7440    186.8067    241.9622   4.4524965988e+01   1.5230789305e+00    0.1655655    0.0994026   6.13  0.001039079    1.583    0.368
        38 -11.3754    126.6641    242.1198   5.6120201004e+01   8.5762192285e+00    0.1955788    0.1333544  36.95 0.0005858279    1.287    0.223
        39 -11.9905    117.5132    241.0163   5.7890273683e+01   9.8645707888e+00    0.2170749    0.1692841  19.64  0.001088255    1.121    0.108
        40 -10.5867     94.4616    242.5333   6.2899998337e+01   1.2384236522e+01    0.1196415   0.09540225  34.60 0.0001878595    1.014    0.014
        41 -11.1777    168.0044    241.4888   4.7907627471e+01   3.7283122140e+00     0.172864   0.09178413  28.07  0.001022112    1.561    0.359
        42 -11.1794    246.4118    241.0267   3.4681779865e+01  -4.4191472796e+00    0.1485298    0.1005528   6.81 0.0003439058    1.163    0.140
        43 -11.4055     69.4430    235.5405   6.7733637045e+01   1.6550368588e+01    0.2358133    0.1777541  45.88 0.0007601575    1.105    0.095
        44 -13.0935     73.3167    231.4924   6.6549477992e+01   1.6858423217e+01    0.7479428    0.2882628 -51.54  0.002324115    3.231    0.690
        45 -11.1168    180.8651    240.1142   4.5348569341e+01   2.4349993167e+00    0.1512096    0.1227252  14.85            0    1.155    0.134
        46 -11.6125     64.9692    239.1541   6.8984644048e+01   1.6389821946e+01    0.2704375    0.1204523  63.72   0.00123397    2.968    0.663
        47 -10.8865     79.4723    238.0042   6.5732905587e+01   1.4942453162e+01    0.1565058    0.1191962 -75.65  0.001028803    1.586    0.370
        48 -11.7478    210.2678    235.8109   3.9618771507e+01  -2.5554191429e-01    0.2274936     0.189062 -58.96  0.001596982    2.431    0.589
        49 -11.2526    103.7104    236.3706   6.0327950981e+01   1.2328281579e+01    0.1814235    0.1347565 -28.10  0.000171661    1.679    0.404
        50 -10.9077    229.0166    236.0272   3.6613851004e+01  -2.2105108192e+00    0.1292584    0.1121929   3.72  0.001068566    1.501    0.334
        51 -11.0937    137.8362    236.1279   5.3144618406e+01   8.1510794331e+00    0.1771195    0.1381641  39.46 0.0005829436    1.299    0.230
        52 -10.8338     54.2826    236.3143   7.1128135693e+01   1.8092884799e+01    0.1050669   0.08916839 -15.53 0.0001743101    1.576    0.365
        53 -11.7375     46.9687    235.6081   7.2691277811e+01   1.9007245241e+01    0.2845506    0.1407282  45.16  0.001111146    1.575    0.365
        54 -11.7751    165.6001    234.1969   4.7408702471e+01   5.0462294115e+00    0.1955298    0.1550865  35.83 0.0004066627    1.389    0.280
        55 -11.7052    121.7298    235.0221   5.6349572723e+01   1.0329384930e+01    0.1591214    0.1378905  20.33            0    1.064    0.060
        56 -12.3785    194.9133    229.3560   4.1335110183e+01   2.2673273401e+00    0.2303714    0.1703244 -31.29 0.0001393897    1.426    0.299
        57 -10.9123    113.2878    234.3604   5.8065137350e+01   1.1490893088e+01    0.1185257   0.08609754  -9.93 0.0007024076    1.687    0.407
        58 -11.2840     58.4799    234.4921   7.0079540283e+01   1.7977897860e+01    0.1219689   0.09609481  44.50 0.0008102564    1.014    0.014
        59 -11.0850    243.1528    233.5028   3.4087197018e+01  -3.2992589677e+00    0.1354163   0.08250741  20.81 0.0007079276    1.493    0.330
        60 -12.1539    182.4898    231.7344   4.3907808986e+01   3.3853649083e+00    0.3474804    0.2353767  53.11  0.002002173    2.664    0.625
        61 -10.9773    222.6610    232.6586   3.7136344778e+01  -1.1722944698e+00    0.1148026   0.06398965  -4.17 0.0007049778    1.769    0.435
        62 -12.1089    150.0721    230.1423   4.9918882870e+01   7.5632543346e+00    0.1839494    0.1726431  18.89 0.0005345347    1.243    0.195
        63 -10.9169    123.4954    231.4971   5.5572506788e+01   1.0695334126e+01    0.1219307    0.1006727  26.75 4.005592e-05    1.024    0.023
        64 -12.5305     61.2030    229.2545   6.9094283436e+01   1.8675209403e+01    0.3159817    0.1746463 -72.54  0.001000002    2.089    0.521
        65 -12.3397    154.4881    227.7163   4.8714969541e+01   7.3851158013e+00    0.2539261    0.1594437   4.53  0.001440599    1.769    0.435
        66 -12.0764    127.7959    227.2127   5.4149995405e+01   1.0869038614e+01    0.2125341    0.1811863  -9.97 0.0003086491    1.236    0.191
        67 -11.9762    129.1566    223.1578   5.3357611515e+01   1.1383283078e+01    0.1889207    0.1623961  26.70 0.0003717128    1.057    0.054
        68 -13.4404    123.9684    220.6522   5.4162051014e+01   1.2498621909e+01    0.4779021    0.3351231  74.05  0.002593498    2.295    0.564
        69 -11.7208     86.0011    228.0203   6.3399836537e+01   1.5995413244e+01    0.1972429    0.1649856  38.59  0.001314676    1.015    0.015
        70 -12.9584     49.7314    215.3404   7.0730000034e+01   2.2750718269e+01    0.3640431    0.3131216  13.09  0.001213823    1.349    0.259
        71 -12.6224     53.0083    209.4522   6.9499661186e+01   2.3628438053e+01    0.3252898    0.2752502  16.82   0.00139385    1.321    0.243
        72 -12.6733     50.2480    220.0815   7.0944906718e+01   2.1715835089e+01     0.452511    0.2057962  35.61  0.002290801    1.738    0.425
        73 -11.5952     42.6485    227.0145   7.3140691869e+01   2.1131696820e+01    0.2453656    0.1494773  89.29  0.001266717    1.787    0.440
        74 -11.6353     41.1265    222.1446   7.3194509207e+01   2.2269966912e+01     0.295489    0.1643906  61.21  0.001340903    1.679    0.404
        75 -11.4576    138.1233    226.9452   5.1947260464e+01   9.5884754119e+00    0.1766499    0.1469371  40.25 0.0004198088    1.267    0.211
        76 -12.7161    116.1593    224.5292   5.6334360778e+01   1.2832262567e+01    0.4318518    0.2652141  76.94  0.001876303    3.279    0.695
        77 -12.3701    106.2048    226.4447   5.8737821399e+01   1.3765946200e+01    0.2462182    0.2105214  -5.53  0.001109347    1.298    0.230
        78 -12.3595     80.5479    225.8645   6.4429721023e+01   1.7064570098e+01    0.2635123    0.2349719 -39.44  0.001161935    1.365    0.267
        79 -11.7140    100.0696    224.6865   5.9910067626e+01   1.4864418111e+01    0.1776896    0.1361174  29.06 0.0004153563    1.119    0.106
        80 -11.8691     92.2452    223.9688   6.1594897327e+01   1.5983560116e+01    0.2476141    0.2003654 -12.04   0.00105349    1.510    0.338
        81 -10.8598    212.1490    224.0932   3.7598437194e+01   1.0117179482e+00    0.1342649    0.1149657  -3.65  0.000297061    1.284    0.221
        82 -12.1863    159.8579    222.3228   4.6908374881e+01   7.5420610641e+00    0.4263157    0.1891493  41.31  0.002064589    2.376    0.579
        83 -11.3084    141.2813    229.5780   5.1630097255e+01   8.7595015200e+00    0.1717813   0.09967084  21.07 0.0009512306    1.584    0.369
        84 -12.6068     57.3998    221.1988   6.9361111617e+01   2.0694364752e+01    0.3702354    0.2032272 -51.22 0.0007890019    2.282    0.562
        85 -11.3876    207.8626    222.1271   3.8026744527e+01   1.7475024937e+00    0.1527997    0.1274338   1.16  0.000272385    1.190    0.160
        86 -12.9858    173.9543    219.5226   4.3760797151e+01   6.1811686381e+00    0.3003443    0.2178157 -36.98  0.001961116    1.472    0.321
        87 -12.6182     76.5385    219.4187   6.4755631334e+01   1.8803787815e+01    0.4230325     0.204734  52.95 0.0006299402    2.131    0.531
        88 -11.8660    239.1561    220.1784   3.2706269921e+01  -1.3799678077e+00    0.2223335    0.1018652  11.07   0.00116896    2.768    0.639
        89 -11.8966    190.0473    220.0998   4.0850510781e+01   4.1106069155e+00    0.1727407    0.1359425   3.16 0.0003182093    1.015    0.015
        90 -12.2919    165.7874    219.0268   4.5270074377e+01   7.2949341906e+00    0.2279963    0.1502108  24.24 0.0003003048    1.323    0.244
        91 -11.5185    194.1531    216.5198   3.9571102796e+01   4.1192797064e+00    0.3706999    0.1779902 -15.69  0.001659154    3.189    0.686
        92 -12.7465    144.9555    216.6929   4.9159812873e+01   1.0398033499e+01    0.3833818    0.2400222  43.06  0.001521841    1.664    0.399
        93 -13.1083    140.6479    210.1928   4.9159438282e+01   1.2095487882e+01    0.5096467    0.2857157 -65.79  0.002368088    2.964    0.663
        94 -11.8882     62.9842    216.8113   6.7704481498e+01   2.0944832651e+01    0.3751389    0.1767801  53.28  0.001288649    2.070    0.517
        95 -11.4765    226.0372    216.2694   3.4141423170e+01   4.7864339722e-01    0.1829943    0.1283375 -17.38 0.0006806008    1.159    0.138
        96 -11.2760    138.4680    216.5588   5.0508649392e+01   1.1286216271e+01    0.1965897    0.1686836  23.82 0.0006521309    1.055    0.052
        97 -11.7024    134.9755    214.4944   5.0975583981e+01   1.2113395601e+01     0.207206    0.1425554  53.88  0.001147842    1.819    0.450
        98 -12.4913    129.3837    217.0959   5.2530995885e+01   1.2407218445e+01    0.2991677    0.1626832  24.10 0.0007298324    1.741    0.426
        99 -12.5370    107.8701    214.8716   5.7037296858e+01   1.5685282383e+01    0.3127527     0.224286  56.68  0.001272778    1.559    0.358
       100 -12.5501     85.6863    214.8719   6.2171219905e+01   1.8569877961e+01    0.5313271    0.2240787  39.27  0.002058018    1.954    0.488
       101 -11.8546    156.5030    213.4844   4.6321580946e+01   9.3918251203e+00    0.1853375    0.1222559 -59.13 0.0008035321    2.141    0.533
       102 -11.3632     47.3196    206.4508   7.0659969386e+01   2.4908927760e+01    0.2588854    0.1635876 -76.55 0.0006921765    1.685    0.406
       103 -11.8955     45.5431    210.9609   7.1420247017e+01   2.4131672080e+01    0.2896347    0.1777014 -57.89  0.001170771    1.899    0.473
       104 -11.6967     42.1922    211.6020   7.2271175571e+01   2.4354059706e+01    0.2985541    0.2368539 -14.40  0.001814675    1.743    0.426
       105 -11.3500    172.4763    211.5023   4.2850476470e+01   7.5979878658e+00    0.1978825     0.147969 -32.55 0.0007478389    1.357    0.263
       106 -11.5326    170.0182    209.0241   4.2952088454e+01   8.3122174573e+00    0.1734891    0.1596219  31.20 0.0005339618    1.314    0.239
       107 -12.0607     60.3275    211.3378   6.7880670735e+01   2.2389115916e+01    0.4479963    0.1528778  38.01  0.001925308    2.250    0.556
       108 -12.1842     90.8644    210.3183   6.0461944837e+01   1.8814580746e+01     0.214753    0.1912052  76.58 0.0003137672    1.226    0.184
       109 -10.6847     70.6083    211.0590   6.5378633533e+01   2.1221728589e+01    0.1933981    0.1395198  64.12  0.001120551    1.405    0.288
       110 -12.6730    180.0405    207.7766   4.0823984457e+01   7.1862717756e+00    0.3001911    0.2226341   0.40 0.0005514762    1.244    0.196
       111 -12.8431    161.8957    208.4308   4.4478053336e+01   9.4966158541e+00    0.3726865    0.2871404 -81.71  0.001269457    2.424    0.587
       112 -13.4372     36.3596    205.0765   7.3259919682e+01   2.6376761112e+01    0.4628748    0.3524534 -68.75  0.001270627    1.459    0.314
       113 -12.2651    229.1612    207.1637   3.2214899898e+01   1.2920171846e+00    0.3255607    0.1923181 -20.91  0.002111444    1.444    0.308
       114 -10.8983     97.0548    210.1432   5.8981625830e+01   1.8036117975e+01    0.2090679      0.16686 -68.97  0.001128699    1.450    0.310
       115 -10.5353     86.3057    208.5547   6.1353715279e+01   1.9764294288e+01    0.1428805   0.08508515  61.62 -5.119154e-05    1.993    0.498
       116 -12.8521     27.5373    206.5246   7.5503214892e+01   2.6941462028e+01    0.2961439    0.2204333 -59.03 0.0005269755    1.605    0.377
       117 -11.8119    105.1952    206.1758   5.6590906026e+01   1.7728052823e+01    0.2384411    0.2186614 -39.41  0.001077834    1.223    0.183
       118 -10.8777    130.0473    205.7610   5.0847099862e+01   1.4362481742e+01    0.1754166    0.1470246  23.26 0.0002177089    1.056    0.053
       119 -10.6503     62.5988    205.7668   6.6841851147e+01   2.3305346067e+01    0.1599888    0.1169653  82.31 0.0003463481    1.461    0.315
       120 -12.9551    145.2799    201.3767   4.6870148013e+01   1.3010722290e+01       0.3564    0.3258381 -78.12  0.001219516    1.438    0.304
       121 -11.5736    113.4682    205.5034   5.4576287646e+01   1.6722378497e+01    0.2009691     0.105984  40.67 1.988586e-05    1.719    0.418
       122 -11.0826    110.6329    203.3192   5.4949292151e+01   1.7543706431e+01    0.1738918    0.1373507 -89.13 0.0008244399    1.628    0.386
       123 -11.6693    225.3517    203.6473   3.2250819705e+01   2.1821449780e+00    0.1939999    0.1466072 -20.00 0.0005635784    1.149    0.129
       124 -11.8958    212.7224    200.6928   3.3833657601e+01   4.0819818942e+00    0.2204687    0.1939226 -56.22  0.000715272    1.849    0.459
       125 -12.6378     91.2782    199.4507   5.9104099683e+01   2.0994658352e+01    0.4443631    0.2829798 -35.09  0.001649068    2.056    0.514
       126 -12.5048     45.9545    223.3282   7.2157245989e+01   2.1520909262e+01    0.5224515    0.2382696  60.85  0.002539189    2.251    0.556
       127 -11.6914    136.8448    200.8394   4.8628099689e+01   1.4310049624e+01    0.2565606     0.184512  74.63 0.0009285287    2.340    0.573
       128 -12.6785    138.1216    197.0409   4.7773669022e+01   1.4830671758e+01    0.4415061    0.1775604  30.90  0.001745703    2.369    0.578
       129 -13.5569    121.5385    197.3052   5.1577268191e+01   1.7182881523e+01     0.446194    0.3555794 -39.37   0.00263166    1.361    0.265
       130 -12.7966    177.2578    198.9987   3.9956365954e+01   8.9397431424e+00    0.3237386    0.2263358  30.92  0.001516861    1.373    0.272
       131 -13.5697    172.7110    195.6372   4.0293976955e+01   1.0117747234e+01    0.3592006    0.2670938  29.00 0.0006078579    1.282    0.220
       132 -10.3475     50.3453    200.2836   6.9424202363e+01   2.5928014863e+01    0.1221562   0.09931711 -19.92 0.0007016346    1.643    0.391
       133 -12.5905    149.5813    197.2106   4.5304408806e+01   1.3141330633e+01    0.2983799    0.2234586 -71.36  0.001594877    2.007    0.502
       134 -13.0183     34.9786    195.8344   7.2992625555e+01   2.8588502095e+01    0.5623851    0.2737445  37.77  0.002792494    1.703    0.413
       135 -11.3045    188.5263    191.0618   3.6494525209e+01   8.6598858346e+00    0.2570957     0.178762 -63.41    0.0013379    2.601    0.615
       136 -10.9220    102.1906    195.8516   5.5979978151e+01   2.0241059041e+01    0.1836787    0.1549206  -8.28 0.0006207497    1.363    0.266
       137 -11.1304    212.1480    194.1404   3.2838685430e+01   5.0799656919e+00    0.1478533    0.1331434 -18.46 0.0005541781    1.316    0.240
       138 -12.0205    160.0730    192.3257   4.2306509257e+01   1.2488303102e+01    0.2681181    0.2366927 -85.74  0.001647278    1.647    0.393
       139 -12.9561    132.8189    191.5930   4.8126558268e+01   1.6644830275e+01    0.3971771    0.2503405 -18.89  0.001582425    2.208    0.547
       140 -12.2463     92.2166    193.9256   5.8189637913e+01   2.2040747129e+01    0.4133464    0.2805752 -80.59  0.002138857    1.813    0.448
       141 -11.2635     64.1397    193.3360   6.5267321503e+01   2.5857389763e+01    0.1792149    0.1405722  41.11 0.0002473306    1.129    0.114
       142 -13.0026    110.4003    188.5593   5.2963818279e+01   2.0582398509e+01    0.3515532    0.2556314 -60.78  0.001191615    1.528    0.346
       143 -11.6907     51.0341    190.2737   6.8390327118e+01   2.8121538637e+01     0.313981    0.1580738  41.13  0.001170736    1.690    0.408
       144 -12.4836     37.3660    191.0548   7.2036719913e+01   2.9441631322e+01    0.3855366    0.1754995 -81.45  0.001743219    2.304    0.566
       145 -11.9989    151.1171    188.3531   4.3544770871e+01   1.4524175917e+01    0.2144687    0.1693951 -25.07 0.0004021252    1.284    0.221
       146 -11.3751    174.6784    188.6001   3.8724481104e+01   1.1013227682e+01    0.2330985    0.1141714  29.64 0.0008256575    2.040    0.510
       147 -10.9516    103.8610    188.1715   5.4518893555e+01   2.1621623351e+01    0.1843774    0.1563194  -4.09 0.0003376905    1.339    0.253
       148 -12.4268     32.6606    185.6521   7.2885827784e+01   3.1193576547e+01    0.4819443    0.1853506 -88.37    0.0018864    3.003    0.667
       149 -11.3717    227.8365    186.0691   2.8914313197e+01   4.2623437146e+00    0.2216567    0.1293185 -17.92  0.001127179    1.619    0.382
       150 -11.1857    186.1752    187.2346   3.6275880285e+01   9.5998412633e+00    0.1863324    0.1464789  -5.23 0.0004183762    1.165    0.142
       151 -13.2142    127.0293    185.7477   4.8549112180e+01   1.8669844714e+01    0.4147234    0.2349455  35.04  0.001261822    1.632    0.387
       152 -12.5293    248.7997    185.5186   2.5700764891e+01   1.8667832498e+00     0.206315    0.1465823 -16.02 0.0003471243    1.064    0.061
       153 -11.3409    209.3023    186.2962   3.1974650744e+01   6.5893279845e+00    0.1220499   0.07988165  -5.84 0.0002037527    1.578    0.366
       154 -12.0058    156.4995    186.0421   4.2005919028e+01   1.4139583273e+01    0.1894812    0.1250976 -41.61 0.0005317074    1.539    0.350
       155 -11.1931     76.5104    185.9885   6.1232314033e+01   2.5937453447e+01    0.1992552    0.1346467 -67.58  0.000652673    1.579    0.367
       156 -11.6362    163.8881    185.1189   4.0302381912e+01   1.3198220752e+01    0.1850685    0.1761005  46.93  0.000506948    1.290    0.225
       157 -12.1489    193.0061    194.3131   3.6220842043e+01   7.5438741218e+00    0.3442062    0.2300105   4.68  0.002022135    1.547    0.354
       158 -12.0501     94.5897    182.1420   5.6017711644e+01   2.4285930531e+01    0.3399071    0.2344764 -62.99 0.0009557824    1.564    0.361
       159 -10.3031     54.4690    184.5163   6.6937894200e+01   2.9065346578e+01    0.1347257    0.1212885  56.92 0.0008093991    1.035    0.033
       160 -12.8025    134.3383    182.0017   4.6238143018e+01   1.8299197699e+01    0.2626246    0.2153135  28.79 0.0002917691    1.143    0.125
       161 -12.3989    105.1495    182.7345   5.3411216046e+01   2.2602627001e+01    0.2260814    0.1873425 -76.65  0.000504593    1.371    0.271
       162 -13.4686    137.9987    177.3911   4.4614551655e+01   1.8646301314e+01    0.6079972    0.4069775  79.28   0.00220336    3.033    0.670
       163 -12.8920    155.0924    177.3964   4.0806158933e+01   1.5953082068e+01    0.3528129    0.2759672 -64.83   0.00119109    1.675    0.403
       164 -12.8566    116.0213    178.4983   5.0047298148e+01   2.1863748620e+01    0.3521012    0.2499538  23.43  0.001322489    1.437    0.304
       165 -11.6739    171.8665    178.0592   3.7434419328e+01   1.3243224346e+01    0.1937075    0.1704599  -6.38 0.0004217072    1.014    0.014
       166 -10.3641    161.2953    178.2777   3.9643820152e+01   1.4824819732e+01    0.1317026   0.09640577  -4.58 0.0001633572    1.531    0.347
       167 -13.3405    127.6632    175.7009   4.6752865871e+01   2.0628166551e+01    0.3622807    0.3147011 -59.07 0.0005202927    1.264    0.209
       168 -12.9665    132.0424    169.5665   4.4639028614e+01   2.1200199194e+01    0.4121994    0.2469272  33.90   0.00144784    1.619    0.382
       169 -11.4710    227.9883    177.2869   2.7350905694e+01   5.4712306690e+00    0.1601255    0.1281122 -10.99 0.0005449019    1.039    0.038
       170 -11.8021    191.6488    177.1905   3.3474415126e+01   1.0448694166e+01    0.1755706    0.1543065  11.57  0.001150689    1.134    0.118
       171 -11.7163     63.7413    176.5931   6.3564181776e+01   2.9809876441e+01    0.4617991      0.23486  11.48   0.00174349    3.105    0.678
       172 -12.9173     31.3782    176.3710   7.2549133051e+01   3.3558898657e+01     0.340139     0.284439  25.66  0.000656427    1.290    0.225
       173 -12.2625    106.5760    175.2114   5.1901955513e+01   2.4037224651e+01    0.2703283    0.1868518  35.87 0.0009109698    1.353    0.261
       174 -11.6877    208.5757    173.8095   2.9867793524e+01   8.5745294353e+00    0.1647852    0.1059011 -42.87 0.0004252111    1.603    0.376
       175 -13.1097     80.4636    172.6813   5.8460383917e+01   2.8491870087e+01    0.4270364     0.247442  34.90  0.001037361    1.599    0.375
       176 -11.6747     74.1710    170.1133   5.9854146747e+01   2.9986082634e+01    0.2333646    0.1961113  11.46 0.0007328238    1.359    0.264
       177 -12.5431    144.8274    172.9436   4.2275494981e+01   1.8440360369e+01    0.3661017    0.2036414  59.89  0.001384706    3.353    0.702
       178 -11.1991     45.3117    173.0115   6.8344357006e+01   3.2903904963e+01    0.1933239    0.1637052  80.80 0.0003703554    1.109    0.098
       179 -11.9733     91.3824    170.7678   5.5213555165e+01   2.7354771794e+01    0.3292183     0.228517 -47.02  0.001150272    1.567    0.362
       180 -12.7445     87.7476    168.4497   5.5854607704e+01   2.8440066198e+01    0.3456538    0.2520658  23.68  0.001339773    1.443    0.307
       181 -11.8862     13.8055    171.8974   7.7154987608e+01   3.6268538573e+01    0.1861612    0.1672685 -62.61 0.0006212867    1.291    0.226
       182 -13.0183     13.5455    161.9767   7.6651836328e+01   3.8770763526e+01    0.4902359    0.2438828  50.27  0.001387685    1.774    0.436
       183 -13.4586     15.0776    166.3710   7.6473869244e+01   3.7536894935e+01    0.6508422    0.3533027  36.90  0.002472864    1.659    0.397
       184 -11.9452     20.6932    165.3762   7.4786302779e+01   3.7303715373e+01    0.3252113    0.1936024  29.42  0.001662702    1.642    0.391
       185 -12.7357      3.3733    160.2013   7.9528591068e+01   3.9988845376e+01    0.3737518    0.2211796  80.80 0.0005439005    1.488    0.328
       186 -13.5623      4.0212    166.7689   7.9642762715e+01   3.8299880308e+01    0.5389495    0.2861711  50.53  0.001795775    1.610    0.379
       187 -12.5836      7.2867    163.6788   7.8565304380e+01   3.8829656481e+01    0.2734482    0.1844503  66.55  0.000463232    1.277    0.217
       188 -11.8872    197.8174    170.9761   3.1214483869e+01   1.0558564935e+01     0.210254     0.173738  13.97 0.0007859951    1.179    0.152
       189 -12.4088    163.6205    171.1281   3.7857374298e+01   1.5775497101e+01    0.2091048    0.1803409  38.55 0.0004471957    1.242    0.195
       190 -12.2901     53.1893    169.5936   6.5744632077e+01   3.2831045660e+01    0.5030379    0.2553274 -78.15 0.0003651782    2.099    0.524
       191 -10.4530    221.6824    170.3276   2.7081172014e+01   7.3022064115e+00    0.1083845   0.09284399 -55.49 0.0003293443    1.679    0.404
       192 -11.2410    173.5275    169.9743   3.5616553895e+01   1.4419007037e+01    0.1902374     0.122893 -39.92 0.0002944358    1.493    0.330
       193 -12.5879    153.3729    170.1184   3.9861695975e+01   1.7611739907e+01     0.254515    0.1922863  42.21 0.0008902308    1.377    0.274
       194 -13.0547    120.7593    168.4310   4.7190355381e+01   2.3280707841e+01    0.5728929    0.3059761  22.87  0.002343506    2.307    0.567
       195 -12.4312    127.2319    166.4156   4.5236102757e+01   2.2654738219e+01    0.3140211    0.2471405  -5.14  0.001333698    1.509    0.337
       196 -10.6715    234.6578    169.2872   2.4902661120e+01   5.7462920608e+00    0.1019827   0.08936737 -51.83 0.0006716201    1.644    0.392
       197 -11.7894     40.6469    168.7707   6.9273480438e+01   3.4475092495e+01    0.3492788    0.1954868  17.74  0.001593539    2.076    0.518
       198 -11.4347     63.1617    170.8723   6.3050075119e+01   3.1271405936e+01     0.225174    0.1693857  58.33 0.0007913298    1.270    0.212
       199 -14.3895     34.2658    247.0004   7.6012142589e+01   1.8179896967e+01     1.386588    0.4777529  44.69  0.007136963    2.038    0.509
       200 -12.9714    153.2021    164.6727   3.8878634656e+01   1.8697089330e+01    0.3673744    0.2918005 -29.27  0.001157655    1.254    0.203
       201 -12.1776    199.8435    164.0275   2.9544500887e+01   1.1386040147e+01    0.3261681    0.1307416 -45.83  0.001092119    2.645    0.622
       202 -12.4484    110.7045    164.4907   4.9066632560e+01   2.5785826468e+01    0.3502065    0.2693599 -31.91  0.001311078    1.479    0.324
       203 -12.5563     92.3850    162.5274   5.3656680876e+01   2.9145726048e+01    0.3959669    0.1974236  53.10  0.001252674    2.368    0.578
       204 -12.1744     56.6507    163.6860   6.4059344715e+01   3.3882825094e+01    0.3204587    0.1712948  61.28  0.001351716    2.101    0.524
       205 -11.5756     44.2481    164.4640   6.7797195417e+01   3.5160874939e+01    0.3265295    0.1929807   1.02  0.001292435    2.624    0.619
       206 -13.2786     47.5792    157.2068   6.6006627412e+01   3.6632629681e+01    0.4579326    0.2435875 -67.24  0.001094592    1.817    0.450
       207 -12.5536     25.8544    159.7767   7.2841956190e+01   3.8258321695e+01    0.4817181    0.2671762  81.81  0.001559914    1.792    0.442
       208 -12.4858    170.2641    160.5474   3.4467073777e+01   1.6655545437e+01    0.2688996    0.2364811  17.20  0.001616119    1.121    0.108
       209 -11.5538    168.0956    157.1064   3.4229904313e+01   1.7656416995e+01    0.2031151    0.1919952 -11.73 0.0003823285    1.062    0.058
       210 -12.0415     39.7805    161.4511   6.8817357790e+01   3.6421653035e+01    0.2645606    0.1187115  32.66 0.0009367544    2.038    0.509
       211 -12.6808    105.7561    158.9309   4.9402193362e+01   2.7865399189e+01    0.4912087    0.2529118  52.72  0.001643297    2.329    0.571
       212 -12.0305    250.0971    158.5109   2.0759383208e+01   5.2768155307e+00    0.2074819    0.1313229 -30.21 0.0004331577    1.229    0.187
       213 -12.6217    119.0762    157.9495   4.5727366068e+01   2.5869571114e+01    0.3600815    0.2603511  51.78  0.001347962    1.474    0.322
       214 -12.8014     31.3453    157.4602   7.0982169893e+01   3.8325149249e+01    0.3222744    0.2928299 -21.68  0.001183373    1.353    0.261
       215 -13.2378    132.5952    156.6847   4.2109418080e+01   2.3832303402e+01    0.4167221     0.355392 -84.53  0.001650357    1.437    0.304
       216 -11.9915    141.2373    155.4923   3.9812740143e+01   2.2585643866e+01    0.2432188    0.1936058 -45.54 0.0003897735    1.257    0.205
       217 -11.9257     69.0021    158.9767   5.9804826096e+01   3.3444287301e+01    0.2123498    0.1997093  68.33            0    1.021    0.021
       218 -14.1661     82.8642    151.0299   5.4482678814e+01   3.3416827680e+01     0.834242    0.5217812 -21.41  0.003280305    2.695    0.629
       219 -13.7803     75.9319    150.8222   5.6511312917e+01   3.4512119747e+01    0.4836136    0.3962517  76.05  0.002524666    1.263    0.208
       220 -10.9570     20.6166    154.8323   7.4041380020e+01   4.0008130900e+01      0.21604    0.1466868  40.21 0.0007302647    1.386    0.278
       221 -13.6375      3.9607    153.0223   7.9003727758e+01   4.1774600632e+01    0.5196263    0.4152132  79.42  0.002785723    1.067    0.063
       222 -12.2081     66.9941    154.0237   5.9693331944e+01   3.4973930223e+01    0.2138176    0.2086493 -87.68 0.0004437096    1.086    0.079
       223 -11.7050     13.6952    153.1443   7.6043828586e+01   4.1022635082e+01    0.3860637    0.1727622  53.93  0.001693584    2.065    0.516
       224 -11.8426    141.8836    162.9776   4.1111810345e+01   2.0929166588e+01    0.2051093    0.1937443  -5.54 0.0003313204    1.019    0.018
       225 -10.8893    154.2929    150.9765   3.5929877535e+01   2.1219952773e+01    0.1936255    0.1762492 -37.35 0.0004177731    1.083    0.077
       226 -11.5697    190.4729    156.0399   2.9667966523e+01   1.4172864558e+01    0.2045154    0.1182124 -39.91 0.0009512821    1.594    0.373
       227 -12.3200    109.5809    149.0384   4.6541496892e+01   2.9531226494e+01     0.438428    0.2774033  42.91  0.001247507    1.555    0.357
       228 -13.0328     96.4986    148.8407   5.0142805484e+01   3.1784348737e+01    0.2911817    0.2786356 -48.92 0.0003817621    1.088    0.081
       229 -12.0059     28.4469    149.9576   7.1188539311e+01   4.0564453521e+01    0.3971723     0.205058  10.90  0.001672235    2.538    0.606
       230 -11.2316     19.6964    148.9982   7.3871342246e+01   4.1609700766e+01    0.2818623    0.1811143 -46.13  0.001402119    1.823    0.452
       231 -13.0474      8.9526    125.3204   7.5576159548e+01   4.8750902849e+01    0.4958949    0.2090792  44.39  0.002100077    2.258    0.557
       232 -12.2562     19.7171    137.9566   7.2928932853e+01   4.4537146467e+01    0.2206962    0.1947901  72.53  0.001118202    1.034    0.033
       233 -11.7309     17.0331    135.0122   7.3574573781e+01   4.5546557150e+01    0.2026748    0.1418678  61.46 0.0003555492    1.341    0.255
       234 -13.9152     18.2363    131.2558   7.2819262001e+01   4.6461849962e+01    0.6926354     0.299016  28.82  0.002944779    2.256    0.557
       235 -13.6987      9.2372    145.5771   7.6938919290e+01   4.3333875371e+01    0.4740056    0.2907092 -89.84  0.001778499    1.459    0.315
       236 -14.3971     11.7629    141.9275   7.5878610988e+01   4.4109216945e+01    0.8554864    0.5116632  85.51  0.003871845    1.527    0.345
       237 -12.8738     52.8101    136.1620   6.1550733543e+01   4.1528872775e+01    0.3698564    0.3315606 -56.33  0.001408458    1.168    0.144
       238 -13.3560     51.8681    142.7225   6.2814685901e+01   3.9902609212e+01    0.7148342    0.2879663  57.95  0.002302577    3.483    0.713
       239 -11.7828     47.1889    141.7733   6.4211615151e+01   4.0724252347e+01     0.299851    0.2269564  89.43 0.0007152799    1.293    0.226
       240 -12.9297     22.5185    144.1337   7.2556664765e+01   4.2648919153e+01     0.472054    0.2622819  57.83  0.002202642    1.740    0.425
       241 -11.7857    170.9495    145.3066   3.1225230152e+01   1.9384788088e+01    0.1926904    0.1789599   1.01 0.0006799853    1.063    0.060
       242 -11.3889    157.2994    145.2462   3.4075621326e+01   2.1827320400e+01    0.3251659    0.1851386  25.27  0.001365509    2.283    0.562
       243 -13.0288    102.5674    143.1853   4.7342985384e+01   3.2129238698e+01    0.6431481    0.3773722  67.83  0.002375019    2.770    0.639
       244 -10.7915    186.9925    143.9846   2.7846593340e+01   1.6848946074e+01     0.160215    0.1423442 -22.16 0.0009672657    1.002    0.002
       245 -11.2844    143.4642    142.6089   3.6637111177e+01   2.4886386067e+01    0.4830108    0.2188813 -33.94  0.001705406    2.905    0.656
       246 -11.2957     85.5375    143.9091   5.2445551031e+01   3.4781446773e+01     0.215613    0.1457635 -61.02 0.0004475901    1.483    0.326
       247 -11.1239     62.4852    144.4775   5.9664668223e+01   3.8055353982e+01    0.1470826    0.1382008  77.52 0.0004043917    1.016    0.016
       248 -11.2518    179.4477    142.7538   2.9008752059e+01   1.8369516768e+01    0.2282839    0.1704689  54.62 0.0006037505    1.637    0.389
       249 -11.0417     48.6402    148.1859   6.4581502123e+01   3.8855303526e+01    0.2004712    0.1230349 -60.93  0.000350331    1.600    0.375
       250 -11.9021     59.8743    140.4162   5.9875962573e+01   3.9474631336e+01    0.3159828    0.1661299 -50.86  0.001308144    1.986    0.496
       251 -12.5877     94.2447    139.1953   4.8962257082e+01   3.4525507043e+01    0.3463502    0.2628307   5.43  0.001606538    1.733    0.423
       252 -12.9441     72.4358    139.3110   5.5666289864e+01   3.7979927875e+01    0.2768688    0.2434518  66.62 0.0004729113    1.114    0.103
       253 -10.9478    206.0375    139.2169   2.3530727475e+01   1.4489909634e+01    0.1573107      0.10599  40.47  0.000706076    1.674    0.403
       254 -12.8424     40.5817    137.7611   6.5880074201e+01   4.2557322130e+01    0.4045022    0.2530634  65.24 0.0008829227    1.675    0.403
       255 -11.2179    132.7623    137.8011   3.8177764147e+01   2.7907306190e+01    0.3049093    0.1822703 -69.02  0.001172397    2.557    0.609
       256 -12.5000     45.1969    135.4071   6.4005940904e+01   4.2662608847e+01    0.4217859    0.2101474 -83.00  0.001191783    2.239    0.553
       257 -13.3054    123.1193    134.7839   3.9974488489e+01   3.0390680221e+01    0.3881205    0.3278951  33.79 0.0005782921    1.213    0.176
       258 -13.8585     60.2697    134.6809   5.8828820728e+01   4.0937915418e+01    0.6772411    0.3468994  52.21  0.002695788    2.129    0.530
       259 -11.0129     32.2349    136.5279   6.8552422910e+01   4.3770770242e+01      0.17992    0.1413266   0.02 0.0005137083    1.582    0.368
       260 -11.3548    196.7952    134.8397   2.4159059124e+01   1.6768107515e+01    0.2341956    0.1815834  85.70   0.00123503    2.091    0.522
       261 -12.4897     86.3073    134.6568   5.0462483347e+01   3.6990359114e+01    0.2919877    0.2628982  57.44 0.0007977685    1.096    0.087
       262 -11.2932    210.1306    133.9140   2.1761968265e+01   1.4688609300e+01    0.1898297    0.1625215 -43.22 0.0004470744    1.195    0.163
       263 -11.8758    175.0954    134.1432   2.7987271705e+01   2.0737470336e+01    0.2172113    0.1801042 -10.74  0.000746107    1.279    0.218
       264 -12.8554     77.8340    132.9271   5.2784922533e+01   3.8803308276e+01     0.354605     0.241356 -50.82  0.000502146    1.491    0.329
       265 -13.1574     82.9309    128.3228   5.0247418404e+01   3.9162358001e+01    0.5085914     0.324522 -28.67  0.002051048    2.254    0.556
       266 -12.2009    102.0419    133.2723   4.5465646079e+01   3.4622145215e+01    0.2153187      0.20095  50.68  0.000417132    1.066    0.062
       267 -10.7486    191.4916    147.4905   2.7752855568e+01   1.5481309940e+01    0.1342216    0.1167274 -19.36 -5.536123e-05    1.025    0.024
       268 -12.3072     50.5163    130.5224   6.1463940864e+01   4.3331043342e+01    0.2470892    0.2362202  67.51 0.0005551848    1.063    0.059
       269 -10.1006     31.3136    131.3340   6.8260295494e+01   4.5266534722e+01    0.1487322    0.1013788 -42.33 0.0003344997    1.685    0.406
       270 -12.4745      9.0906    131.2335   7.5987934099e+01   4.7150380379e+01    0.1967856    0.1753765 -59.55 0.0003818521    1.209    0.173
       271 -11.9273    104.8705    129.6993   4.3873461715e+01   3.4976522491e+01     0.246527    0.2051713 -44.50 0.0001850905    1.227    0.185
       272 -12.0557    130.3780    128.5864   3.6704599165e+01   3.0397585035e+01    0.2597895    0.2474901 -66.73  0.001053777    1.067    0.063
       273 -12.2338    123.0111    127.9919   3.8471970178e+01   3.1957824471e+01    0.4626949     0.261643 -38.73  0.001886721    1.936    0.483
       274 -11.4689    125.3918    123.5559   3.6807670719e+01   3.2499378886e+01     0.298318     0.211978 -82.59  0.001269294    2.032    0.508
       275 -11.8419    122.0147    124.2670   3.7866995257e+01   3.3000998419e+01    0.3162625    0.2445198  23.42 0.0005567588    1.503    0.335
       276 -11.8891    110.3345    128.6394   4.2078535420e+01   3.4218815154e+01    0.3392732    0.2220211  86.56  0.001287614    2.590    0.614
       277 -13.2370     56.5361    127.8633   5.8950212269e+01   4.3263374034e+01    0.4067616    0.2671284  36.79  0.001894596    1.514    0.340
       278 -12.0069     26.5661    125.9155   6.9301866153e+01   4.7193111893e+01    0.3005697    0.2044199 -50.74 0.0008928858    1.536    0.349
       279 -10.5667      1.3116    127.2938   7.8412900987e+01   4.8694150976e+01    0.1349058   0.09193748 -49.48 0.0002600471    1.592    0.372
       280 -13.0387     73.5304    114.2018   5.0356812392e+01   4.4360910297e+01    0.4757853    0.3302907  86.25   0.00133282    1.823    0.452
       281 -12.2925     77.6211    113.2215   4.8725988812e+01   4.3936647900e+01    0.4659515    0.2251812 -60.64 0.0008246974    2.083    0.520
       282 -13.9848     75.7959    124.0104   5.1683278247e+01   4.1439810317e+01    0.8067695    0.3015252 -60.19  0.002647689    2.634    0.620
       283 -12.4708     78.5911    119.2363   4.9742968858e+01   4.2221235060e+01    0.3678657    0.2799824 -66.06 0.0009248689    1.304    0.233
       284 -13.5344     81.8787    115.9092   4.7904803268e+01   4.2520646540e+01    0.5719392    0.4264494 -60.47  0.001163862    1.314    0.239
       285 -11.6701     49.8596    123.7675   6.0604359332e+01   4.5237135317e+01    0.2533297    0.1878786 -44.78 0.0008318911    1.461    0.315
       286 -11.3955     41.4591    124.4728   6.3731482988e+01   4.6054362509e+01    0.1481754    0.1340565  83.47 5.420791e-05    1.026    0.025
       287 -13.9278      4.4695    112.2462   7.6170363048e+01   5.2567039539e+01    0.7801568    0.4110974 -88.40  0.003619054    1.720    0.418
       288 -13.3918     10.7526    111.4539   7.3657619506e+01   5.2396729527e+01    0.3984989    0.3170668 -85.04    0.0015305    1.109    0.098
       289 -14.2694     13.3485    119.3874   7.3447934087e+01   5.0055611170e+01    0.6816801    0.4666745  44.87  0.002781042    1.453    0.312
       290 -12.9091      9.0095    117.5292   7.4897731076e+01   5.0857250181e+01    0.3503109    0.2621652  -6.36  0.001376769    1.648    0.393
       291 -13.2846    193.1282    121.5745   2.1869410115e+01   1.9706283163e+01    0.3245895    0.2949073  31.64 0.0004760307    1.223    0.183
       292 -12.0688    179.0466    121.8277   2.4443195615e+01   2.2284360175e+01    0.2273818    0.1853199 -37.33 0.0003584188    1.114    0.102
       293 -12.1911    104.7574    121.1642   4.1963858964e+01   3.7058527230e+01    0.2765136    0.2053744  53.23 0.0008153275    1.411    0.291
       294 -11.6576     29.3540    117.7341   6.7237114367e+01   4.9167913684e+01    0.5375229    0.1926913 -50.26 0.0009929414    2.887    0.654
       295 -11.9748     22.1686    118.6893   7.0069279991e+01   4.9556061224e+01    0.3888285    0.1490731 -65.67  0.001449899    2.234    0.552
       296 -12.1427     55.3616    121.6956   5.8280943327e+01   4.5078377390e+01    0.2479848    0.1361286  36.09 0.0008144482    1.802    0.445
       297 -11.1072     47.0346    119.6210   6.0930121496e+01   4.6713501744e+01    0.3078589    0.1116128  36.94 0.0007650246    2.586    0.613
       298 -10.4074     36.4044    119.2670   6.4807354471e+01   4.8032859694e+01     0.150227    0.1058367 -31.14  0.000697133    1.744    0.427
       299 -12.5569     93.2180    116.3966   4.4346429533e+01   4.0379656363e+01    0.4368981    0.1414302  41.14  0.001364712    3.040    0.671
       300 -13.2434     99.1445    114.0132   4.1929468915e+01   3.9858568322e+01    0.6222138    0.4075379   0.46  0.001723938    3.009    0.668
       301 -11.2614    196.7925    115.3666   1.9846419745e+01   2.0103199757e+01    0.1871291    0.1535999 -13.15 0.0006491953    1.301    0.231
       302 -11.0727    198.6422    112.2264   1.8827428710e+01   2.0294538467e+01    0.1909738    0.1147597 -30.57 0.0005235101    1.581    0.367
       303 -12.0832    114.3641    114.0250   3.7463021977e+01   3.6876777111e+01    0.3987734    0.1830863 -42.87  0.001089027    2.269    0.559
       304 -14.0977     62.6251    111.1023   5.3567330760e+01   4.6881749393e+01    0.9028893    0.3423935 -57.26  0.003177493    2.420    0.587
       305 -11.4761     21.1914    110.3652   6.9421106136e+01   5.1918455287e+01    0.2783698    0.1553195  32.97  0.000991259    1.820    0.451
       306 -10.7850     36.2800    109.7348   6.3356949270e+01   5.0654021749e+01    0.1455083    0.1036457  63.99 0.0002835801    1.483    0.326
       307 -10.8833    210.1866    108.6151   1.6238738532e+01   1.8784862343e+01    0.1628483    0.1231987  35.14 0.0004640984    1.589    0.371
       308 -12.4280     76.3947    107.4978   4.7804622451e+01   4.5618134661e+01    0.3950445    0.2564792  86.94  0.001195839    2.251    0.556
       309 -10.9578    139.9933    107.4673   2.9133470451e+01   3.3016437044e+01     0.225747    0.1510114  48.92 0.0009049496    1.562    0.360
       310 -11.4700    121.7425    106.9382   3.3605141496e+01   3.6981897118e+01    0.2720822     0.205248 -63.53 0.0009918582    1.431    0.301
       311 -12.4339     11.9959    104.8612   7.2459469120e+01   5.4113152866e+01    0.3827176    0.2455296 -46.37  0.001276039    1.616    0.381
       312 -12.2551    104.2150    103.2256   3.7606286715e+01   4.1449878978e+01    0.3934443    0.2876832 -13.86  0.001665157    2.024    0.506
       313 -12.4094     78.5382    101.7554   4.5621202845e+01   4.6709767715e+01    0.3030501    0.2865083  57.21  0.001098683    1.071    0.066
       314 -12.3847     55.8318    101.1698   5.3951990015e+01   5.0514962357e+01    0.3291526    0.2233438 -57.13 0.0005728239    1.394    0.282
       315 -12.3312     57.8047     97.5048   5.2319692265e+01   5.1195059049e+01    0.3190526    0.2457578  45.97 0.0007849587    1.338    0.253
       316 -12.7501     67.8638    114.0691   5.2316220897e+01   4.5298141666e+01    0.3527804    0.2479155 -58.42 0.0006591163    1.369    0.269
       317 -12.9009      6.3105     99.2838   7.4217745235e+01   5.5982301199e+01    0.4680787    0.3887002 -11.92  0.002714972    1.411    0.291
       318 -12.7844     93.9949     98.7612   3.9586348333e+01   4.4553826689e+01    0.4281881    0.3072021  54.86 0.0009464722    1.489    0.328
       319 -11.4852     68.5140     98.9234   4.8544007066e+01   4.9147206056e+01    0.2360506    0.1479014 -59.39  0.001017395    1.547    0.353
       320 -11.1860    190.2306     98.4026   1.6905654851e+01   2.4260902537e+01    0.1840407    0.1351445  72.98 0.0009533407    1.713    0.416
       321 -10.9369    115.0883     98.5301   3.3145441645e+01   4.0269848778e+01     0.228403      0.13455  68.33 0.0008069425    2.664    0.625
       322 -11.0018    166.3304     97.2977   2.0829696686e+01   2.9399306837e+01    0.1436113    0.1152699   5.90 0.0002844047    1.640    0.390
       323 -11.3223     74.6490     97.3215   4.5860796977e+01   4.8515047223e+01    0.1642905    0.1187935  73.82 0.0007048166    1.747    0.428
       324 -11.5255     62.3111     97.3018   5.0503960731e+01   5.0562091788e+01    0.1542651    0.1170667 -26.66 0.0002892306    1.607    0.378
       325 -12.2947     82.2819     95.2274   4.2561112900e+01   4.7660217008e+01    0.4273487    0.1961531 -47.43 0.0009629595    2.160    0.537
       326 -10.5299    118.1832     95.6433   3.1471506210e+01   4.0246301490e+01    0.1982143    0.1463684  37.43 0.0004018723    1.478    0.323
       327 -11.0571    174.3124     98.3249   1.9607432411e+01   2.7526264210e+01    0.1424636    0.1126372   0.47 0.0004537459    1.660    0.398
       328 -11.1830     85.6675    100.0676   4.2707597418e+01   4.5834154934e+01    0.2240285    0.1999892 -54.99 0.0007186318    1.095    0.087
       329 -13.1274      3.9482     89.6553   7.4209733926e+01   5.8713221439e+01    0.5505681    0.3246609  83.39    0.0025593    1.666    0.400
       330 -10.6669    231.5812     92.8132   9.9088086729e+00   1.7446125011e+01    0.1718703   0.09517971 -42.66 0.0009162442    1.472    0.321
       331 -12.8634     78.4921     92.4984   4.3150118306e+01   4.9033302125e+01    0.4129975    0.2543612  53.86  0.001720135    1.835    0.455
       332 -12.9805     73.9935     90.3158   4.4188403872e+01   5.0387016243e+01    0.3721229    0.2874046  39.03  0.001695177    1.333    0.250
       333 -11.6444    125.0460     88.2158   2.7487702191e+01   4.0324053527e+01    0.4506139    0.2124198 -43.81  0.001695984    2.055    0.513
       334 -11.0341    121.1600     89.8352   2.8984349488e+01   4.0850365514e+01    0.2373361    0.2034651 -75.62 0.0008130771    1.249    0.199
       335 -10.6043     28.4969     90.5164   6.3210516560e+01   5.6682282331e+01    0.1449194    0.1321024 -67.34 0.0001988958    1.020    0.020
       336 -12.4274    153.8875     88.0015   2.0789028228e+01   3.3860895576e+01     0.421224     0.165506 -49.93  0.001425581    2.786    0.641
       337 -11.2415     11.9916     86.9794   7.0172246843e+01   5.8973161195e+01    0.3395571    0.1804372 -35.56  0.001501915    2.130    0.530
       338 -10.3163    205.6621     87.2994   1.1922345215e+01   2.3034239465e+01    0.1375136   0.09340265 -62.58 0.0003642877    1.661    0.398
       339 -12.3883     54.6433     85.6347   5.0594868595e+01   5.4751738505e+01    0.5749947    0.4853037 -61.97  0.003000488    1.132    0.117
       340 -11.6008     56.0276     78.1238   4.7875533828e+01   5.6441268893e+01    0.3015286    0.2266952  15.25 0.0006008745    1.575    0.365
       341 -11.9355    134.6872     84.1003   2.3887221963e+01   3.8973381280e+01    0.2511837    0.2423759  40.44 0.0004955406    1.122    0.109
       342 -11.6172     95.3903     83.0815   3.4522595216e+01   4.7933019896e+01    0.3992349    0.2917549 -27.48  0.001594433    1.670    0.401
       343 -10.7890    189.9758     82.9765   1.3101614813e+01   2.6891634986e+01    0.1691712    0.1442717 -44.55 0.0003251804    1.028    0.027
       344 -11.6916     79.4661     82.9613   3.9988336661e+01   5.1163937368e+01    0.2330031    0.1490563 -52.07 0.0004247569    1.526    0.345
       345 -12.2252    215.5239     80.9819   9.1494923775e+00   2.2104459949e+01    0.2676951    0.1918467 -47.75 0.0004034547    1.203    0.169
       346 -12.5442     66.3538     81.5397   4.4589403709e+01   5.3896308314e+01    0.3115796    0.1860209 -53.01   0.00109367    1.609    0.378
       347 -11.3746     10.1730     81.8651   7.0279278178e+01   6.0462151577e+01     0.238538    0.1719709 -89.37 0.0007212598    1.337    0.252
       348 -11.8932      9.0542     77.4391   7.0151136325e+01   6.1710070005e+01    0.3012121     0.181827 -73.69 0.0008096006    1.468    0.319
       349 -12.3551     88.5092     79.3901   3.5650353057e+01   5.0198848899e+01    0.3702005    0.2677319 -34.14  0.001196864    1.537    0.349
       350 -11.9583    112.1640     78.0435   2.7831470877e+01   4.5354076404e+01    0.5126792    0.3321167  89.87  0.001904692    2.668    0.625
       351 -11.2325    150.9033     75.3507   1.7770433429e+01   3.6872746909e+01    0.1990351    0.1850182  71.31  0.000420314    1.116    0.104
       352 -11.9443    102.3924     77.0809   3.0391063692e+01   4.7744297951e+01    0.2614832    0.2227544  47.39 0.0003219511    1.198    0.165
       353 -11.8364     86.5016     73.4685   3.4393337056e+01   5.1941572353e+01    0.2706496    0.1447853 -57.78 0.0008036288    2.162    0.537
       354 -11.0010    214.5492     73.4712   7.4926962699e+00   2.3404970169e+01    0.1313559    0.1098412 -42.27 0.0001198191    1.039    0.038
       355 -11.5982    105.4278     73.0919   2.8159162769e+01   4.7905523450e+01    0.2977034    0.2296263  59.98 0.0008690633    1.350    0.259
       356 -10.3604    124.2933     72.2534   2.2747965874e+01   4.3707840370e+01    0.1433288    0.1208997  18.02 0.0002349132    1.488    0.328
       357 -12.7105     54.7650     69.4315   4.5718873445e+01   5.8770214381e+01    0.4046358    0.2937875 -14.04 0.0005152191    1.831    0.454
       358 -11.4838      2.8837     71.2563   7.2381861682e+01   6.3666196497e+01    0.4012659    0.1856859 -84.00   0.00173139    2.100    0.524
       359 -10.5499    183.3161     71.7276   1.1170693543e+01   3.0133120839e+01    0.1417166   0.09885072 -66.04 0.0002385336    1.561    0.359
       360 -12.0086     77.4316     70.5757   3.6704808488e+01   5.4426554946e+01    0.3547273    0.2343082  60.49  0.001530145    1.834    0.455
       361 -12.9378     61.2969     68.5607   4.2542416001e+01   5.7889077743e+01    0.4606583    0.3341845 -84.77  0.001409359    1.880    0.468
       362 -11.6851    154.3996     68.4658   1.5058945650e+01   3.7261141098e+01    0.2460528    0.2273791 -57.14  0.000140564    1.020    0.020
       363 -11.5346     72.0032     68.5718   3.8111091011e+01   5.5934408361e+01      0.42123    0.2611971  12.27   0.00152588    2.988    0.665
       364 -10.3613    121.0000     68.0004   2.2183833172e+01   4.5299494263e+01    0.2508808   0.08541975 -39.56 0.0006200564    2.888    0.654
       365 -12.0612     49.1358     66.8533   4.7474295703e+01   6.0265305281e+01    0.3438462    0.2773838  18.75  0.001784807    1.356    0.262
       366 -11.6452     46.8279     62.7264   4.7201811363e+01   6.1599252061e+01    0.2563736    0.1946667  37.29 0.0007830627    1.369    0.270
       367 -11.6210      8.5557     67.1637   6.8668905917e+01   6.4443426471e+01    0.3108771     0.188013  30.47  0.001564339    1.791    0.442
       368 -11.2075     39.0472     65.2021   5.1892622871e+01   6.2082584750e+01    0.2033427    0.1801115 -33.51 0.0003656098    1.122    0.108
       369 -11.4753    164.8440     64.1718   1.1963512601e+01   3.5526301782e+01    0.2128023    0.1767818 -62.64 0.0002861904    1.145    0.127
       370 -11.3357     10.3253     63.1073   6.6895026565e+01   6.5386435526e+01    0.3050687    0.1711597  32.07  0.001477443    1.919    0.479
       371 -10.6720    123.5687     61.5045   1.9366798652e+01   4.5883208256e+01    0.1504055    0.1433575 -69.23 7.437675e-05    1.014    0.014
       372 -10.6998     27.5060     60.5613   5.6597139365e+01   6.4589475315e+01    0.1373524    0.1305687 -61.21 1.223149e-05    1.056    0.053
       373 -11.3521     13.2158     59.9157   6.4538481274e+01   6.6009996678e+01    0.2500719    0.1765571  49.57  0.001180699    1.622    0.383
       374 -11.6734    115.9647     54.0329   1.8614027818e+01   4.9047827577e+01    0.2293374    0.1946899 -72.58 0.0003580668    1.227    0.185
       375 -12.1268    114.1843     50.8094   1.7883428888e+01   5.0033681944e+01    0.3344732    0.2162303  46.49 0.0009143904    1.623    0.384
       376 -13.0125    111.0111     56.1852   2.0672384458e+01   4.9869279934e+01    0.5406584    0.3684362 -32.89  0.002490897    1.555    0.357
       377 -12.9508    107.3187     51.3207   1.9861131790e+01   5.1616905698e+01    0.5809315    0.2591242  57.62  0.001853471    2.275    0.560
       378 -12.2247     32.0057     56.0137   5.2668199193e+01   6.5195161131e+01    0.3376658     0.272264  60.22  0.001825216    1.473    0.321
       379 -12.9851     37.6379     54.9057   4.9190278122e+01   6.4744978186e+01    0.7053795     0.357499 -51.54  0.003085094    1.820    0.451
       380 -12.0529    153.4884     57.0227   1.1758211020e+01   3.9368850729e+01    0.2582202    0.2111747  71.89 0.0003476565    1.246    0.197
       381 -10.8017    179.6741     56.2870   7.4930511909e+00   3.3327749059e+01    0.1458676    0.0954228 -64.60 0.0002521031    1.608    0.378
       382 -12.5770     22.9052     55.0457   5.7567042863e+01   6.6415968955e+01    0.3074935     0.241341 -31.76 0.0009429795    1.266    0.210
       383 -10.4319    126.2868     54.3028   1.6261968450e+01   4.6470808400e+01    0.1441036    0.1185135  19.50  0.000183236    1.561    0.359
       384 -12.1043    172.4604     49.2755   6.4978229205e+00   3.6020294928e+01     0.352471    0.2140326 -70.00 0.0004122071    1.896    0.473
       385 -11.6369    150.9870     50.9780   1.0305561451e+01   4.0919676798e+01    0.2172439    0.1993475 -62.47 0.0003324208    1.022    0.022
       386 -11.1616    131.0308     51.4867   1.4259031179e+01   4.5762784621e+01    0.2119595    0.1152608  39.07 0.0007501753    2.471    0.595
       387 -13.0313     30.1638     49.9060   5.1592932804e+01   6.6861391349e+01    0.3509693    0.2961339 -82.36   0.00150772    1.370    0.270
       388 -12.5078     99.3122     49.6178   2.1460790448e+01   5.3832021775e+01    0.2872137    0.2630233 -84.45 0.0005510636    1.122    0.109
       389 -11.3780     43.0056     57.2468   4.7197791520e+01   6.3450423229e+01    0.3897938    0.2015309 -37.65 0.0003662132    2.191    0.544
       390 -11.6718     18.5589     49.1780   5.8386227142e+01   6.8247132875e+01    0.3087974    0.2008005  -4.57  0.001550261    1.793    0.442
       391 -12.2422    194.3132     44.1428   2.4212591186e+00   3.1754899716e+01    0.2338573    0.1993446 -64.54 0.0002684873    1.061    0.057
       392 -11.5844     49.8213     44.0335   3.8389233637e+01   6.5281933066e+01     0.220177    0.1946215  22.05 0.0003219924    1.144    0.126
       393 -12.1931     22.9104     42.4374   5.3274047387e+01   6.9407132415e+01    0.3633589     0.211452  -9.03  0.001616588    2.344    0.573
       394 -12.3345    155.0271     41.0107   6.5066701451e+00   4.1384991723e+01    0.3609383    0.2046527 -49.80  0.001148288    1.682    0.406
       395 -11.8727    143.1896     41.6422   8.6089655773e+00   4.4231636933e+01    0.2465956    0.1859849 -50.05  0.001098311    1.258    0.205
       396 -11.2064      2.9826     41.9852   6.6639672597e+01   7.1075486302e+01    0.1935212    0.1695607 -52.20 0.0003445927    1.018    0.017
       397 -13.2613     33.5388     40.4374   4.5809194822e+01   6.8558261194e+01     0.519177    0.2584004  30.08  0.002306821    2.087    0.521
       398 -12.0905    120.7199     39.2557   1.2064814455e+01   5.0231171881e+01    0.2640404    0.2366847  84.84 0.0003984382    1.075    0.070
       399 -11.7387     80.2458     37.0212   2.2220359875e+01   6.0417441486e+01    0.3504321    0.2524773 -37.50  0.001173877    1.417    0.294
       400 -11.4609     88.3924     36.7791   1.9430538333e+01   5.8564463448e+01    0.2033634    0.1409791 -20.60 0.0009495338    1.706    0.414
       401 -11.9552     22.4669     36.9737   5.1381041869e+01   7.0684673563e+01    0.2714737     0.144136  57.20  0.001035215    3.534    0.717
       402 -11.8116      9.2589     36.8521   6.0623808123e+01   7.1913764609e+01     0.208345    0.1721947  30.29 0.0006661192    1.347    0.258
       403 -11.3082     86.3013     34.3123   1.8987198333e+01   5.9443619432e+01    0.1456588    0.1108234  21.63 0.0002788711    1.609    0.378
       404 -11.3079     42.2102     33.7912   3.7621599023e+01   6.8606809607e+01    0.1893841    0.1537797  -9.11 0.0003584486    1.321    0.243
       405 -11.2745      5.0659     34.4936   6.2951977740e+01   7.2738414426e+01     0.175019    0.1240262  10.44 0.0003768054    1.498    0.332
       406 -12.0359    174.2518     32.2033   1.3215683161e+00   3.7899406151e+01    0.2266857    0.1925186 -72.18 0.0003603986    1.063    0.059
       407 -11.2259     14.7514     33.3772   5.5313919103e+01   7.2260501674e+01    0.1717047    0.1190156   0.98 0.0003231973    1.551    0.355
       408 -11.5366    106.7732     32.5863   1.2606463652e+01   5.4697865439e+01    0.2086125    0.1362014  76.93  0.000951693    1.680    0.405
       409 -12.7205     30.6980     31.5640   4.3445839948e+01   7.0804544816e+01    0.2684348    0.2397609 -31.66   0.00163919    1.061    0.057
       410 -11.0747     24.3280     31.2978   4.7567612299e+01   7.1691030028e+01    0.1384885   0.09408066 -19.97  0.000267253    1.635    0.388
       411 -11.8111     75.8276     29.0305   1.9995342600e+01   6.2681301563e+01    0.2141344     0.189369 -70.65 0.0005284533    1.274    0.215
       412 -12.2720     44.9825     26.0142   3.1970128826e+01   6.9550607685e+01    0.2700796    0.2027639 -44.98  0.001477356    1.400    0.286
       413 -11.1322      1.4898     25.9003   6.2862028755e+01   7.4910197135e+01    0.1884294     0.111202 -62.50  0.001013365    1.533    0.348
       414 -10.8726    124.7769     25.0123   5.9001302435e+00   5.1114082224e+01     0.182867    0.1152252 -30.49 0.0005986031    1.638    0.389
       415 -12.4306     85.2707     24.3690   1.4682739946e+01   6.1122602019e+01    0.2559773     0.233279 -87.16 0.0006022662    1.153    0.133
       416 -12.0521     74.5216     24.6686   1.8280869475e+01   6.3615883578e+01    0.2557279    0.2276402  49.22 0.0006885825    1.072    0.067
       417 -10.8010     70.4994     20.5268   1.7550152528e+01   6.5108339966e+01    0.1366895    0.1301799  45.44 0.0002307481    1.019    0.019
       418 -11.3249    138.8883     19.3561   1.6270733124e+00   4.8165935491e+01    0.1960161    0.1614953  77.35 0.0006168864    1.149    0.130
       419 -12.5588    116.4843     18.5361   4.8510687602e+00   5.3999649531e+01    0.2540249    0.2343147 -81.69 0.0001489766    1.028    0.027
       420 -10.7227    131.9802     17.4677   1.9299429781e+00   5.0138781703e+01    0.2006412    0.1287023  74.99 0.0003177478    1.474    0.321
       421 -12.0662    123.9465     16.1566   2.6567858367e+00   5.2342836186e+01    0.2134639    0.1932511 -48.04 0.0003379148    1.128    0.114
       422 -10.8717     66.9416     16.4849   1.6636796922e+01   6.6446831448e+01    0.1998684    0.1283248  56.66 0.0003499547    1.485    0.327
       423 -10.6686    101.9691     15.5135   6.3959147526e+00   5.8044236966e+01    0.1996192     0.128604  66.37 6.585452e-06    1.440    0.305
       424 -11.1195    190.2855    249.0012   4.4839224609e+01   2.4973491470e-01    0.1414209    0.1086916  -1.52 0.0001593101    1.096    0.088
       425 -11.5667     49.6764    248.0795   7.2834816841e+01   1.6425190395e+01    0.2106881    0.1637855 -77.33  0.001071281    1.532    0.347
       426 -11.5172     50.8239    243.1015   7.2301930505e+01   1.7203764781e+01    0.1800569    0.1503559  61.14 0.0006941018    1.161    0.139
       427 -11.2464    178.0394    247.3506   4.6808474273e+01   1.7976014406e+00    0.1573133    0.1097092  16.47 0.0003651381    1.126    0.112
       428 -11.7239     99.3694    246.8881   6.2263873071e+01   1.1073550180e+01    0.2160223    0.1431498  24.04 0.0004607598    1.302    0.232
