#   1 NUMBER                 Running object number                                     
#   2 MAG_AUTO               Kron-like elliptical aperture magnitude                    [mag]
#   3 X_IMAGE                Object position along x                                    [pixel]
#   4 Y_IMAGE                Object position along y                                    [pixel]
#   5 X_WORLD                Barycenter position along world x axis                     [deg]
#   6 Y_WORLD                Barycenter position along world y axis                     [deg]
#   7 A_WORLD                Profile RMS along major axis (world units)                 [deg]
#   8 B_WORLD                Profile RMS along minor axis (world units)                 [deg]
#   9 THETA_WORLD            Position angle (CCW/world-x)                               [deg]
#  10 FWHM_WORLD             FWHM assuming a gaussian core                              [deg]
#  11 ELONGATION             A_IMAGE/B_IMAGE                                           
#  12 ELLIPTICITY            1 - B_IMAGE/A_IMAGE                                       
         1 -12.1728     76.8375     24.4023   2.9103820217e+02   7.0431601683e+00    0.0240241   0.02020842 -86.59  0.001346603    1.277    0.217
         2 -11.0307     90.4223     15.8500   2.9083198363e+02   7.0634566369e+00   0.01759811  0.009920877 -54.97 0.0004172707    1.688    0.408
         3 -11.1145     87.7308     10.5313   2.9083095586e+02   7.1403785490e+00   0.02442378  0.009930149 -57.30  0.001618456    2.272    0.560
         4  -9.2812    116.1001     19.1170   2.9055831962e+02   6.8773660089e+00   0.02154809  0.009674976 -81.70  0.001399706    4.422    0.774
         5 -10.1202     26.6806     16.2124   2.9156247700e+02   7.4266902291e+00   0.01463399   0.01239483 -60.21  0.001123849    1.153    0.132
         6 -11.4747     42.3509     18.0986   2.9139461326e+02   7.3147240322e+00   0.08296119    0.0267358 -56.55  0.006355415    2.759    0.638
         7 -10.9017     38.7137      2.0397   2.9134037723e+02   7.5210108392e+00   0.02643933   0.02282838  72.31  0.002805881    1.257    0.205
         8 -11.7574     30.0550      7.1518   2.9146986495e+02   7.5118557156e+00    0.0208133   0.01913258 -46.74  0.002584454    1.074    0.069
         9 -11.2514     39.4233     10.4295   2.9138232537e+02   7.4201021055e+00   0.01916728   0.01239635 -70.88 0.0008477488    1.631    0.387
        10 -10.7404    190.1944     14.9476   2.8968827698e+02   6.4962252770e+00   0.01487956  0.009045046 -72.22  0.001156081    1.794    0.443
        11 -10.5850    212.3682     11.9855   2.8941792098e+02   6.4016467287e+00   0.01190606   0.01135331  14.15 0.0007186603    1.077    0.072
        12 -11.1177     67.9451     12.1306   2.9106653073e+02   7.2361055828e+00   0.05137436   0.02566122  85.57  0.003249144    5.007    0.800
        13 -11.0728     70.9973      7.2931   2.9100277435e+02   7.2743266610e+00   0.01609922   0.01274647 -26.13 0.0004509393    1.400    0.286
        14 -11.3186     69.2546      4.3221   2.9100494410e+02   7.3186616795e+00   0.01859216   0.01699786 -44.08 0.0002492545    1.087    0.080
        15  -9.9807    118.8240     11.9520   2.9048440680e+02   6.9442909689e+00   0.01152221  0.009203143  26.20 0.0007816065    1.279    0.218
        16  -9.9214    109.6202     11.6218   2.9058750453e+02   7.0013226985e+00   0.01260754  0.007767223 -65.01 0.0006580449    1.622    0.383
        17 -10.8389     92.8033      9.0813   2.9076435817e+02   7.1278163258e+00   0.01652702   0.01003984 -55.41   0.00106469    1.574    0.365
        18  -9.8582     90.8047      2.9106   2.9075031812e+02   7.2105582721e+00   0.02051845   0.01083422  43.42  0.001407953    1.982    0.495
        19 -10.5113     53.5165      1.4746   2.9116779590e+02   7.4422619704e+00   0.01653814   0.01170978 -60.62  0.001403019    1.373    0.272
        20 -10.8325     55.2024      7.7761   2.9118614564e+02   7.3598285118e+00   0.01679784   0.01452596  86.20 0.0004271768    1.246    0.198
        21 -11.2962     57.5595      4.4961   2.9113962749e+02   7.3840943141e+00   0.02446977   0.01446205  12.62  0.002315902    2.061    0.515
        22 -11.1413     22.2326      9.4372   2.9157292823e+02   7.5304805456e+00   0.01746735    0.0134107 -14.68  0.001319323    1.528    0.345
        23 -10.2607     10.4113      1.5907   2.9166131153e+02   7.6889985590e+00   0.01203934  0.009476932  18.09 0.0007851706    1.340    0.254
        24 -10.3270      7.8761      5.1463   2.9171150449e+02   7.6625339783e+00   0.01456261   0.01050378  39.57 0.0008486139    1.404    0.288
        25  -9.8678     15.5478      8.4830   2.9164367063e+02   7.5799307470e+00   0.01066682   0.00883106 -26.91 0.0005504016    1.304    0.233
        26 -10.4211     12.1758      7.5373   2.9167658924e+02   7.6102294521e+00   0.02224823   0.01628837 -44.56  0.002457514    1.377    0.274
        27 -11.7395      3.7984      8.7674   2.9177972080e+02   7.6441680139e+00   0.02082423   0.01533183  68.05  0.001240749    1.614    0.380
        28 -11.7065    151.2652      6.3698   2.9008082693e+02   6.8208889129e+00   0.02814258   0.01259469 -60.76  0.001639615    2.137    0.532
        29  -9.4570     77.0131      7.7552   2.9093680415e+02   7.2342825792e+00  0.008983757  0.008544066 -55.15 0.0005293399    1.030    0.029
        30 -10.1868    218.6181      7.1888   2.8931802165e+02   6.4206390717e+00  0.009381127  0.005653035 -50.97 0.0002811835    1.611    0.379
        31  -9.8142    107.2281      5.3904   2.9057757604e+02   7.0870482107e+00   0.01112909  0.008312632 -52.65 0.0007590824    1.301    0.231
        32 -10.3477    120.2767      4.4425   2.9042293355e+02   7.0225253633e+00    0.0187921   0.01131386   0.90  0.001411613    2.358    0.576
        33  -9.4499    235.5293      4.5238   2.8910951855e+02   6.3530621642e+00  0.006503632  0.006323237 -47.92 0.0001171019    1.018    0.018
        34  -9.9177    160.4901      4.0475   2.8996170826e+02   6.7942149210e+00   0.01020565  0.006336145 -61.92 0.0007476197    1.572    0.364
        35 -11.5323    130.1499      3.1826   2.9030270308e+02   6.9799282417e+00   0.02605897   0.01188505  42.72  0.002252815    2.293    0.564
        36 -11.5796     80.3425      1.6588   2.9086235264e+02   7.2854101501e+00     0.019228   0.01078889  19.02 0.0009451843    2.005    0.501
        37  -9.7001    199.5009      2.9992   2.8951070656e+02   6.5799789714e+00  0.009982934  0.006394954 -63.89 0.0004243537    1.544    0.352
        38 -10.8786     19.0086      2.6399   2.9156925391e+02   7.6274686668e+00   0.02073148    0.0121518  10.15  0.001924282    2.168    0.539
        39  -9.8517      1.9970      2.6942   2.9176412239e+02   7.7246071565e+00   0.01009145  0.007968704   4.18  0.001131724    1.422    0.297
        40  -9.9968    210.3828      7.8195   2.8941559384e+02   6.4612105858e+00  0.009896792   0.00559705 -51.59 0.0009509838    1.706    0.414
        41 -11.6950     34.9229     12.9480   2.9144879170e+02   7.4169422073e+00   0.02401918   0.01640333 -76.51  0.001505036    1.615    0.381
        42 -10.0195     29.0926    128.7593   2.9220463276e+02   6.1122383576e+00   0.01313462  0.009232931 -84.50  0.001006305    1.661    0.398
        43 -12.5670      5.1354    240.7052   2.9314072390e+02   4.9546828459e+00   0.04335722   0.01987969  46.78   0.00365681    2.478    0.597
        44 -10.9519      1.7238    248.6836   2.9322668360e+02   4.8819421339e+00   0.02675532   0.01288953 -60.94  0.002419581    1.988    0.497
        45 -10.7782      6.6284    249.2003   2.9317389040e+02   4.8478148743e+00   0.01558284   0.01116858 -39.98 0.0009443332    1.462    0.316
        46 -12.3200      7.6516    245.7298   2.9314174703e+02   4.8820995542e+00   0.04111654   0.01271673  20.28  0.002515915    4.780    0.791
        47  -9.4094     42.7126    126.0131   2.9203291389e+02   6.0656486708e+00  0.007960713  0.005769599 -63.55 0.0002606972    1.357    0.263
        48  -9.3737     21.2180    126.1868   2.9227921614e+02   6.1872619772e+00  0.008871302  0.007421398  61.92 0.0004197755    1.293    0.227
        49 -11.5660     23.6585    121.4129   2.9222301828e+02   6.2284439494e+00   0.02563773   0.01497879  89.78 0.0008726273    2.523    0.604
        50  -9.1072     75.2743    119.9910   2.9162563626e+02   5.9477385157e+00   0.00816369  0.005686213 -63.20 0.0002701927    1.410    0.291
        51  -9.9543      3.3746    119.1821   2.9244128487e+02   6.3707822356e+00  0.009385441   0.00625244 -77.21 0.0009468458    1.679    0.404
        52  -9.5123     96.4584    113.9416   2.9134801336e+02   5.8954929135e+00  0.009935894  0.006440383 -67.30  0.001011253    1.566    0.362
        53 -10.6329      5.3075    113.3286   2.9238447439e+02   6.4273752101e+00   0.01055389  0.006930687  18.63 0.0009511242    1.657    0.397
        54 -11.5620     12.4388    108.9313   2.9227695377e+02   6.4372601712e+00   0.02030647    0.0104375  43.12  0.001862972    2.033    0.508
        55 -11.6036      5.2000    108.7265   2.9235837817e+02   6.4812097332e+00   0.01944449   0.01258948  18.47  0.001990174    1.689    0.408
        56  -9.4475     79.2837    106.9944   2.9150256496e+02   6.0748801147e+00  0.009256738  0.008713541 -64.03 0.0005187566    1.044    0.042
        57 -10.5353     58.5012    107.1822   2.9174081027e+02   6.1924872558e+00   0.01329186  0.008929171  -3.31  0.001315717    1.936    0.484
        58 -10.1403     66.8453    101.8642   2.9161395367e+02   6.2058916794e+00  0.009233679  0.007720043  70.50 0.0006378553    1.319    0.242
        59 -11.8898     18.0026     95.1530   2.9213156973e+02   6.5645942371e+00   0.02371382   0.01592941  64.17  0.002094697    1.844    0.458
        60 -10.2884     20.5053     91.4826   2.9208117580e+02   6.5926403120e+00   0.01182922  0.008595442   8.76 0.0007979454    1.573    0.364
        61 -10.7289      6.5391     98.1356   2.9228018664e+02   6.5959759732e+00   0.01258545  0.007884935  -6.16  0.001159017    2.264    0.558
        62  -8.9587    129.5131     97.5135   2.9087321300e+02   5.8944487944e+00  0.006495367  0.006358887 -56.78 0.0008103959    1.003    0.003
        63  -8.9924    101.3328     97.2613   2.9119307951e+02   6.0601618963e+00  0.006647449  0.004937738 -22.91 0.0006503818    1.574    0.365
        64 -10.3400     78.6787     94.8220   2.9143700379e+02   6.2190734619e+00   0.01038772  0.007479839 -44.61 0.0003182336    1.402    0.287
        65  -9.6424      3.4031     95.2287   2.9229872831e+02   6.6475944590e+00  0.009099651  0.006308213 -78.44  0.000530436    1.608    0.378
        66 -10.5254     84.3633     93.9098   2.9136670807e+02   6.1968295353e+00   0.01417161   0.01095911   1.06  0.001572451    1.488    0.328
        67 -11.0346     27.4789     90.8761   2.9199794290e+02   6.5595550022e+00   0.03337074   0.01681799  54.82  0.002781209    2.665    0.625
        68 -10.9035     25.1483     84.6357   2.9198744416e+02   6.6450923090e+00   0.01162692   0.01094894 -63.42 0.0003794378    1.042    0.041
        69  -9.9499     13.5247     82.4457   2.9210716635e+02   6.7372232298e+00  0.009597126  0.007517098 -26.89 5.383979e-05    1.417    0.294
        70 -11.6373     11.3068     88.0223   2.9216564720e+02   6.6855057596e+00   0.03324468   0.01538503 -59.81  0.002017832    2.047    0.512
        71 -10.1874     16.1485     89.1764   2.9211721581e+02   6.6443427425e+00   0.01544293   0.01182967  -4.70 0.0007136712    1.534    0.348
        72  -9.7582     19.0000     86.9733   2.9207155539e+02   6.6534205970e+00   0.01059768  0.008611912 -86.48   0.00094141    1.342    0.255
        73  -9.7374    118.2363     90.2315   2.9095838948e+02   6.0437688786e+00   0.01092907  0.004372214  38.47 0.0006280396    2.452    0.592
        74 -10.9689    104.0609     87.6892   2.9110492213e+02   6.1550311967e+00   0.01212818  0.009501326  69.12 0.0004665595    1.460    0.315
        75 -10.4543     76.5043     89.2976   2.9142891945e+02   6.2954641177e+00   0.01178211   0.01068868 -32.37 0.0006505477    1.131    0.116
        76 -10.3953     43.7322     89.3813   2.9180348492e+02   6.4833164696e+00   0.01942141  0.008016975  46.22  0.001208416    2.803    0.643
        77 -10.2016      1.6885     89.6150   2.9228495635e+02   6.7223398827e+00   0.01199744  0.008317349 -61.99 0.0005676922    1.407    0.290
        78 -10.9075     54.7289     84.1637   2.9164689440e+02   6.4803021335e+00   0.01515828   0.01250932  88.46 0.0009070427    1.333    0.250
        79  -8.9138    250.6908     87.6845   2.8943458924e+02   5.3057839458e+00  0.006882047  0.004865148 -29.54 0.0002503004    1.632    0.387
        80  -9.8511    124.0880     86.8403   2.9087143696e+02   6.0491348704e+00  0.009955024  0.008776593  59.41 0.0005161063    1.194    0.163
        81 -10.7665      3.9913     82.2139   2.9221467403e+02   6.7946705053e+00    0.0175369   0.01162208 -57.61  0.001472428    1.450    0.311
        82  -9.9916      3.1520     78.3857   2.9220150481e+02   6.8437392405e+00   0.01014881  0.008819731 -62.02 0.0004235043    1.126    0.112
        83  -9.7501     78.0816     83.2734   2.9137503832e+02   6.3559909516e+00  0.008908268  0.008162234  34.91 0.0003171458    1.108    0.098
        84 -11.5788     64.1918     81.2021   2.9152123736e+02   6.4600072693e+00   0.02730907   0.02197533 -86.27  0.002615825    1.362    0.266
        85  -9.8637     37.9863     82.0042   2.9182519396e+02   6.6016569828e+00  0.009856533  0.009517493  85.54 0.0004483383    1.053    0.050
        86 -10.0632    250.3689     80.7934   2.8939705870e+02   5.3871824523e+00  0.009584495  0.005655666 -52.29 0.0006634846    1.632    0.387
        87 -10.1447     89.3049     80.4250   2.9122998735e+02   6.3241565175e+00     0.012688  0.008816571 -78.32 0.0007320018    1.603    0.376
        88  -9.5997     65.8178     75.1590   2.9146668499e+02   6.5204712626e+00  0.009039517  0.008241798 -47.16  0.001102737    1.083    0.077
        89  -9.1521    163.6964     79.2915   2.9037485019e+02   5.9071868239e+00  0.006689916  0.004929323  63.07 0.0002427786    1.572    0.364
        90  -8.9667    124.6405     79.3307   2.9082035010e+02   6.1327037571e+00  0.007153844  0.004837232  62.31  0.000704165    1.797    0.443
        91  -9.5158     24.1911     78.8067   2.9196370668e+02   6.7179705806e+00  0.009533197  0.007527119 -31.48  0.001070095    1.367    0.269
        92  -9.9198    176.7214     77.1163   2.9021344329e+02   5.8568646178e+00   0.01204237  0.008748535  40.04    0.0013174    1.395    0.283
        93  -9.8243     75.0136     75.7467   2.9136521615e+02   6.4606613126e+00  0.008729548  0.008176444  22.70            0    1.092    0.084
        94 -10.4675     56.0751     75.5955   2.9158051178e+02   6.5715697820e+00   0.01344564   0.01256716   6.61 0.0009904116    1.111    0.100
        95 -10.5639     15.6367     75.9186   2.9204422990e+02   6.8005278449e+00   0.01269191  0.009438453  36.77 0.0008791995    1.355    0.262
        96 -10.8231    224.0837     74.3374   2.8965750850e+02   5.6142985929e+00   0.01119742  0.009935464 -58.16 0.0003040828    1.100    0.091
        97 -10.3523    150.9956     75.0185   2.9049410826e+02   6.0300666844e+00  0.009401186  0.007532321 -31.85 0.0003638961    1.339    0.253
        98  -9.3513    152.9362     72.0034   2.9045398711e+02   6.0536571107e+00  0.009004101  0.008450672 -60.83  0.001114476    1.044    0.042
        99  -9.9394    136.6969     74.0868   2.9065157356e+02   6.1235626040e+00   0.00925279    0.0081189 -52.88 0.0004358662    1.114    0.102
       100 -11.2188     35.6554     73.1012   2.9179883071e+02   6.7179640081e+00   0.02592658   0.02305428  27.73  0.003167528    1.146    0.127
       101 -11.0326      3.8002     73.7483   2.9216653133e+02   6.8936153383e+00   0.02161556   0.01101979  26.60  0.001554729    2.007    0.502
       102  -9.2340     95.9949     73.5367   2.9111258967e+02   6.3651324158e+00  0.009070523  0.004903744  51.56 0.0004338505    2.203    0.546
       103  -9.5580    216.8370     72.2328   2.8972741311e+02   5.6806447796e+00  0.009068277  0.007418261 -31.36  0.000538439    1.305    0.234
       104 -10.3430    105.8632     71.5147   2.9098793266e+02   6.3315065166e+00    0.0108339  0.008904262 -60.94  0.000397153    1.188    0.158
       105  -9.5334     90.5516     69.4404   2.9115028719e+02   6.4438809919e+00   0.00964117  0.006347792 -77.01 0.0001512004    1.708    0.414
       106 -10.0325     80.8465     72.0061   2.9127634865e+02   6.4702397501e+00   0.01115272  0.007418654  77.69  0.001079015    2.005    0.501
       107 -10.1304     10.9956     69.2643   2.9205766684e+02   6.9041021112e+00   0.01456411  0.009320339 -74.54  0.001459921    1.722    0.419
       108  -9.6985     45.7963     69.5750   2.9166203010e+02   6.7003408846e+00   0.01570379  0.006916521  22.39  0.001296125    2.533    0.605
       109  -9.5537     49.9881     68.2645   2.9160635818e+02   6.6913446687e+00  0.009952832  0.006992192  28.94  0.001066486    1.440    0.305
       110 -11.2822     17.0062     64.5833   2.9196115506e+02   6.9236520514e+00    0.0185576   0.01657457 -55.67  0.001000476    1.092    0.084
       111 -10.5263     40.7065     59.3208   2.9165909565e+02   6.8481254345e+00   0.01151058   0.01068006   3.16 0.0007416208    1.126    0.112
       112 -10.9632     34.9873     64.9371   2.9175786323e+02   6.8161501208e+00   0.01703738   0.01421296  18.93  0.001237564    1.250    0.200
       113 -10.9120     39.6142     62.6951   2.9169166733e+02   6.8154269383e+00     0.025142   0.01289472 -41.38  0.002244513    2.172    0.540
       114 -10.3240    132.1704     64.4871   2.9064590483e+02   6.2606233307e+00   0.01637757   0.01340606  35.46  0.001913762    1.234    0.190
       115 -11.1615      7.9633     62.3362   2.9205109823e+02   7.0015828312e+00   0.02749598   0.01264663 -40.08  0.002253771    2.614    0.617
       116 -10.0394     72.3647     62.6367   2.9131733045e+02   6.6274108027e+00   0.01053144   0.00761072  64.78  0.001107577    1.637    0.389
       117 -10.6651     53.6351     62.0158   2.9152749150e+02   6.7425375565e+00   0.01643236   0.01144396  30.44  0.001471925    1.446    0.308
       118 -10.4025     54.4945     58.4687   2.9149654513e+02   6.7785673172e+00   0.01347664   0.01089661  76.72 0.0008345401    1.401    0.286
       119 -10.7896     62.7160     61.9345   2.9142331137e+02   6.6911501716e+00   0.01078996  0.009196347  -7.93 0.0007319744    1.291    0.226
       120  -9.4401    126.9877     61.5702   2.9068760929e+02   6.3242854972e+00  0.009327573  0.006388394  28.53 0.0003539543    1.478    0.324
       121 -10.5103      1.8824     54.6427   2.9207481017e+02   7.1254026940e+00    0.0140719   0.01164089   7.65  0.001182098    1.313    0.239
       122 -11.0401      8.8326     48.9762   2.9196166415e+02   7.1509443706e+00   0.03079882   0.01771059  -9.43  0.002578517    2.849    0.649
       123 -11.7889     17.1815     45.7220   2.9184688187e+02   7.1405547643e+00   0.03190645   0.02540323  17.16  0.003143714    1.329    0.247
       124 -12.6507     20.4951     57.3881   2.9187847447e+02   6.9867324437e+00   0.02568741   0.01584755  36.02  0.001118354    1.616    0.381
       125 -10.7183     19.4494     52.0777   2.9185880942e+02   7.0540960595e+00   0.01452369   0.01090214 -34.69 0.0009133721    1.434    0.303
       126  -9.7958     67.9367     60.4658   2.9135494780e+02   6.6780238600e+00   0.01017564  0.006469366  27.03 0.0008483416    1.603    0.376
       127 -10.3067      2.2782     59.9645   2.9210194698e+02   7.0616424048e+00   0.01420842  0.009493298  65.52  0.001414914    1.882    0.469
       128  -9.8025     71.4518     57.6586   2.9129808101e+02   6.6901840951e+00  0.008735351  0.005958777 -51.02 0.0004221557    1.427    0.299
       129 -10.2039     60.3441     57.6528   2.9142488202e+02   6.7542863979e+00   0.01238396   0.01072415  62.62 0.0008461932    1.233    0.189
       130 -10.7428      7.4892     55.8583   2.9201797301e+02   7.0791548672e+00     0.012748   0.01093559  36.87 0.0008970129    1.182    0.154
       131 -10.9402    114.6106     54.4626   2.9078639466e+02   6.4779269177e+00   0.01433204   0.01219211  24.30 0.0009106662    1.205    0.170
       132 -10.1266    106.7356     53.5230   2.9087065060e+02   6.5342859472e+00   0.01660279   0.01085894  71.90  0.001603476    2.046    0.511
       133 -11.5576     87.1975     53.7749   2.9109515841e+02   6.6442043992e+00    0.0209384   0.01423752  27.18  0.001180081    1.498    0.332
       134 -10.3864     34.5006     53.5140   2.9169540223e+02   6.9509300633e+00   0.01494086   0.00913875 -41.13   0.00112803    1.747    0.428
       135  -9.8186    169.7086     52.9279   2.9014887147e+02   6.1767761960e+00  0.008807829  0.008137596 -67.82 0.0002354626    1.071    0.066
       136 -11.8317     66.5720     52.4142   2.9132253818e+02   6.7789015112e+00   0.02810422   0.01208589  23.45   0.00232601    2.541    0.606
       137  -9.0538    176.3252     52.3057   2.9006974363e+02   6.1456150006e+00  0.006890059  0.004887183 -27.76 0.0001817649    1.646    0.392
       138  -9.5118    212.0125     48.9870   2.8964336752e+02   5.9769196068e+00  0.007667321  0.007487767  24.81 0.0003211643    1.044    0.042
       139  -9.0525     59.6491     49.2796   2.9138291248e+02   6.8550142650e+00  0.006882811  0.004832818  58.92 0.0002332365    1.647    0.393
       140 -10.3841     38.3411     48.7298   2.9162303002e+02   6.9840936322e+00   0.01142547   0.00959342 -20.44  0.001331982    1.304    0.233
       141  -9.1238    146.4664     48.4226   2.9038694133e+02   6.3634006008e+00  0.006547988  0.006208713  67.02 -1.226524e-05    1.086    0.079
       142  -9.5983    102.2872     48.2807   2.9089013586e+02   6.6205259845e+00  0.006582845  0.004886101 -28.77 0.0002452659    1.521    0.343
       143 -10.2025     31.7234     46.8382   2.9168736723e+02   7.0440278840e+00   0.02143809   0.01156188 -87.81  0.001340172    3.000    0.667
       144 -10.6989     26.2534     43.7942   2.9173173579e+02   7.1106559116e+00   0.01559372    0.0121983  36.65  0.001135534    1.290    0.225
       145 -10.7348     68.6073     46.7310   2.9126541099e+02   6.8328090607e+00   0.01112324   0.01027818  -8.62 0.0001878657    1.137    0.120
       146 -10.3444     70.4108     42.6996   2.9122077302e+02   6.8689680751e+00    0.0173793   0.01038552 -65.82  0.001265216    1.687    0.407
       147 -10.4635     77.7144     45.8553   2.9115619158e+02   6.7903953151e+00   0.01436581   0.01058124  26.65  0.001426206    1.386    0.278
       148  -9.7034     76.7212     54.8010   2.9122088050e+02   6.6928019437e+00  0.008704089  0.007281643  61.74 0.0004579972    1.293    0.227
       149 -10.2586      3.3083     41.9000   2.9198267865e+02   7.2644189739e+00   0.01932993   0.01075489  -0.43  0.001591465    2.891    0.654
       150  -9.1750    183.3065     41.6972   2.8992677360e+02   6.2275810859e+00  0.006753482  0.004934466  63.83 0.0005980681    1.600    0.375
       151 -10.9718    139.8317     40.7284   2.9041664848e+02   6.4906307672e+00   0.01126787   0.01023914  83.21 0.0003406002    1.157    0.135
       152 -10.3414     35.9950     40.6333   2.9160159363e+02   7.0911138922e+00   0.01646018   0.01165696 -45.65  0.001766976    1.417    0.294
       153  -9.4679     43.4713     40.5139   2.9151546199e+02   7.0494530552e+00   0.01109188  0.006548746   9.50  0.001017805    2.166    0.538
       154  -9.4014    134.5156     39.5687   2.9047036335e+02   6.5347833273e+00   0.00645142  0.006336255  77.81 3.803414e-05    1.032    0.031
       155  -8.9536     51.3254     39.7129   2.9142095942e+02   7.0134686377e+00  0.006784108  0.004887882  60.93 0.0006796309    1.607    0.378
       156 -10.2903     21.9873     38.4790   2.9174882529e+02   7.1965825598e+00   0.01258307  0.009150309  88.26 0.0008669505    1.645    0.392
       157 -11.4630    121.1958     36.2514   2.9060252266e+02   6.6501298894e+00    0.0233958   0.01807098  57.59   0.00262574    1.423    0.297
       158  -9.4062     99.0799     35.8336   2.9085245329e+02   6.7827782811e+00  0.009033672  0.007411591 -20.77 0.0004886317    1.352    0.260
       159 -10.1879     70.1954     34.8354   2.9117632455e+02   6.9610233324e+00   0.01609533  0.007528602 -54.61  0.001436302    2.004    0.501
       160 -11.0324     26.5919     35.0781   2.9167594174e+02   7.2093762917e+00   0.01586179   0.01092453 -41.28  0.001047698    1.513    0.339
       161 -10.9211      1.6109     35.7269   2.9196533084e+02   7.3454656775e+00    0.0130406   0.00931426 -79.06  0.001350303    1.552    0.356
       162 -11.7449     50.6143     33.8673   2.9139423027e+02   7.0850708189e+00   0.01727302   0.01087389  35.24 0.0006039429    1.583    0.368
       163 -11.1046    145.0187     33.0441   2.9031156829e+02   6.5493010606e+00   0.01086196   0.01019576  28.76 0.0003543237    1.085    0.078
       164 -11.2799    141.1150     30.6321   2.9034168318e+02   6.5997386183e+00   0.01403326   0.01242889 -46.80 0.0004765984    1.117    0.105
       165 -11.1138    134.5785     34.0163   2.9043647420e+02   6.5985116071e+00   0.01052579  0.009096364   1.99 0.0003727602    1.252    0.201
       166 -11.2030     20.3854     31.6182   2.9172625996e+02   7.2850261093e+00   0.03027988   0.01631157   1.11   0.00240514    3.088    0.676
       167  -9.9231    166.5519     31.1644   2.9005477399e+02   6.4462560177e+00   0.01661089  0.005786924 -59.03  0.001290603    2.633    0.620
       168 -10.8542     43.3311     30.4229   2.9145690843e+02   7.1667924933e+00   0.02334685   0.01274429 -62.38  0.001688216    1.789    0.441
       169 -10.8411     46.8300     27.0924   2.9139706794e+02   7.1850963415e+00   0.01637411   0.01037741  48.88 0.0002927626    1.719    0.418
       170 -10.6666    151.1164     29.6254   2.9022158611e+02   6.5534445795e+00   0.01545359   0.01119873  25.44  0.001237315    1.417    0.294
       171 -10.0812    163.8923     37.0999   2.9012057957e+02   6.3931727011e+00  0.009805441  0.008843744 -36.70 0.0003809528    1.127    0.112
       172 -10.1910    103.9861     29.5801   2.9075910704e+02   6.8266261787e+00   0.01605254   0.01110384  -2.21  0.001637041    1.825    0.452
       173  -9.3290    187.5030     29.5161   2.8980610742e+02   6.3437934205e+00   0.01157513  0.006567295   9.91  0.001027474    2.323    0.570
       174  -9.8423     69.9201     28.5201   2.9114178949e+02   7.0355276237e+00   0.01006887    0.0087132 -60.63 0.0005057771    1.130    0.115
       175 -10.0826      7.2872     28.2308   2.9185580196e+02   7.3994269712e+00   0.01318604  0.008386931  38.63 0.0007695095    1.582    0.368
       176 -11.7668     17.3834    249.2001   2.9305143592e+02   4.7860693157e+00   0.01883968   0.01004467  13.90  0.001657318    2.368    0.578
       177  -9.4398    200.7661     25.9699   2.8963377526e+02   6.3077401713e+00  0.008337425  0.005358622 -61.54            0    1.516    0.340
       178  -9.9187    153.4330     25.6794   2.9017157566e+02   6.5855615410e+00   0.01198523  0.007241377  38.25  0.000672096    1.658    0.397
       179 -10.0114    113.9460     25.2792   2.9061972487e+02   6.8187026602e+00   0.01136978  0.009204481 -62.87 0.0006377554    1.212    0.175
       180 -10.2597     58.8639     24.5190   2.9124422078e+02   7.1454692280e+00   0.01327274   0.01104552 -51.98  0.001371955    1.174    0.148
       181 -10.2124    204.9160     23.9271   2.8957427888e+02   6.3072130484e+00  0.009390684  0.009219909 -60.24 0.0002872123    1.002    0.002
       182 -10.4261     52.1100     23.4255   2.9131486537e+02   7.1970154751e+00   0.01773424  0.008487828 -53.89  0.001353813    1.968    0.492
       183 -10.7566     89.1361     21.9401   2.9088304076e+02   7.0005931715e+00   0.02250484  0.009086132 -73.83  0.001571211    3.626    0.724
       184  -9.3606    229.6012    248.1834   2.9063113382e+02   3.5742197197e+00  0.009454017  0.005733466 -51.53 0.0009383403    1.595    0.373
       185 -11.1002     33.2491    247.7112   2.9286199992e+02   4.7121495345e+00   0.01780237   0.00845127  13.45  0.001406432    2.948    0.661
       186  -9.1873    110.6404     22.1548   2.9063879185e+02   6.8738740281e+00  0.008873887  0.005730323 -52.24 0.0002534813    1.498    0.332
       187 -11.2159     13.5928     20.7507   2.9173914924e+02   7.4495573996e+00   0.02056736   0.01393149  55.38  0.001212222    1.684    0.406
       188 -10.6108     13.3077     16.0770   2.9171455418e+02   7.5051526420e+00   0.02116083  0.009306973  31.05  0.001534076    2.217    0.549
       189  -9.4890      2.6298     20.8864   2.9186529864e+02   7.5109806598e+00   0.01423518  0.007377993 -44.35  0.001292672    2.025    0.506
       190  -9.7550    217.5351    245.0000   2.9074930363e+02   3.6807729645e+00   0.01462226  0.003749479  27.01 0.0009402549    3.979    0.749
       191  -9.6401     84.8662     21.0918   2.9092674013e+02   7.0350375866e+00   0.01037283  0.007534894 -23.21 0.0005893896    1.630    0.386
       192 -10.5164     30.9632     19.7610   2.9153468300e+02   7.3610845717e+00   0.01346675   0.01010016 -78.74 0.0008654312    1.447    0.309
       193 -11.1217     14.9877    239.0018   2.9301846447e+02   4.9178315346e+00   0.01307723  0.008483585  77.82  0.001065866    2.104    0.525
       194  -9.8794     22.7457     21.2502   2.9163749258e+02   7.3911666389e+00  0.008415898  0.006999906 -28.83 0.0009699421    1.286    0.223
       195  -9.7103    230.9879     20.0003   2.8925388895e+02   6.2010549947e+00  0.008046337  0.007587407 -61.75 0.0006146124    1.040    0.038
       196  -9.3745    174.6937     20.7220   2.8989950329e+02   6.5195380025e+00  0.006640363  0.004913845 -26.66 0.0002126527    1.552    0.356
       197  -9.6106    202.4971    240.0108   2.9089055856e+02   3.8253682517e+00  0.009971512  0.006344032 -62.04 0.0007803004    1.534    0.348
       198  -9.2279     60.0795    241.0000   2.9251682686e+02   4.6355037380e+00   0.01768695  0.003748777  26.88  0.001038153    4.815    0.792
       199 -12.3439     26.3634    235.9832   2.9287107430e+02   4.8874152753e+00   0.02155797   0.01554024 -54.73  0.001752875    1.340    0.254
       200 -12.8218      9.4620    232.3209   2.9304191749e+02   5.0268647906e+00   0.03319073   0.02349623 -40.55  0.003335656    1.477    0.323
       201 -11.5501    107.7011     16.5639   2.9063894630e+02   6.9553884489e+00   0.01818667   0.01051313  35.91  0.001221139    1.716    0.417
       202 -10.9369     20.1009     16.8209   2.9164132329e+02   7.4575092310e+00   0.01188475  0.009180544  28.08  0.000359225    1.315    0.240
       203 -12.2413      4.2635    232.6191   2.9310288827e+02   5.0532550754e+00   0.03426268   0.01832919 -75.91  0.003034791    2.280    0.561
       204  -8.9093      1.2576     15.3261   2.9184786184e+02   7.5830543399e+00  0.006731401  0.004750737 -34.93 0.0002462443    1.554    0.357
       205 -10.1617    156.0677     14.2433   2.9007314143e+02   6.7022420196e+00    0.0130532  0.009512592 -11.63  0.001376457    1.688    0.407
       206  -9.6163    144.0563     14.4958   2.9021166737e+02   6.7689076884e+00   0.00947471  0.006489399  26.85 0.0003584709    1.490    0.329
       207 -12.4014      8.7082    227.9664   2.9302476908e+02   5.0815798832e+00   0.02481503   0.02008888  22.70  0.001830284    1.276    0.217
       208  -8.9884    155.5704    235.5095   2.9139745558e+02   4.1485264207e+00  0.006491953  0.006304032 -62.22 3.869105e-05    1.010    0.010
       209  -9.8072    249.1627    234.1535   2.9032548111e+02   3.6231367991e+00  0.009854116  0.008711223 -24.82 0.0005694538    1.195    0.163
       210  -9.1877     80.0074    231.5162   2.9223377717e+02   4.6304984234e+00  0.009399033  0.004828287  50.46 0.0008061855    2.315    0.568
       211  -9.5272     63.5161     14.8318   2.9113326000e+02   7.2304710868e+00   0.01349682   0.00674021  48.43   0.00117103    2.308    0.567
       212  -9.0761    124.3082    230.3392   2.9172249209e+02   4.3887492299e+00  0.007018096  0.004812653 -31.05 0.0004702553    1.684    0.406
       213  -9.0261    209.5160    229.4947   2.9074825789e+02   3.9063168366e+00  0.006511409   0.00634479 -50.56 0.0008104262    1.012    0.012
       214  -9.5665    140.6536    227.3228   2.9151857283e+02   4.3293080907e+00  0.007059508  0.004868778  62.44 0.0007049792    1.739    0.425
       215  -9.4039    109.7083    226.6698   2.9186690735e+02   4.5153947989e+00  0.006901529  0.004817082 -31.92 0.0004633678    1.627    0.385
       216 -10.4878     32.6678    225.3578   2.9273643042e+02   4.9741304051e+00   0.01643615  0.007538667  34.39   0.00145408    2.116    0.527
       217 -10.1413     25.5293    224.9789   2.9281550122e+02   5.0195378642e+00    0.0102135  0.006309812 -61.78 0.0009270793    1.574    0.365
       218 -10.6724      2.2148    219.8950   2.9305103351e+02   5.2122521200e+00   0.01423239  0.009088921 -80.29  0.001292697    1.851    0.460
       219 -11.0649      7.7225    217.6483   2.9297500369e+02   5.2066363974e+00   0.01622468   0.01423236 -52.88   0.00123696    1.114    0.102
       220 -10.4507      3.8565    212.3531   2.9298774289e+02   5.2901026924e+00   0.01394568   0.01069625  25.30  0.001303202    1.338    0.252
       221  -9.7467    209.4694    212.0116   2.9064479541e+02   4.1086303976e+00   0.01016696  0.006288368 -60.84  0.001020943    1.566    0.362
       222 -10.6167     16.1774    211.8449   2.9284435019e+02   5.2252378197e+00   0.00944606  0.007704834 -28.67    0.0010791    1.326    0.246
       223  -9.5124    249.4965    211.5113   2.9018690885e+02   3.8827517998e+00  0.006487649  0.006369067 -67.03 0.0008105657    1.008    0.008
       224  -9.7338    246.8775    206.8915   2.9018915169e+02   3.9512825138e+00   0.01038723  0.008456623 -38.62  0.001194645    1.265    0.210
       225  -9.3111    197.3801    204.1779   2.9073565823e+02   4.2690985160e+00  0.009114935   0.00625813 -77.90 0.0005405106    1.624    0.384
       226 -10.7624      9.5476    203.3981   2.9286992497e+02   5.3610530443e+00   0.01161992   0.01142205 -64.97 0.0007179325    1.006    0.006
       227  -9.0981    181.5341    199.5076   2.9088812117e+02   4.4147217982e+00  0.006521732    0.0063236  82.95  3.80938e-05    1.048    0.046
       228  -9.6489     23.2268    197.5600   2.9267947576e+02   5.3500311691e+00  0.008926952  0.006456481   8.20 0.0004091237    1.591    0.372
       229  -9.8480      6.6108    191.7359   2.9283438713e+02   5.5128599050e+00  0.008985305  0.006273975 -78.05 0.0009321003    1.583    0.368
       230 -10.3602     15.4588    185.4574   2.9269635370e+02   5.5346946985e+00   0.01304946  0.006433163 -64.62  0.001164593    2.032    0.508
       231  -9.1903    250.4768    183.4768   2.9000875877e+02   4.2009067577e+00   0.00651557  0.006329052 -47.23 0.0003502114    1.019    0.018
       232  -9.0318     21.6642    179.6662   2.9259130777e+02   5.5660490417e+00   0.00709861   0.00482106 -29.15 0.0005614902    1.740    0.425
       233 -10.5644      4.7682    167.2613   2.9271047408e+02   5.8066218893e+00   0.01677114   0.01099658  66.10  0.001633883    1.953    0.488
       234  -9.1909     41.6913    158.3349   2.9223647562e+02   5.6976810539e+00  0.006908247  0.004934147  65.66 0.0007042474    1.675    0.403
       235  -9.2018    247.4690    155.5387   2.8987636524e+02   4.5410329192e+00  0.006476965    0.0063504 -58.50 0.0001101361    1.001    0.001
       236 -10.3680     22.0095    143.2722   2.9237159033e+02   5.9850977139e+00   0.01204222  0.009389268 -64.25 0.0009798491    1.263    0.208
       237 -10.8989     12.6872    130.5273   2.9240233009e+02   6.1860822755e+00   0.02179536   0.01148944  55.42  0.001296377    2.491    0.599
