#   1 NUMBER                 Running object number                                     
#   2 MAG_AUTO               Kron-like elliptical aperture magnitude                    [mag]
#   3 X_IMAGE                Object position along x                                    [pixel]
#   4 Y_IMAGE                Object position along y                                    [pixel]
#   5 X_WORLD                Barycenter position along world x axis                     [deg]
#   6 Y_WORLD                Barycenter position along world y axis                     [deg]
#   7 A_WORLD                Profile RMS along major axis (world units)                 [deg]
#   8 B_WORLD                Profile RMS along minor axis (world units)                 [deg]
#   9 THETA_WORLD            Position angle (CCW/world-x)                               [deg]
#  10 FWHM_WORLD             FWHM assuming a gaussian core                              [deg]
#  11 ELONGATION             A_IMAGE/B_IMAGE                                           
#  12 ELLIPTICITY            1 - B_IMAGE/A_IMAGE                                       
         1 -13.0027     42.8899     20.2667   1.0522759502e+02   6.7416357659e+01    0.7620587     0.456146  11.35  0.004015722    1.950    0.487
         2 -12.3549    215.9841     14.5609   5.7614600735e+01   2.8710061419e+01    0.5942721    0.4693949  40.52  0.001874587    1.334    0.250
         3  -9.7235      2.4053     11.8190   1.2417633918e+02   7.2195054933e+01    0.1647849   0.07554229 -52.58 0.0004031392    1.528    0.346
         4 -13.4826    186.7102      6.7671   5.8667834989e+01   3.7040405305e+01    0.8779275    0.6447469 -67.25  0.004421626    1.535    0.348
         5 -12.6071     57.5604      6.6726   9.1454868855e+01   6.7698610784e+01    0.6333549     0.549971 -55.70   0.00283866    1.746    0.427
         6  -9.5338    148.6961      8.3127   6.4955814265e+01   4.7081220765e+01     0.146994    0.1115142 -60.65 0.0004092738    1.615    0.381
         7 -12.0375     43.5623      8.6344   9.9356255236e+01   6.9397487025e+01    0.3344175    0.2684048  27.46  0.001157396    1.420    0.296
         8 -11.8458    165.8398      1.9227   5.9844292552e+01   4.3061774050e+01    0.5446705    0.1967891  70.56  0.001906062    2.732    0.634
         9 -10.7656    109.6010      8.8323   7.3873868667e+01   5.6949521861e+01     0.196906    0.1273792 -32.31 0.0006743892    1.640    0.390
        10 -10.1011    173.9942    221.2079   1.1338696625e+02   8.0584937661e+00    0.1931038    0.1427089 -10.63  0.001281184    1.663    0.399
        11 -10.6038     21.8870    249.8490   1.4221761486e+02   2.3230617728e+01    0.1341158   0.06851687  56.32  0.000511785    1.329    0.247
        12 -11.7309    226.7044    219.8089   1.0379730280e+02   1.9307366060e-01    0.3467176    0.1563855 -16.09  0.001715086    3.041    0.671
        13 -10.3886    211.4167    217.7035   1.0612637261e+02   2.7146485893e+00    0.1858877    0.1107584 -36.11  0.001130867    2.148    0.535
        14 -10.2834    218.5560    211.7945   1.0395208576e+02   2.2742306046e+00    0.1403289     0.111027 -32.03 0.0009566555    1.697    0.411
        15 -10.9063    115.5378    208.5952   1.2298161105e+02   1.8688544181e+01    0.2140291    0.1721683 -25.88  0.001441929    1.757    0.431
        16  -9.9387      3.0148    215.0115   1.4410383074e+02   3.0210901066e+01    0.1163003   0.08071402  63.96 0.0006525299    1.011    0.011
        17 -10.0816    185.4640    203.0168   1.0861420228e+02   8.5959415507e+00    0.1652457    0.1207779 -30.39  0.001040912    1.622    0.384
        18 -12.0062      5.5299    199.6115   1.4318160958e+02   3.2600249012e+01    0.3679031    0.1486023  53.07  0.001740788    1.824    0.452
        19 -10.1535    133.0148    195.4756   1.1787963633e+02   1.8184006206e+01    0.1722009    0.1653485 -75.73 0.0006855944    1.252    0.201
        20 -12.3301    159.0813    191.0190   1.1193115343e+02   1.4669359664e+01    0.5767393    0.4193232 -80.78  0.002479049    2.483    0.597
        21  -9.9286    193.3567    188.6725   1.0477516397e+02   9.2020613165e+00    0.1204438   0.09808112  61.56 0.0007044821    1.779    0.438
        22 -10.6466    183.3624    182.5302   1.0567127624e+02   1.1787026213e+01    0.3306829    0.1912119 -21.75  0.001638124    2.229    0.551
        23  -9.9306    215.1416    193.2726   1.0149384085e+02   4.9624113594e+00    0.2988193   0.07675879 -38.53  0.001082843    4.783    0.791
        24 -10.0047    121.9868    177.3349   1.1770194449e+02   2.3022757759e+01    0.2071974    0.1015889  20.30 0.0007050178    4.340    0.770
        25  -9.9613    210.5215    182.4585   1.0043019934e+02   7.0926293474e+00    0.2221793    0.1135799 -18.85  0.001038033    2.443    0.591
        26  -9.9045    183.0000    174.9495   1.0440591336e+02   1.2966788646e+01    0.1994072   0.07585161 -39.18 0.0008105694    2.999    0.667
        27  -9.8028    159.3200    175.6545   1.0940998431e+02   1.7055949550e+01    0.1291587    0.1008672  68.18 0.0004334856    1.729    0.422
        28 -12.2249     55.7147    167.1183   1.3120876328e+02   3.3995114214e+01    0.4730683    0.2677835  84.65  0.001913421    1.914    0.478
        29 -12.0265     50.9775    159.3530   1.3154479648e+02   3.6078575831e+01    0.4464131    0.2064182  55.30  0.002295311    2.134    0.531
        30  -9.9958     44.3503    168.3086   1.3381287275e+02   3.4960062919e+01    0.1041329   0.08469793 -37.70 0.0007043898    1.712    0.416
        31 -10.2594     98.5175    164.7541   1.2120035526e+02   2.8972284639e+01    0.2293949    0.1189988 -54.90  0.001142865    2.072    0.517
        32 -11.8358     23.4729    153.8029   1.3732445882e+02   3.9805790142e+01    0.2261924    0.2064607 -69.28   0.00122263    1.297    0.229
        33 -11.5829     24.8235    159.3485   1.3740557168e+02   3.8567548382e+01    0.2569976    0.2046721 -28.56  0.001465701    1.861    0.463
        34 -11.6681     27.8383    155.3538   1.3645691481e+02   3.9121055131e+01     0.331184    0.1586909  82.35  0.001743469    2.106    0.525
        35 -11.8027    105.0063    154.0025   1.1810367477e+02   3.0132023145e+01    0.4562676    0.2220392 -39.91  0.001925359    2.869    0.651
        36 -10.5099    167.2066    156.8161   1.0431141424e+02   1.8748252130e+01    0.2856846    0.1084867 -48.67  0.001033354    3.468    0.712
        37  -9.3506    237.3117    156.3171   9.0498578080e+01   5.7647998007e+00    0.1393575   0.08581907  11.61 0.0002332968    1.641    0.391
        38 -10.4247    218.0887    155.3670   9.3758197791e+01   9.3622445726e+00    0.2410951    0.1687553 -10.08  0.001315607    1.413    0.292
        39 -10.2438      5.5855    155.1814   1.4131678129e+02   4.0878201163e+01    0.2368228   0.06728388  43.17  0.001218512    2.770    0.639
        40 -10.3919     38.9728    151.9584   1.3363896803e+02   3.8813873961e+01    0.1937333    0.1115613  66.63  0.000712835    1.690    0.408
        41 -10.8391    189.6323    149.4329   9.8086144488e+01   1.5651099053e+01    0.3895743    0.1637817 -40.81  0.001565125    2.658    0.624
        42 -11.1561    119.0842    157.2041   1.1527765066e+02   2.7252752479e+01    0.2700362    0.1726311  53.92  0.001376547    1.616    0.381
        43 -10.8074     11.9962    149.0280   1.3958146905e+02   4.1668312467e+01    0.1694739    0.1348803  83.33  0.001054969    1.031    0.030
        44 -10.8422    233.5602    146.9929   8.9196128328e+01   7.6324954570e+00    0.2018909    0.1209419 -24.67 0.0007484028    1.616    0.381
        45  -9.9208    181.3348    141.0052   9.8022802021e+01   1.8650554808e+01    0.2203414     0.113475 -57.38 0.0007052066    4.382    0.772
        46 -10.1464     83.3243    132.6481   1.2016526957e+02   3.7813668395e+01     0.140154   0.09534856  71.21 0.0007047926    1.757    0.431
        47 -11.9738     97.7470    126.9137   1.1532882393e+02   3.6928002754e+01    0.6069295    0.3179077 -80.84  0.001995757    4.411    0.773
        48 -11.9832    193.0613    118.0685   9.0260634596e+01   1.9986312959e+01    0.5988435    0.4407708 -55.40  0.002676859    1.878    0.467
        49 -10.5918     98.0629    119.7052   1.1385403931e+02   3.8445081128e+01    0.1989792     0.182125  39.69  0.001124135    1.094    0.086
        50 -11.4778    141.4283    113.8198   1.0102117577e+02   3.1753498107e+01     0.582538    0.2661178 -32.09  0.002054025    2.873    0.652
        51  -9.6604    232.3196    115.6587   8.2324341163e+01   1.2091270122e+01    0.1334198    0.1107246 -56.74 0.0007049784    1.717    0.418
        52 -10.3311      2.3440    115.0316   1.3972243129e+02   4.9460011081e+01    0.1607297    0.1128601 -85.61 0.0004271655    1.126    0.112
        53 -10.7794    174.1974    110.9052   9.2504239983e+01   2.5311115111e+01    0.3514713    0.2142361 -33.88   0.00133902    1.683    0.406
        54 -11.4590    159.6572    111.2156   9.5919461374e+01   2.8425621914e+01    0.5591136    0.2861154 -46.84  0.002208511    2.220    0.549
        55 -10.4201     59.9902    110.0147   1.2294903751e+02   4.5854362658e+01    0.1986584    0.1757809 -71.84   0.00066846    1.032    0.031
        56 -10.2273     13.6744    106.6458   1.3596816168e+02   5.0656532285e+01    0.1212921   0.07074796 -49.62 0.0007046651    1.767    0.434
        57 -12.2602    141.7658    100.3335   9.7516335853e+01   3.4339456246e+01    0.5076233    0.3278286  38.91  0.002281028    1.516    0.340
        58 -11.7687     44.1114    101.0654   1.2627946417e+02   4.9571533859e+01    0.4569697    0.2452062  78.58  0.002038889    2.694    0.629
        59 -11.6752    127.4431    100.2281   1.0127287654e+02   3.7317686448e+01    0.3926981    0.2540459 -48.09  0.001783603    1.608    0.378
        60 -10.7724     81.9043    100.4178   1.1452648118e+02   4.5199727057e+01    0.3089189    0.2046334 -79.02  0.001456351    1.953    0.488
        61 -11.7873    107.3272     98.5691   1.0650729969e+02   4.1485808798e+01    0.5221297    0.3690659 -82.36  0.002282754    2.175    0.540
        62 -12.7603    170.4456     90.6933   8.7945955114e+01   2.9700895713e+01    0.4446728    0.4390153 -41.27   0.00100091    1.155    0.134
        63 -11.2975    123.7029     90.8520   9.9796317363e+01   3.9990037895e+01    0.3640827    0.1854349 -60.17  0.001215052    3.295    0.697
        64 -11.6056     42.4624     87.8094   1.2459990848e+02   5.2784345563e+01    0.3892089    0.2504147 -23.31  0.001562054    2.049    0.512
        65 -10.9039     45.0860     81.8378   1.2259841866e+02   5.3916631482e+01    0.2859181    0.1669406 -68.62 0.0008311325    1.594    0.373
        66 -10.6430     86.1771     87.3508   1.1013828037e+02   4.7490206432e+01    0.3001871    0.1654103  59.24  0.001154931    2.937    0.659
        67 -10.8117    104.3158     83.6159   1.0346303265e+02   4.5235962330e+01    0.3140079     0.248501  88.38  0.001469536    1.792    0.442
        68  -9.3232     77.3190     78.7324   1.1083006281e+02   5.0742622709e+01    0.1327552    0.1083943  73.92 0.0003622676    1.558    0.358
        69 -12.8278    223.3862     71.8747   7.2651568103e+01   2.0079874166e+01    0.3287949    0.3001637 -29.76 0.0004806032    1.121    0.108
        70 -10.7871     82.2336     73.4921   1.0773694784e+02   5.1159367929e+01    0.3291807     0.216728  89.48  0.001290699    3.130    0.680
        71 -10.4556     51.9237     70.1402   1.1761270940e+02   5.5901333579e+01     0.240187    0.1712172 -56.39 0.0006951353    1.232    0.188
        72 -10.1866    194.6822     66.6765   7.6033562023e+01   2.7698532755e+01     0.162298    0.1120548  20.23 0.0007044061    1.670    0.401
        73 -10.9228     28.7933     52.3889   1.2237815080e+02   6.2013402983e+01    0.4045091    0.2283836 -22.15  0.002090997    2.165    0.538
        74 -11.4393     20.5174     50.7609   1.2546709262e+02   6.2936232107e+01    0.5243153    0.2047923 -69.25  0.002361895    2.341    0.573
        75 -11.6194     19.6106     59.1293   1.2754784400e+02   6.1104836639e+01     0.289506    0.2409727 -35.85   0.00115388    1.225    0.184
        76 -13.6139     30.9431     59.6947   1.2318965247e+02   6.0207383409e+01     1.179594    0.6540544  24.77  0.005539509    2.089    0.521
        77 -12.5560    232.9880     60.4351   6.8178395500e+01   1.9363244570e+01    0.5716926    0.3688558  80.03  0.002624387    2.161    0.537
        78 -12.3451     40.1464     51.2820   1.1735373656e+02   6.1310802806e+01    0.7508597    0.2472085 -58.59   0.00301061    2.607    0.616
        79 -11.5549     47.8406     56.9277   1.1577156954e+02   5.9301039303e+01    0.3413725    0.2311562 -14.20   0.00134823    1.783    0.439
        80 -10.0278    119.3582     56.6797   9.0400200907e+01   4.7571585327e+01    0.1516624    0.1244037 -81.19 0.0007044499    1.763    0.433
        81 -10.1161    161.9653     53.5015   7.8454807237e+01   3.7909971225e+01    0.2455249    0.1506265  53.86  0.001037619    1.604    0.376
        82 -11.2129    149.7379     52.6971   8.0962260264e+01   4.1105776908e+01    0.3349277    0.2557011  47.81 0.0004916728    1.275    0.216
        83 -10.1511     82.4103     47.2530   9.9185173906e+01   5.6584735585e+01    0.1963489    0.1297642 -50.06 0.0006863969    1.618    0.382
        84 -10.3980    157.0217     44.9878   7.6656527934e+01   4.0435712559e+01    0.2414054    0.2172329  32.44 0.0004889113    1.052    0.049
        85 -11.3429      7.5574     43.1884   1.2944690413e+02   6.5286955215e+01    0.4714185    0.2333448  37.89   0.00256175    2.595    0.615
        86 -11.4705     74.7849     43.2368   1.0057163448e+02   5.8625498277e+01    0.3736147    0.2085165  25.37   0.00167246    2.096    0.523
        87 -11.2022     70.2959     42.3206   1.0198746098e+02   5.9505171162e+01    0.3156251    0.2778843  56.75     0.001365    1.487    0.328
        88  -9.4424    114.5070     42.5150   8.6653538074e+01   5.1107432730e+01    0.1521243    0.1389601   5.82 -0.000102975    1.001    0.001
        89 -12.4122     42.0588     38.3418   1.1257322977e+02   6.3910199879e+01    0.5732519    0.4147927  -5.12  0.002275913    1.522    0.343
        90 -10.8215     47.9690     35.0463   1.0874476474e+02   6.3947977247e+01    0.3003748     0.202729   5.06  0.001226375    1.707    0.414
        91 -11.3153    119.7981     34.4997   8.1988904001e+01   5.1173339156e+01    0.4898881    0.3198746 -27.75  0.002262226    1.523    0.343
        92 -10.1709     83.2334     38.3526   9.5471693822e+01   5.8120210183e+01    0.1943525    0.1320794  46.57 0.0009528529    1.680    0.405
        93 -10.2244     73.7437     32.9918   9.6935860597e+01   6.0723664355e+01    0.2609867    0.1789881  63.42  0.001179414    2.606    0.616
        94 -11.6464    104.4261     30.1430   8.4786223621e+01   5.5301428508e+01    0.6513414    0.4000945  61.14  0.002692482    2.141    0.533
        95 -11.9044    220.4856    248.2558   1.0893097096e+02  -1.6811215791e+00    0.3486098     0.207659  44.37  0.002310586    1.813    0.448
        96 -10.9374    239.7019     20.6640   5.6863529916e+01   2.2355683368e+01    0.2526349    0.2248305  78.37 0.0005948205    1.175    0.149
        97 -11.6148    202.3184     20.8738   6.1064762661e+01   3.1554602546e+01    0.2590838    0.1998211  87.29  0.001320788    1.411    0.291
        98 -12.5987     22.3884    239.2023   1.4177652909e+02   2.4747615085e+01    0.4679974    0.1589566  64.61  0.002829108    2.532    0.605
        99  -9.8647     89.1897     18.4054   8.4647425865e+01   6.0248681569e+01    0.1914228    0.1362614  56.85  0.000951521    1.729    0.422
       100 -10.2586    134.1395     18.1613   7.1781810573e+01   4.9838451185e+01    0.1983906    0.1808838 -71.58 0.0005239637    1.327    0.246
       101 -10.4804    248.2362    240.9724   1.0342380123e+02  -4.7916430654e+00    0.1187938   0.07752747 -12.41 0.0005198693    1.578    0.366
       102 -10.8123      6.0335    235.7574   1.4421275765e+02   2.6701639511e+01    0.1455508   0.09486267  71.40 0.0004543393    1.166    0.143
       103 -10.9628     76.9696    227.9336   1.3198847259e+02   2.0714402372e+01    0.1600895    0.1220635  52.91 0.0005108733    1.028    0.027
       104 -11.0980     12.5044    227.2672   1.4294135013e+02   2.7459698515e+01    0.1768514    0.1174142  59.86 0.0005253811    1.048    0.045
       105  -9.8966    104.4436    225.0446   1.2675768250e+02   1.7670963751e+01    0.1406209    0.1076593 -70.52  0.001031633    1.606    0.377
       106 -11.0544    149.5410    220.9003   1.1789290050e+02   1.1828181731e+01    0.3501965    0.1858456 -39.10  0.001991372    2.543    0.607
