#   1 NUMBER                 Running object number                                     
#   2 MAG_AUTO               Kron-like elliptical aperture magnitude                    [mag]
#   3 X_IMAGE                Object position along x                                    [pixel]
#   4 Y_IMAGE                Object position along y                                    [pixel]
#   5 X_WORLD                Barycenter position along world x axis                     [deg]
#   6 Y_WORLD                Barycenter position along world y axis                     [deg]
#   7 A_WORLD                Profile RMS along major axis (world units)                 [deg]
#   8 B_WORLD                Profile RMS along minor axis (world units)                 [deg]
#   9 THETA_WORLD            Position angle (CCW/world-x)                               [deg]
#  10 FWHM_WORLD             FWHM assuming a gaussian core                              [deg]
#  11 ELONGATION             A_IMAGE/B_IMAGE                                           
#  12 ELLIPTICITY            1 - B_IMAGE/A_IMAGE                                       
         1 -12.7823    206.1688     40.4891   4.0254063822e+01   2.9319326202e+01     1.495735      1.19766  20.12  0.008568806    1.928    0.481
         2 -11.3191      2.3180     25.6216   9.5431524608e+01   7.0546413014e+01    0.7810139    0.1451288 -52.13  0.003091144    3.795    0.736
         3 -11.2443      2.1643      7.9020   8.8291184608e+01   7.3426894391e+01    0.8819137    0.2644234 -43.45  0.004351257    2.724    0.633
         4 -12.4064    219.1833     28.4536   3.6168938326e+01   2.8003733398e+01    0.9040256    0.7441244  39.78  0.005751839    1.713    0.416
         5 -11.4871    245.1584      4.5437   2.9301394192e+01   2.5417544967e+01    0.6895719    0.4287525  88.05  0.004570261    1.411    0.291
         6  -7.8570     46.3056      1.6647   6.2100025452e+01   6.8778717702e+01   0.09864473   0.09450433 -67.75 0.0005459533    1.669    0.401
         7 -13.3598      9.8374    206.9022   1.2059594058e+02   2.8902554445e+01     1.005935    0.8778325  23.75  0.003855369    1.497    0.332
         8 -11.3273     83.0616    217.6899   1.0533425655e+02   1.7803725997e+01    0.8656898    0.8261824  27.22  0.005579405    1.215    0.177
         9 -14.3449      6.6055    142.9804   1.1634146256e+02   4.4244354464e+01     8.012004     2.264658 -81.80    0.0265692    4.056    0.753
        10 -10.0901     32.8482    169.5250   1.1207343554e+02   3.5455176914e+01    0.4658172     0.336224 -49.96  0.002262454    1.506    0.336
        11 -11.4720     76.9552    159.2572   9.8697735478e+01   3.2516401792e+01     1.026971    0.5936039  58.77  0.001029611    2.088    0.521
        12 -11.7442     64.5708    156.0476   1.0164592961e+02   3.5076339619e+01    0.5074926    0.3313775 -39.29   0.00109637    1.805    0.446
        13 -11.8599     68.4879    144.5082   9.8575564487e+01   3.7452658708e+01     0.911999    0.6244319  84.01   0.00316204    1.812    0.448
        14 -10.6625     84.8292    153.7077   9.5522230682e+01   3.2704781574e+01    0.6168512    0.4411112 -25.53  0.002835636    1.865    0.464
        15 -12.0032     35.4090    200.1510   1.1445377267e+02   2.7860803244e+01    0.6799455    0.4961564 -58.81  0.001419095    1.485    0.327
        16 -12.9747     45.7845    189.9347   1.1101353393e+02   2.9078914087e+01     1.826978     1.236602 -72.76   0.01012836    1.376    0.273
        17  -9.2958    133.7227    142.3186   7.9833409896e+01   2.6647476317e+01    0.5064173     0.139291 -54.92  0.001218148    5.195    0.808
        18 -15.2862     16.8749    242.9190   1.2127632911e+02   2.0640772485e+01     6.464279     2.499017  26.49    0.0152436    3.292    0.696
        19  -8.9654     98.4831    140.0644   8.8950795906e+01   3.3830293397e+01    0.3072928    0.2368883 -49.41 0.0008589628    1.276    0.217
        20  -8.0450    101.5167    137.9399   8.7628455515e+01   3.3816071211e+01    0.2951551    0.2014565 -11.77 0.0008106597    2.345    0.573
        21 -10.7185     86.7285    139.0548   9.2154908139e+01   3.6061186771e+01    0.3235836     0.279421 -39.44 0.0004528417    1.203    0.169
        22 -10.3739     58.1138    130.8534   9.9239041954e+01   4.2293960908e+01    0.5291997    0.2346389 -72.27   0.00190435    2.817    0.645
        23  -9.1045    109.7240    130.1805   8.3552230288e+01   3.4186377187e+01    0.4386875     0.288416  19.96  0.001449822    2.007    0.502
        24  -8.0251    134.9978    129.6654   7.6572067391e+01   2.9292789369e+01    0.2622142    0.1209375  60.52 0.0007052218    4.395    0.772
        25  -8.6705     97.0369    125.7146   8.6204701542e+01   3.7587049090e+01    0.2628636    0.2044527 -25.59 0.0008527231    1.502    0.334
        26  -8.5294    105.4897    131.0485   8.4959664711e+01   3.4768191571e+01    0.3659998    0.1525481 -54.72  0.001271434    2.448    0.592
        27  -8.1393    106.7002    118.9814   8.1752435280e+01   3.7412603220e+01    0.2083791    0.1919515 -50.33 0.0002917051    1.067    0.063
        28  -7.7208    205.5970    109.8500   5.6575299429e+01   1.8278615455e+01    0.2031568    0.1230189 -50.29 0.0007294066    1.602    0.376
        29  -8.7876     52.4975    109.9936   9.6920464641e+01   4.8170465697e+01     0.212786   0.09461263 -40.85 0.0008096946    2.470    0.595
        30  -9.9156    246.5721     99.2702   4.8134410075e+01   1.2070730583e+01    0.2677208    0.1031933 -43.10  0.001150734    2.152    0.535
        31 -10.4484     62.6412    174.5050   1.0488726994e+02   3.0723399385e+01    0.5110425     0.307343 -34.24  0.001835764    2.429    0.588
        32  -8.0940     71.7824     83.3332   8.3460985700e+01   5.1628902102e+01    0.1944632    0.1306539  23.60 0.0003414035    1.618    0.382
        33  -9.7913      1.9779     62.2522   1.0597194219e+02   6.3433799148e+01    0.4669387    0.1165441 -63.39  0.001839731    3.178    0.685
        34 -11.0170      2.0082     50.0888   1.0306106668e+02   6.5952828305e+01    0.7195336    0.1762078 -63.11  0.002714801    3.802    0.737
        35  -8.0036     47.5489     62.0046   8.6216675795e+01   5.9500652557e+01    0.1914629    0.1207856 -47.45 0.0003351236    1.509    0.337
        36 -10.0196     13.3097     59.7498   1.0035750429e+02   6.3299222036e+01    0.2566404    0.1692633 -42.41  0.000578985    1.233    0.189
        37 -11.7151    196.6802     46.9675   4.2971608055e+01   3.0584407234e+01    0.6021135    0.4703434  20.40  0.002379143    1.947    0.486
        38 -12.1345     15.5818    215.7092   1.1994914482e+02   2.6426089524e+01    0.8371122    0.3840448  34.85  0.002733891    2.089    0.521
        39  -8.8861    111.9236    204.9384   9.6931014033e+01   1.6175812674e+01    0.2167122    0.1920647  58.96 0.0004308835    1.089    0.082
        40  -8.5859    194.4131    197.1674   7.7176541531e+01   3.8045016142e+00    0.1874259    0.1276362 -52.30 0.0009473345    1.745    0.427
        41  -9.1813     80.9488    182.0861   1.0119994118e+02   2.6296995143e+01     0.315149    0.2690051 -31.85 0.0009102538    1.414    0.293
        42  -8.8602    135.8163     42.1657   5.1816860740e+01   4.5668325158e+01    0.2253115    0.2084592  83.77  0.000446692    1.088    0.081
        43 -10.3431     67.7312    169.3611   1.0280760002e+02   3.1310079577e+01    0.3269207    0.2573711 -47.57  0.001283018    1.368    0.269
        44  -7.7990     99.4918    180.4987   9.6194707630e+01   2.3789722345e+01    0.1431341    0.1395311  67.33 -1.331108e-05    1.047    0.045
