#   1 NUMBER                 Running object number                                     
#   2 MAG_AUTO               Kron-like elliptical aperture magnitude                    [mag]
#   3 X_IMAGE                Object position along x                                    [pixel]
#   4 Y_IMAGE                Object position along y                                    [pixel]
#   5 X_WORLD                Barycenter position along world x axis                     [deg]
#   6 Y_WORLD                Barycenter position along world y axis                     [deg]
#   7 A_WORLD                Profile RMS along major axis (world units)                 [deg]
#   8 B_WORLD                Profile RMS along minor axis (world units)                 [deg]
#   9 THETA_WORLD            Position angle (CCW/world-x)                               [deg]
#  10 FWHM_WORLD             FWHM assuming a gaussian core                              [deg]
#  11 ELONGATION             A_IMAGE/B_IMAGE                                           
#  12 ELLIPTICITY            1 - B_IMAGE/A_IMAGE                                       
         1 -12.8079    164.6819     27.1753   1.5420117710e+00   4.0001619427e+01    0.4297505    0.2669809 -69.99 0.0005605317    1.534    0.348
         2 -13.0280    110.5027     27.2856   9.2840072000e+00   5.2943145703e+01     1.279106    0.6434374  40.02  0.005200248    2.729    0.634
         3 -10.2436     60.4265     22.4036   2.1147782115e+01   6.5790437159e+01    0.5091299    0.1442585 -32.17  0.001667189    4.188    0.761
         4 -11.3947     20.5759     21.6279   4.3389110384e+01   7.3637267161e+01    0.5316893    0.3614706 -31.03  0.001903131    1.555    0.357
         5 -12.1758    128.1325     15.5798   2.3940208226e+00   4.9889826681e+01    0.4947357    0.4573697 -79.08  0.003210193    1.121    0.108
         6 -11.4297    136.4273     14.6492   1.0593237280e+00   4.7964824244e+01    0.4716327    0.2455456  68.90  0.001703877    1.723    0.420
         7 -11.6737     36.3393     18.0194   3.0460485095e+01   7.1543001998e+01    0.6067863    0.4578225 -51.35  0.002440549    1.667    0.400
         8  -9.7026     12.5796      2.2157   3.7361403292e+01   7.8061148678e+01    0.2152732    0.1210871 -32.61  0.001079476    1.951    0.487
         9 -11.9594     22.8751     10.5578   3.4765597844e+01   7.5131451082e+01    0.5204611    0.4132521   4.78  0.002237399    1.272    0.214
        10 -11.7412     16.1498     13.7140   4.2289882772e+01   7.5681189011e+01    0.6231897    0.2889401 -36.47  0.002829308    2.405    0.584
        11 -10.5265     13.0064      8.2625   4.1460015496e+01   7.7049303986e+01    0.3253073    0.2748711 -49.37  0.001478982    1.482    0.325
        12 -12.1750    164.7567     18.0224   3.5910098023e+02   4.1006888524e+01    0.4403928    0.2845866  45.37  0.002429063    2.097    0.523
        13 -11.0087     88.3882      7.8557   6.0445459445e+00   6.0621074429e+01    0.3907384    0.2912342  74.65  0.002224193    1.163    0.140
        14 -11.1648     85.6245     15.0055   9.7815751652e+00   6.0596015361e+01    0.5541212    0.3768265  21.04  0.002768674    2.031    0.508
        15 -11.7589    227.8176     14.8615   3.5417568279e+02   2.8806742505e+01    0.3688606    0.1597076 -67.53  0.001539749    2.167    0.538
        16 -10.7989    242.3604     14.8486   3.5350516256e+02   2.6367093290e+01    0.1642846    0.1542854 -55.32 0.0001066512    1.426    0.299
        17 -11.9050    104.7165     12.6344   4.9019682865e+00   5.6033440044e+01    0.3934104    0.3488118 -18.15  0.001416254    1.370    0.270
        18 -12.5123     48.8062     12.8675   2.0903865096e+01   6.9648785433e+01    0.7591953    0.2710002  52.70  0.003010009    2.363    0.577
        19 -11.4109    191.3420     11.6639   3.5550673398e+02   3.5997578104e+01    0.3407992    0.2106337 -14.86  0.001935193    2.342    0.573
        20 -11.0644    120.3093     11.6393   2.1278117579e+00   5.2223023631e+01     0.244363    0.1756271  82.31 0.0005522288    1.215    0.177
        21 -10.4086      5.5750      9.6158   4.9693105398e+01   7.7762409719e+01    0.3855661    0.1515641 -40.68   0.00168738    2.613    0.617
        22 -11.5537    212.2731      9.2929   3.5380641434e+02   3.2166326854e+01    0.3923843    0.2537066 -19.61  0.001810776    2.023    0.506
        23 -12.1951    168.6496      9.5103   3.5654352202e+02   4.1019303817e+01    0.4594173    0.2196428  67.94  0.001732083    2.021    0.505
        24 -10.8246     64.1832      9.9628   1.3359651774e+01   6.6411103796e+01    0.2796538    0.2058602  61.86 0.0002923874    1.178    0.151
        25 -10.2840     62.9671      6.5101   1.1916777237e+01   6.7057209491e+01    0.3329116    0.1830879  58.21  0.001643498    1.511    0.338
        26 -12.0013    155.6269      6.2797   3.5670093362e+02   4.4262351061e+01    0.4168733    0.1899389  73.27  0.002087014    1.979    0.495
        27  -9.8638     30.5567      5.2439   2.5734557401e+01   7.4445435533e+01    0.2176175    0.1244694 -37.63 0.0008422249    2.020    0.505
        28 -10.7013    144.9745      9.7445   3.5864940640e+02   4.6411943383e+01    0.2034274    0.1722452  35.33 0.0007104653    1.570    0.363
        29 -11.1613    142.5488      3.8858   3.5713714002e+02   4.7537786140e+01    0.3172858     0.230481 -70.76    0.0013429    1.184    0.156
        30 -10.6828    128.9789      4.7723   3.5876208604e+02   5.0729998777e+01    0.2502083     0.204281 -43.93  0.001574078    1.287    0.223
        31 -10.7822    137.6163      3.8255   3.5757894258e+02   4.8720994381e+01    0.2333751    0.1959184 -85.93 0.0005607379    1.045    0.043
        32 -11.8441    134.0201      2.4898   3.5751141237e+02   4.9706280949e+01    0.5762223    0.2331162  84.10  0.002518817    2.331    0.571
        33 -11.5442    185.2051      6.4318   3.5465754540e+02   3.7777679190e+01    0.2789604    0.1532737 -68.61  0.001293314    1.572    0.364
        34 -10.7718     41.3956      3.8580   1.8799542457e+01   7.2331941086e+01    0.3999406    0.2125476  33.91  0.001878196    2.052    0.513
        35 -10.7859    218.6382      3.3382   3.5228011911e+02   3.1581298433e+01    0.2065962    0.1680249 -75.74 0.0007987415    1.208    0.172
        36 -10.1540    223.5603      2.5009   3.5190896031e+02   3.0779793872e+01    0.2030022     0.149848 -77.33 0.0007810389    1.230    0.187
        37  -9.6517     78.0949      7.4898   8.1919472490e+00   6.3240525848e+01     0.204524    0.1175415  68.57 0.0004761694    1.510    0.338
        38 -11.4472    113.3265      2.2520   3.5974382224e+02   5.4826220382e+01     0.469473     0.226028  88.09  0.001514246    2.026    0.506
        39 -10.6663    105.5166      2.1348   7.5496433884e-01   5.6797818746e+01    0.2917337    0.1753829 -65.19  0.001264405    1.723    0.420
        40  -9.3153     76.3244      3.2951   6.6141182489e+00   6.4065039689e+01    0.1389807   0.08655907  44.09 0.0006846178    1.622    0.383
        41 -10.0536      1.9368      1.9871   4.8486573637e+01   7.9517628494e+01    0.2100704    0.1517365 -23.24 0.0008434982    1.335    0.251
        42 -11.2903    205.7831      1.6237   3.5248645170e+02   3.4136936291e+01    0.4335163    0.1239096  84.96  0.001901477    3.670    0.728
        43  -9.3241     52.6345      1.8629   1.2800828321e+01   6.9968584477e+01    0.1691537    0.1165696 -41.18 0.0004883725    1.710    0.415
        44  -9.6575    152.2771      1.3815   3.5559739753e+02   4.5483868831e+01    0.1710791   0.09823912 -85.76 0.0008082851    1.541    0.351
        45  -9.7350    123.9874      1.4880   3.5822016524e+02   5.2242745393e+01    0.2000732    0.1100097  78.58  0.001023983    1.564    0.361
        46  -9.5414     82.2285      1.2589   4.3606743927e+00   6.2755254708e+01    0.1876492    0.1015726  76.94 0.0005735428    1.672    0.402
        47  -9.9987     28.8563      1.4371   2.4042788547e+01   7.5246727510e+01    0.1888421    0.1096051  48.34 0.0004062561    1.476    0.323
        48  -9.8552      1.9647    124.9496   7.8645188976e+01   4.9125386407e+01    0.2480019    0.1478413  54.51  0.001135556    1.698    0.411
        49  -9.3116    249.5944    250.1969   3.2931092401e+01  -4.0898305579e+00     0.135719    0.0613935 -24.87 0.0009409886    1.646    0.392
        50 -10.7181    104.7910    122.3575   3.9780254955e+01   3.6365798741e+01    0.3256601    0.3068302 -68.28 0.0009685933    1.114    0.102
        51  -9.5231     49.6273    122.3094   5.8939046052e+01   4.5473475895e+01    0.3797202    0.1894219  -6.09  0.001065384    4.410    0.773
        52  -9.9159     43.4041    116.5961   6.0397670569e+01   4.7825332838e+01    0.2956943    0.1542765 -73.92 0.0009886894    2.159    0.537
        53 -11.6280     16.7581    109.1269   7.0719868968e+01   5.2589027933e+01    0.7243619    0.4684004  -1.64  0.002382864    1.718    0.418
        54 -11.2982      7.8436    114.8427   7.5316434576e+01   5.1606106473e+01    0.3787387    0.2620554 -48.34 0.0002921837    1.438    0.305
        55 -12.2511      2.7947    111.5672   7.7207440387e+01   5.2797764137e+01    0.6973792    0.3805803  85.99  0.003029098    1.909    0.476
        56 -11.8721      5.4040    108.2706   7.5732960876e+01   5.3575630004e+01    0.7768629    0.3836686  82.70  0.002586722    2.276    0.561
        57  -9.8725     58.7535    115.1231   5.3938630038e+01   4.6118322953e+01    0.2315997    0.2022422  61.37 0.0005860851    1.206    0.171
        58 -11.0066     35.3438    102.8778   6.1286357867e+01   5.2532570038e+01     1.457769    0.5081298  11.46  0.003331906    4.881    0.795
        59 -11.6718     22.3039    114.0039   6.8933028331e+01   5.0776613038e+01    0.5811785    0.3195845  -4.09  0.002097334    2.253    0.556
        60 -12.4476     27.5215    112.2854   6.6406465704e+01   5.0774409932e+01     1.391617    0.6277165  84.61  0.004411033    3.568    0.720
        61  -9.8798     48.9699    111.6484   5.7148442875e+01   4.8443073718e+01    0.2254608      0.18769  28.64 0.0005003035    1.177    0.151
        62 -11.6778     79.2588    108.0943   4.4629554112e+01   4.4523135610e+01    0.5741552    0.3934493  19.54  0.001477713    1.706    0.414
        63  -9.8562     85.8669    103.1890   4.1069414949e+01   4.4484854789e+01    0.2112642    0.1846877  -4.91 0.0004691497    1.306    0.234
        64  -9.4487     57.2799    103.6175   5.1962444843e+01   4.9363863210e+01    0.1629845    0.1187661  70.78 0.0007006178    1.722    0.419
        65 -11.2450     49.4677    101.3511   5.4722094885e+01   5.1119112773e+01    0.8484791    0.4551747 -26.66   0.00292522    2.927    0.658
        66 -10.6568     17.1015     99.8858   6.9253931800e+01   5.5123590580e+01    0.3227561    0.1939729 -63.99    0.0014564    1.573    0.364
        67 -11.7166      9.1082     97.0357   7.2704975732e+01   5.6470392438e+01    0.4918101     0.377759  53.46  0.000388812    1.378    0.274
        68 -12.1977    247.1898     95.8353   8.3386192037e+00   1.5994251032e+01    0.5195945    0.3280893  -3.73  0.002838263    3.141    0.682
        69  -9.8864     29.6124     98.1780   6.3023716009e+01   5.4442550230e+01    0.5397529    0.1321583 -50.34  0.001559834    3.745    0.733
        70 -11.9711     67.8984     94.8564   4.5465799192e+01   4.9823873717e+01     0.579929    0.3589933  36.00   0.00182611    1.563    0.360
        71  -9.8766     77.1919     96.6248   4.2400714404e+01   4.7698666599e+01    0.2890245    0.2291897   2.08 0.0006060217    1.564    0.361
        72 -11.0878     79.0420     93.0361   4.0731809554e+01   4.8200928883e+01     0.733381    0.5995986  46.08  0.003617258    1.197    0.165
        73 -11.2174     22.9415     94.2873   6.5504058883e+01   5.6160425914e+01     0.464668     0.283268 -32.19  0.001970103    1.811    0.448
        74 -11.3332     18.6144     87.6713   6.6472302075e+01   5.8335758370e+01    0.6388593    0.3909876 -73.24  0.002649105    1.665    0.399
        75 -10.4543     43.6918     90.4669   5.4728949203e+01   5.4782788887e+01    0.2478523    0.2405198 -36.57 0.0004907295    1.037    0.035
        76 -10.2935     42.5174     94.3466   5.6198123656e+01   5.3927166433e+01    0.3904122    0.2569381  45.18  0.001741038    1.578    0.366
        77 -12.1330    210.3840     98.2153   1.2845704911e+01   2.1203569301e+01    0.2342517     0.181823 -35.99 0.0002685055    1.124    0.110
        78 -10.4423     35.8460     92.5675   5.8912303905e+01   5.5247667545e+01    0.6131854    0.3366945  85.44  0.002146923    3.007    0.667
        79  -9.8537     38.9864     90.0667   5.6844549602e+01   5.5516168537e+01    0.2388453    0.1999651 -20.86 0.0005418599    1.267    0.210
        80 -10.2731     98.1125     90.8498   3.3663494675e+01   4.4841895549e+01    0.2248446    0.2145372  60.57 0.0004202189    1.027    0.027
        81  -9.6970     50.6159     91.2280   5.1769209408e+01   5.3583215493e+01    0.2229414    0.1372443 -48.26 0.0009491967    1.646    0.392
        82 -10.5618     10.6525     89.8682   7.0932326777e+01   5.8336396161e+01    0.2683514    0.1852275  79.55 0.0004307033    1.623    0.384
        83 -11.3565      5.4098     88.3653   7.3419190358e+01   5.9059093343e+01    0.7382331    0.3815793  11.09  0.003105246    1.993    0.498
        84  -9.8659     66.7525     88.3839   4.4130848790e+01   5.1605612570e+01    0.2676565    0.1818073 -33.25 0.0005737723    1.734    0.423
        85 -11.5132     28.0518     85.2858   6.1141949949e+01   5.8069823210e+01    0.5283664    0.4652365 -19.43  0.001122136    1.145    0.127
        86 -10.1871     52.2757     86.9501   4.9896939475e+01   5.4411218867e+01    0.2108383    0.1910778 -50.15 0.0003453756    1.126    0.112
        87  -9.8542     90.1513     85.5173   3.4669480678e+01   4.7675892085e+01     0.328692     0.206562 -65.34  0.001335603    2.068    0.516
        88 -11.2868     44.9033     83.9128   5.2477722543e+01   5.6293509855e+01    0.4688673    0.3846034 -87.54  0.001858723    1.431    0.301
        89 -10.4063    114.2256     84.1108   2.7061241899e+01   4.2763312552e+01    0.4543012    0.2838594 -77.78  0.001691515    2.825    0.646
        90 -11.8550     75.4560     78.6696   3.7797063164e+01   5.2203330554e+01    0.5574472     0.488938  89.21  0.001182371    1.299    0.230
        91  -9.9680     37.3020     85.4827   5.6553287630e+01   5.6929401658e+01    0.2780033    0.1502075  19.37 0.0009079643    1.955    0.488
        92  -9.2625    143.5021     84.4280   2.0315962951e+01   3.6273698535e+01    0.1396711    0.1336387 -70.66 0.0002577014    1.023    0.022
        93 -12.5246     60.9570     83.3894   4.5089814915e+01   5.3840165560e+01    0.3157135    0.2856983  35.71 0.0003764479    1.068    0.064
        94 -10.9369      2.2742     80.2845   7.3999909646e+01   6.1401159529e+01    0.5845743    0.2622215  82.69  0.001685852    2.862    0.651
        95 -10.8213      1.9682     71.1044   7.2826369552e+01   6.3854083549e+01    0.4260813    0.2176749 -65.99  0.001910284    1.788    0.441
        96 -12.3534    247.5344     76.2950   4.6960768218e+00   1.8479452677e+01    0.3673518    0.2299649 -58.23  0.002527681    1.525    0.344
        97  -9.7628    162.2830     81.2398   1.5998349634e+01   3.2840105943e+01    0.1733066    0.1412295 -70.39 0.0003092651    1.255    0.203
        98  -9.1806    103.4076     79.4804   2.8703492660e+01   4.6084827078e+01    0.1491254    0.1438224  84.53 0.0001572013    1.022    0.022
        99 -10.5914     89.3634     77.4429   3.2454114326e+01   4.9574976426e+01    0.4698023    0.3206435  57.13  0.002122483    1.539    0.350
       100 -10.3512     94.4554     75.4249   3.0162697002e+01   4.8884231263e+01    0.3733158    0.3184262 -56.12  0.001806177    1.221    0.181
       101  -9.3088    118.9755     78.0126   2.4053861593e+01   4.2885107629e+01    0.1792174      0.15673 -49.52  0.000336284    1.148    0.129
       102 -10.2738     58.0461     77.9262   4.4712546191e+01   5.5653950448e+01    0.2288342    0.2198559  15.64 0.0004489381    1.026    0.025
       103 -10.6586     53.3690     76.2812   4.6315929410e+01   5.6846939237e+01    0.3780507    0.3369577  69.83  0.001599565    1.255    0.203
       104  -9.7657     46.8656     74.9427   4.8982650802e+01   5.8222648530e+01    0.3752151    0.1629142 -37.42  0.001168945    3.161    0.684
       105 -10.7669     14.2736     74.3705   6.6249167880e+01   6.2227637700e+01     0.340524    0.2535355 -64.26  0.001244916    1.315    0.240
       106  -9.7299     64.4411     75.2879   4.1126193602e+01   5.5106120246e+01    0.3255279    0.1872591  24.82   0.00125707    2.114    0.527
       107 -11.3427     27.3596     73.5092   5.8698860223e+01   6.1206953089e+01    0.4707368    0.3027215  -8.37  0.001123413    1.852    0.460
       108 -10.6124     35.0431     71.3731   5.3948559537e+01   6.0804981376e+01    0.4717336     0.236178  35.80  0.001277696    1.922    0.480
       109 -10.7667     40.5648     72.9039   5.1511941730e+01   5.9665096453e+01    0.5172932    0.3324296 -13.57  0.002159747    2.131    0.531
       110 -11.0312     40.4329     68.8293   5.0340404638e+01   6.0672401667e+01    0.3334571    0.2414194  29.95 0.0009251296    1.329    0.247
       111 -10.2291     80.5799     71.4347   3.3553665876e+01   5.2710795211e+01    0.3660044    0.2443981 -41.35  0.001660144    1.599    0.375
       112 -10.0405     67.3716     81.2673   4.1782744386e+01   5.3178617023e+01    0.3531506    0.2577269   6.61   0.00155465    1.816    0.449
       113  -9.7479     86.4919     69.9683   3.0995572704e+01   5.1739462021e+01    0.2302706    0.1513454 -44.41  0.001033984    1.595    0.373
       114 -10.8886    122.6919     68.4187   2.0297236386e+01   4.3785981274e+01    0.3907088    0.2353447  47.38  0.001015619    1.708    0.415
       115  -9.8134     13.3437     67.5945   6.5343257999e+01   6.4058618864e+01    0.5344806    0.1992698   8.77  0.001531847    3.094    0.677
       116  -9.8067    102.0066     66.7949   2.5107369309e+01   4.8866689677e+01    0.2012623    0.1877116  62.59 -0.000430966    1.025    0.025
       117 -12.5737      7.4813     63.4764   6.8059830182e+01   6.5530130410e+01    0.8903147    0.2859255 -39.50  0.001563984    3.268    0.694
       118 -12.6808      4.2909     61.0430   6.9594671939e+01   6.6341040836e+01    0.6982478    0.3032971 -40.79 0.0003192052    2.192    0.544
       119  -9.0876     51.6537     65.7344   4.3702302418e+01   5.9592225303e+01    0.1512034    0.1152592  -2.05 0.0002528176    1.609    0.379
       120 -10.0831    202.3136     63.0892   6.2732970469e+00   2.7668694058e+01    0.2863094    0.1402368 -35.75  0.001181218    1.805    0.446
       121 -10.5176     49.8316     60.6148   4.2790243723e+01   6.1052271006e+01    0.3477201    0.2477047  41.91  0.001082184    1.360    0.265
       122 -10.3486     46.4801     59.4589   4.4056157240e+01   6.1883377926e+01    0.3113639    0.2384109 -66.03 0.0008895191    1.547    0.353
       123 -11.6639     43.1193     60.4055   4.6136519447e+01   6.2224922650e+01    0.4856175    0.2862034 -54.26 0.0009534924    1.792    0.442
       124 -11.5984     39.5121     56.5260   4.6688121794e+01   6.3668289710e+01    0.3316226    0.2393033  33.24 0.0006382467    1.316    0.240
       125 -10.0548    158.7893     62.8289   1.1818342855e+01   3.6520171047e+01    0.2277128    0.1681278  53.93 0.0006595276    1.468    0.319
       126  -9.5095    105.4705     63.4709   2.3053796780e+01   4.8673254598e+01    0.1483752    0.1387718  78.44 0.0001391319    1.021    0.021
       127 -10.9247     92.5372     62.5455   2.6508503623e+01   5.1833328113e+01     0.339411    0.2570592  65.68 0.0008070787    1.375    0.273
       128  -9.8889     57.9835     62.2901   3.9534167323e+01   5.9205184977e+01    0.2784081    0.2212655 -86.14  0.001345648    1.673    0.402
       129  -9.7748    113.3831     60.7272   2.0116379383e+01   4.7297316735e+01    0.2404857    0.1885566 -31.54 0.0007584081    1.430    0.301
       130  -9.2827    150.7373     60.6676   1.2531442732e+01   3.8635108845e+01    0.1264976    0.1088528  10.39 0.0004635424    1.575    0.365
       131 -10.4777     27.2499     59.7718   5.4846868196e+01   6.4619463703e+01    0.6570311    0.2653733  31.87  0.002542188    2.295    0.564
       132 -11.5613     75.6087     56.3864   3.0065519205e+01   5.6792493612e+01    0.6931693    0.3348329 -42.79  0.002479389    2.213    0.548
       133 -11.5425     72.6209     46.4294   2.7301654173e+01   5.9274320238e+01    0.7447667    0.2943666 -46.81  0.002699214    2.881    0.653
       134  -9.6216    106.6554     58.2166   2.0996401480e+01   4.9318427172e+01    0.1999472    0.1710526  73.06 0.0003546614    1.137    0.120
       135  -9.9592     87.8211     56.5858   2.5902848105e+01   5.4012013970e+01    0.3912361    0.1438531 -38.88  0.001067546    2.998    0.666
       136 -10.3883     88.6071     51.3488   2.3733629730e+01   5.4755817220e+01     0.444499    0.2193498 -50.39  0.001173274    2.353    0.575
       137 -10.4365    124.8769     56.6235   1.6193090707e+01   4.5255544423e+01    0.2312461    0.2021597 -29.90 0.0009052305    1.292    0.226
       138 -10.1243    157.0432     54.6149   9.8881863226e+00   3.8127882048e+01    0.3326784    0.1514889 -45.15  0.001475197    2.016    0.504
       139 -10.1207    112.5942     50.1840   1.6833100517e+01   4.9217674918e+01    0.3402016    0.2828319 -12.14  0.001446164    1.538    0.350
       140 -11.8882    119.8319     37.8396   1.1143958045e+01   4.9264075067e+01    0.5863753    0.3445596 -43.81  0.001859528    1.713    0.416
       141 -11.7908    116.9737     47.9827   1.5112850106e+01   4.8498714655e+01    0.8052518    0.3912314 -36.07  0.001168402    2.160    0.537
       142 -10.5902    116.5116     43.4956   1.3713835106e+01   4.9278732552e+01    0.3182386    0.2508046  36.89  0.001165764    1.513    0.339
       143  -9.7730     50.5178     56.4969   4.0930640281e+01   6.1822619818e+01    0.3011762    0.1393851  36.83  0.000961084    2.050    0.512
       144 -11.2204     25.4591     55.4137   5.4531711885e+01   6.5870255064e+01    0.3203334    0.2282116 -20.06 0.0007944006    1.524    0.344
       145 -10.6459     59.7681     50.5579   3.4250979672e+01   6.1258943114e+01    0.6151885    0.2942164 -59.10   0.00213086    3.370    0.703
       146 -10.1471     61.5177     46.5077   3.1818852583e+01   6.1666001112e+01    0.3859877    0.2285765 -24.31  0.001580183    2.452    0.592
       147 -10.6265     32.0396     52.5659   4.9528575706e+01   6.5666373550e+01    0.5172684     0.252362  18.68  0.002010466    2.414    0.586
       148  -9.9936    126.7367     50.6712   1.3951003728e+01   4.5740486775e+01    0.4273423    0.1393924 -28.24  0.001214165    5.086    0.803
       149  -9.6250     54.5415     51.3124   3.6959063919e+01   6.2143839539e+01    0.3515248    0.2133454 -15.74  0.001308188    3.017    0.668
       150 -10.6908    243.7530     51.0426   2.4716306824e-01   2.2152173508e+01     0.163139    0.1312446 -65.95 0.0004006463    1.198    0.165
       151  -9.5494    145.0007     50.0074   1.0473573157e+01   4.1532908359e+01     0.198116    0.1636233  25.88 0.0004910775    1.640    0.390
       152  -9.3328     97.5354     49.9415   2.0582685919e+01   5.2880481219e+01    0.2004175    0.1452448 -39.79  0.000405474    1.472    0.321
       153  -9.6304    155.0529     48.7398   8.5787656991e+00   3.9412153762e+01    0.1811934    0.1610904 -64.92 0.0004986728    1.044    0.042
       154 -10.1893     82.9905     46.8237   2.3813715806e+01   5.6837022630e+01    0.2743801    0.2144074  -2.32 0.0009241043    1.744    0.427
       155 -12.3816     41.9228     44.0841   4.0423565576e+01   6.5912147386e+01    0.9335261    0.3503239  36.79  0.002702755    2.503    0.600
       156 -10.5247     20.3337     45.9419   5.4588891802e+01   6.8658620189e+01    0.3693432    0.2210693 -36.56  0.001549322    1.722    0.419
       157 -11.2436     26.3008     42.5330   4.9259474480e+01   6.8667018009e+01    0.4108388     0.301854  50.77  0.001122933    1.615    0.381
       158 -10.6771     22.2556     36.9987   4.9704881696e+01   7.0380209279e+01    0.4427271     0.188975  37.65 0.0008239389    2.293    0.564
       159  -9.6104     13.6037     46.1385   5.9355098239e+01   6.9309841391e+01    0.2036584    0.1111996 -47.58 0.0009414521    1.730    0.422
       160  -9.4330    200.0013     45.0000   2.4659273282e+00   3.0478853300e+01    0.1779255   0.06537426  69.46 0.0008059422    2.967    0.663
       161  -9.9194    156.1294     42.3519   6.6703208253e+00   4.0039949946e+01    0.2110497    0.1786726 -31.72 0.0009168872    1.326    0.246
       162  -9.4989    139.2235     43.5699   9.5225752326e+00   4.3796470571e+01    0.1876785    0.1185957  55.66 0.0005863608    1.608    0.378
       163 -11.0627    110.2974     39.8358   1.3798841831e+01   5.1328023215e+01    0.5462884    0.3794469 -20.85  0.002696333    1.838    0.456
       164  -9.0511    145.6529     42.7432   8.2719931770e+00   4.2399159930e+01    0.1292787   0.09974097  42.43 0.0002317855    1.595    0.373
       165  -9.9585     56.7418     41.6810   3.1878758278e+01   6.3538031510e+01    0.2519775    0.1755689  52.69 0.0006348621    1.423    0.297
       166 -11.0495     18.1500     40.5137   5.4082918444e+01   7.0120613744e+01    0.2649773     0.212702 -34.65   0.00048787    1.211    0.174
       167 -10.8460      3.8798     36.5762   6.3647630295e+01   7.2305631994e+01    0.5253464    0.3644449 -59.78  0.002766838    1.445    0.308
       168 -10.7755      9.8336     30.2678   5.6382972898e+01   7.3218223333e+01    0.4841615    0.3166733   2.97  0.002545188    1.509    0.337
       169  -9.7737    249.9073     39.0932   3.5762697156e+02   2.2580413124e+01     0.161141   0.09742508 -54.74 0.0003024689    1.265    0.209
       170 -11.5148     79.2821     34.9170   2.0190206583e+01   5.9599736283e+01     0.678192    0.5063288 -25.26  0.003073294    1.581    0.367
       171 -10.4343     61.5716     35.0688   2.6784593495e+01   6.3641899496e+01    0.4475776    0.2985995 -10.80  0.002013091    2.252    0.556
       172  -9.7071     67.3780     32.1277   2.3124153343e+01   6.2800556522e+01    0.3497628     0.200128  35.39  0.001524527    2.004    0.501
       173 -10.4272    153.2021     35.7305   5.2134355804e+00   4.1568463332e+01    0.2252679    0.1919358  85.88 0.0004863335    1.105    0.095
       174 -10.4484    219.9619     35.4799   3.5881536164e+02   2.7936736218e+01    0.1510703    0.1018987  85.63 0.0005073464    1.565    0.361
       175 -10.7996    175.5480     34.4264   2.3052636107e+00   3.6761265449e+01    0.6892967    0.2385229 -57.63   0.00241362    3.504    0.715
       176 -10.5536    169.2901     22.9698   3.5998410890e+02   3.9459629952e+01    0.2303793    0.1780279  69.74 0.0005871421    1.354    0.261
       177 -11.2627    157.3694     28.9679   2.8220080314e+00   4.1441952243e+01    0.3504113    0.2296591  84.23  0.001193484    1.452    0.311
       178 -12.3471    245.7565    119.1693   1.2731602427e+01   1.3043908806e+01    0.5670494    0.2111178 -49.09  0.002681311    2.938    0.660
       179  -9.9563     67.4105    240.7529   6.7848007972e+01   1.4825573260e+01    0.1552773    0.1139791 -45.32 0.0005857049    1.626    0.385
       180 -12.4855    105.7161     19.9382   7.4950278245e+00   5.5005659370e+01    0.3258014    0.2642345 -73.72 0.0003699327    1.217    0.178
       181 -10.3373    216.9943     32.0368   3.5830329784e+02   2.8863259591e+01    0.1709335    0.1295597 -55.17 0.0003439186    1.011    0.011
       182 -10.3621    131.9016    240.5150   5.2786482214e+01   7.9211649779e+00    0.1904862   0.09953591  22.66 0.0009155685    1.570    0.363
       183 -11.8796     58.2117     29.3564   2.5512356830e+01   6.5281297739e+01    0.4073447    0.2939896  29.83  0.002092097    1.487    0.327
       184 -11.5472     48.9967     30.0111   3.0103191511e+01   6.7135697943e+01    0.6794773    0.2874736  39.67  0.002262114    2.296    0.564
       185  -9.3978     36.2790     30.9770   3.7595485812e+01   6.9400667620e+01    0.1832488    0.1718843 -11.97 0.0006181968    1.116    0.104
       186  -8.9132     22.2931     31.3088   4.7095298430e+01   7.1542112834e+01    0.1388683   0.09790904 -12.87 0.0002636314    1.585    0.369
       187 -12.1056    127.3959     28.3803   6.6861900485e+00   4.8627221502e+01    0.8254282    0.3767861  78.62  0.002326565    2.396    0.583
       188 -11.6771     26.4755     27.8481   4.2382062400e+01   7.1601779800e+01       0.4399    0.3757984 -60.16  0.001982303    1.456    0.313
       189 -10.8966     75.8934    240.1084   6.5731661517e+01   1.4065100819e+01    0.2016463    0.1480776  39.36  0.000768874    1.253    0.202
       190 -10.8551    189.1569     27.1195   3.5928294514e+02   3.4776253092e+01    0.2841753    0.2479601  28.55  0.001783593    1.676    0.403
       191  -9.8185    177.4672     28.9772   7.5217480340e-01   3.7000953308e+01     0.182121    0.1099875 -36.15 0.0007254709    1.569    0.363
       192 -11.7318    148.8849     22.2543   1.8938084321e+00   4.4179887850e+01    0.8363067    0.1598481  69.28  0.002653927    4.463    0.776
       193 -11.5122    147.2074     27.9010   3.7359110248e+00   4.3922987201e+01    0.5837522    0.2216907  63.82  0.001816906    2.407    0.585
       194 -11.1311    142.9909     25.4581   3.5488825382e+00   4.5206195513e+01    0.3617425    0.1843071  70.66  0.001583859    1.816    0.449
       195 -11.1437    183.5347     25.9872   3.5947826418e+02   3.6065185672e+01      0.36195    0.1679936 -46.37  0.001894462    1.775    0.437
       196 -10.8716    229.8413     26.9940   3.5647170452e+02   2.7171335769e+01     0.204943    0.1422631  69.72 0.0008772675    1.721    0.419
       197  -9.0240    200.6873     27.7229   3.5852706798e+02   3.2410474221e+01   0.09877204   0.08961919  40.79 0.0002180744    1.562    0.360
       198  -9.6340     97.9785     25.9517   1.1419563528e+01   5.6236538063e+01    0.2240604    0.1557719 -74.88 0.0006314075    1.644    0.392
       199 -10.0057     45.7695     24.5070   2.8891862648e+01   6.8672907253e+01    0.2218731    0.1847211 -29.20 0.0002429293    1.325    0.246
       200  -9.3220     86.0383     23.5283   1.3359500855e+01   5.9507252531e+01    0.1999329    0.1230194  60.66 1.919671e-05    1.426    0.299
       201 -10.0712     13.5573     22.8530   4.9769028338e+01   7.4338724341e+01    0.2279474    0.1690927  20.10 0.0005422794    1.223    0.182
       202 -10.7289    178.3687     21.0795   3.5870685475e+02   3.7702694369e+01    0.3341546     0.208571  42.61   0.00180456    2.414    0.586
       203 -11.0910    134.1592     21.5114   3.4943391983e+00   4.7777758439e+01    0.3322457    0.3170044 -59.39  0.002126991    1.192    0.161
       204 -10.6878    147.1751    238.7300   4.9295510568e+01   6.5663105336e+00    0.1828138    0.1669347 -35.89  0.001318321    1.448    0.310
       205  -9.9939    248.9922    223.9498   2.9385906339e+01  -1.0567128336e+00    0.1683647   0.08646437 -13.36  0.001131234    1.719    0.418
       206 -10.7224     68.7234     20.4459   1.7137518022e+01   6.4107399298e+01    0.3661309    0.3188296 -30.72  0.001795332    1.304    0.233
       207  -9.6374     44.6737    214.6996   7.1602275471e+01   2.2521662235e+01    0.1311798   0.09692667 -19.64 0.0006670246    1.637    0.389
       208 -10.7333      9.2196    211.3738   8.0940662890e+01   2.6412604328e+01    0.2528661    0.1361755  32.50  0.001309754    1.509    0.337
       209 -10.1102      5.2430     22.3807   5.6956714847e+01   7.5303966446e+01    0.2680373    0.1243532  11.43  0.001187644    2.191    0.544
       210 -11.2717      9.2996     19.5659   5.1809545849e+01   7.5470335191e+01    0.3586121    0.2349671  -7.44  0.001053128    1.607    0.378
       211  -9.3176    171.4977    208.5198   4.0018928358e+01   8.6946776094e+00    0.1242505   0.09927704  -5.37 0.0001349937    1.009    0.009
       212  -8.8617     79.3310    206.3156   6.1434318425e+01   2.0547315236e+01    0.1415478   0.09930915 -16.01 0.0005874683    1.682    0.406
       213  -9.8865     39.7649    205.9896   7.2282508848e+01   2.4973839919e+01    0.1709211    0.1141178 -76.69 0.0008946711    1.677    0.404
       214 -10.0755      4.0000    205.0408   8.2101722963e+01   2.8249813105e+01    0.1965377    0.0710566 -83.56  0.000537894    2.917    0.657
       215 -10.2140     46.0258     19.9518   2.6274435579e+01   6.9300595010e+01    0.2840719    0.1736198  47.26  0.001058938    1.441    0.306
       216  -9.6983     74.9035     19.1022   1.4525510590e+01   6.2782225819e+01    0.2209833    0.1503527  34.46  0.001111029    1.665    0.399
       217 -10.7349     16.2709    190.9809   7.7998223443e+01   3.0660454014e+01    0.2658032    0.2117088  54.82 0.0005331327    1.140    0.123
       218 -11.5326      6.6092    185.7987   8.0577230942e+01   3.2670793328e+01    0.3306946    0.2148283  46.49  0.001756243    1.350    0.259
       219  -9.3892    199.2867     17.6791   3.5637150580e+02   3.3786288302e+01    0.1239123   0.06433308 -58.20 0.0002068485    1.597    0.374
       220 -12.0974      3.0297    183.6132   8.1542366747e+01   3.3461830658e+01    0.6180562    0.2942754 -70.64  0.002826464    2.140    0.533
       221  -9.1464     85.6986    185.3212   5.7015321413e+01   2.4451918331e+01    0.1469263     0.104415  56.15 0.0003753771    1.628    0.386
       222 -10.0365    186.8097     14.8660   3.5655762912e+02   3.6595738771e+01    0.1659622    0.1477408 -64.42 0.0009602468    1.183    0.154
       223  -9.9248    148.5348     15.5081   3.5997695028e+02   4.4991330605e+01    0.1297324    0.1070512 -75.77 2.173508e-05    1.016    0.016
       224  -9.1794    139.6962    182.6771   4.2628629316e+01   1.7436776016e+01     0.141684   0.09696464 -12.65 0.0007030812    1.637    0.389
       225  -9.4305    175.3295    179.6727   3.4506958991e+01   1.3052193691e+01    0.1137374    0.1039024  85.05 0.0007050977    1.707    0.414
       226  -9.6768    196.4568     14.4955   3.5583394472e+02   3.4679517168e+01    0.1182711    0.0890369 -61.58 1.512878e-05    1.028    0.027
       227  -9.3425     28.0000    175.9804   7.3405864464e+01   3.3414348257e+01    0.2254539   0.08024265 -75.88 0.0008032158    2.948    0.661
       228 -10.4621     16.1090    173.8658   7.7009378949e+01   3.4973711145e+01     0.232424    0.1719062  52.55  0.001239108    1.249    0.200
       229  -9.3649    190.3192    170.6783   3.0115219062e+01   1.2572858659e+01    0.1105996   0.09920003 -71.39 0.0007043967    1.669    0.401
       230 -11.8588      8.9468    166.8148   7.8867738960e+01   3.7341958296e+01    0.5344857    0.2457141  32.42   0.00232975    1.901    0.474
       231 -12.4706     13.0495    160.8116   7.7131719674e+01   3.8628563690e+01     0.581879    0.4314882 -19.27   0.00195883    1.574    0.365
       232 -10.6145    205.0452    163.1499   2.6255286054e+01   1.1853461084e+01    0.2191856    0.1467177 -33.13 0.0007716891    1.246    0.197
       233 -10.2724    156.7232    166.0123   3.5838742522e+01   1.8163199578e+01    0.1929558    0.1633162 -29.14 0.0008339169    1.104    0.094
       234  -9.5931    104.5035    154.0097   4.6519412845e+01   2.8995541340e+01    0.2074102    0.1364983 -87.06 0.0008106468    2.603    0.616
       235 -11.0983     16.6900    147.7650   7.4863719109e+01   4.1869684471e+01    0.4658901    0.1897422 -80.73  0.001739944    2.527    0.604
       236 -11.6751     21.0469    150.4945   7.3544439378e+01   4.0774566632e+01    0.4580345    0.2834389 -43.53 0.0003580292    1.785    0.440
       237 -11.3473     23.9896    147.9896   7.2252739652e+01   4.1205298849e+01    0.3289345      0.28838 -20.28 0.0006915341    1.249    0.200
       238 -10.2165      4.5926    153.7496   7.9558780018e+01   4.1096192495e+01     0.200457    0.1229242  78.54 0.0006788544    1.623    0.384
       239  -9.7743    240.5102    152.4869   1.9239283291e+01   9.0746866540e+00    0.1109331   0.08375458 -30.23 0.0001389372    1.048    0.046
       240  -9.2250     55.5371    152.5284   6.1689886294e+01   3.6580574794e+01    0.1495903    0.1445597  17.64 0.0002590841    1.042    0.040
       241 -11.0836     47.3157    148.3578   6.3950048877e+01   3.8698964233e+01    0.6559749    0.3690422 -25.41  0.002495235    2.525    0.604
       242  -9.4795    104.4526    147.4782   4.5274053706e+01   3.0532967449e+01    0.1493046     0.143487  41.93 0.0001216687    1.075    0.070
       243 -11.8854      3.7021    142.3324   7.9174723033e+01   4.4241923027e+01    0.6717839    0.3374762  33.58  0.002963814    1.853    0.460
       244 -10.4200     33.0926    144.0837   6.8515054220e+01   4.1418283499e+01    0.2929599    0.2160488 -81.58   0.00079427    1.400    0.286
       245  -9.3244     40.3296    141.3232   6.5502246273e+01   4.1407810046e+01    0.2309052    0.1429157 -51.12  0.000712088    1.661    0.398
       246 -10.4797     40.6633    137.9882   6.4915840268e+01   4.2282561462e+01    0.3852774    0.2399403  31.71   0.00154296    1.516    0.340
       247 -11.6215     22.8211    137.6382   7.1618559136e+01   4.4153239681e+01    0.5634722    0.3371005 -40.16  0.002470425    1.861    0.463
       248 -10.3049     20.4717    134.0374   7.2135285208e+01   4.5349451314e+01    0.3070211    0.2842301  -6.69  0.001039096    1.143    0.125
       249 -11.7810     12.3914    135.5145   7.5399840085e+01   4.5557343768e+01    0.6452131    0.2977538 -45.32  0.002539468    2.352    0.575
       250 -10.2245     30.4697    132.5868   6.8073744303e+01   4.4847393305e+01    0.3290313    0.2421723 -14.53 0.0008439188    1.564    0.361
       251  -9.5551     26.4327    131.4715   6.9511908461e+01   4.5541407154e+01    0.1473291    0.1415394  66.11 5.009432e-05    1.017    0.017
       252  -9.2580    104.1565    130.6376   4.1846222956e+01   3.4546340074e+01    0.2014704    0.1426208  24.21 0.0001256624    1.523    0.344
       253 -10.9012     11.2615    124.9771   7.4875745626e+01   4.8562774646e+01    0.4799629    0.2608936 -43.63  0.001227281    1.946    0.486
       254 -10.4637     23.0262    126.5313   7.0264667864e+01   4.7221260453e+01    0.2177098    0.1450928  18.42 0.0003525754    1.514    0.339
