#   1 NUMBER                 Running object number                                     
#   2 MAG_AUTO               Kron-like elliptical aperture magnitude                    [mag]
#   3 X_IMAGE                Object position along x                                    [pixel]
#   4 Y_IMAGE                Object position along y                                    [pixel]
#   5 X_WORLD                Barycenter position along world x axis                     [deg]
#   6 Y_WORLD                Barycenter position along world y axis                     [deg]
#   7 A_WORLD                Profile RMS along major axis (world units)                 [deg]
#   8 B_WORLD                Profile RMS along minor axis (world units)                 [deg]
#   9 THETA_WORLD            Position angle (CCW/world-x)                               [deg]
#  10 FWHM_WORLD             FWHM assuming a gaussian core                              [deg]
#  11 ELONGATION             A_IMAGE/B_IMAGE                                           
#  12 ELLIPTICITY            1 - B_IMAGE/A_IMAGE                                       
         1 -14.6670     71.2980    186.8799   1.2559680102e+02   2.6732992365e+01     3.533684     2.198625 -37.74   0.01589354    2.200    0.545
         2 -14.6135    197.2737     29.3335   6.0707088654e+01   3.2666120805e+01     1.997248     1.483083   2.33   0.01096192    2.430    0.588
         3 -11.9018    204.4104     19.7493   5.7843787805e+01   3.2216033558e+01     0.375985    0.3419575  69.16  0.001139667    1.317    0.241
         4 -12.4575    188.2989     14.2011   5.8373624606e+01   3.6410251513e+01    0.5419909    0.2224369  82.85  0.002287297    2.813    0.645
         5 -14.0743    209.7710     12.4263   5.5797240485e+01   3.1870006904e+01     1.207326     0.880565  55.68  0.005280711    1.605    0.377
         6 -10.9643    193.4368    237.1726   1.0630428134e+02  -4.8267228876e+00    0.3020821    0.1275894 -47.67  0.001285995    2.655    0.623
         7 -11.7176    141.3535    249.4332   1.1893904950e+02   1.4809134709e+00    0.5431982    0.2118741  32.15  0.002098188    2.809    0.644
         8 -15.6098      6.7356     77.8971   1.2508439689e+02   5.9370817369e+01     17.45703     2.518462 -62.89   0.03753009   11.299    0.911
         9 -12.8195     78.8041    230.8090   1.2968415966e+02   1.5318509964e+01    0.7869818    0.4700889  52.89  0.003099249    1.528    0.346
        10 -12.8819     62.8512    229.9989   1.3294648233e+02   1.7807046080e+01     1.071049    0.4508824  41.18  0.004835473    2.170    0.539
        11 -13.7885     37.5716    219.3937   1.3711935313e+02   2.3489639546e+01     1.113298    0.7551943  12.13  0.005862172    2.555    0.609
        12 -15.5828     52.1232    241.0629   1.3621682859e+02   1.6870584929e+01     2.615555     1.111153  62.11   0.01147837    2.594    0.615
        13 -16.1048      3.9719    229.0288   1.4442891448e+02   2.5050772199e+01     2.969868    0.7115551 -74.71   0.01206726    3.418    0.707
        14 -15.1979     12.7391    202.7961   1.4076617632e+02   3.0019221337e+01     1.257684    0.5491834 -69.77   0.00537776    1.879    0.468
        15 -15.0115      3.2520    193.6755   1.4198150878e+02   3.3006040656e+01     1.360146    0.3932119 -71.65  0.005784871    2.652    0.623
        16 -13.3001    111.7882    176.2840   1.1370771429e+02   2.2686486921e+01     3.106554     1.985574 -84.73   0.01250388    2.248    0.555
        17 -12.7875    100.9694    198.6772   1.2025008408e+02   1.9165784647e+01     1.346925    0.9088273  37.53  0.006543995    1.514    0.340
        18 -13.2502    102.5221    215.0150   1.2238594558e+02   1.5105350824e+01     1.403944      1.02269 -81.51  0.007078609    1.486    0.327
        19 -14.3187    124.5840    223.8379   1.1875860566e+02   9.4200179053e+00     2.950547     1.920584  13.82   0.01290476    2.430    0.588
        20 -13.8890    127.0443    201.5345   1.1457397300e+02   1.3923981485e+01     2.165943     1.287167  34.78  0.008814774    1.741    0.426
        21 -10.9869    162.4450    249.5007   1.1460078272e+02  -1.9810985454e+00    0.2854489    0.1159967  37.77   0.00120502    2.186    0.543
        22 -13.6295     83.7290    167.6066   1.1930708438e+02   2.9636832412e+01     1.385286    0.9480137  26.36  0.004386082    1.751    0.429
        23 -12.3126     87.4094    223.6904   1.2695150611e+02   1.5580345880e+01    0.7582461    0.5755239  50.06  0.002779083    1.216    0.178
        24 -12.5622     76.7848    220.8892   1.2892419610e+02   1.7833411031e+01    0.7762621     0.441703  43.70  0.002741162    1.645    0.392
        25 -14.6538     36.8752    245.8039   1.3954983415e+02   1.7825576346e+01     1.291342    0.7755952  41.18  0.007697649    1.644    0.392
        26 -13.6815     55.1168    181.8456   1.2883794544e+02   3.0225571145e+01      1.93631    0.8142415 -63.37  0.008099393    2.101    0.524
        27  -9.5900     85.2318    208.0588   1.2534068587e+02   1.9505365091e+01    0.2058538    0.1907337 -54.59  0.001028939    1.238    0.192
        28  -9.4650     32.8102    206.8595   1.3690846373e+02   2.6935900372e+01    0.1737837    0.1198153  75.14  0.001003352    1.303    0.232
        29 -13.3170     93.4466    188.9744   1.2049798079e+02   2.2760734684e+01     2.190357     1.399416 -29.92  0.009164996    2.456    0.593
        30 -13.0554     71.7116    164.5285   1.2192602279e+02   3.2249856008e+01    0.7080001    0.5249485  18.94  0.001126635    1.717    0.418
        31  -8.7462     26.8269    203.6084   1.3787238767e+02   2.8367346966e+01    0.1632359   0.09939989  54.16 0.0002898744    1.570    0.363
        32 -10.9762    199.1492    198.4630   9.8088679484e+01   1.3452250009e+00    0.2900104    0.2417648 -29.42   0.00121723    1.151    0.131
        33  -9.5975    208.5089    186.4856   9.3849518743e+01   2.0297907823e+00    0.1426058    0.1293567 -18.85 0.0003390613    1.035    0.034
        34  -9.1365     42.6060    178.8209   1.3148979652e+02   3.2533924663e+01    0.1998226    0.1142296 -82.04 0.0009433045    1.738    0.425
        35  -9.9486     11.5772    176.5287   1.3858974348e+02   3.6300852984e+01    0.3776577    0.1626961 -62.14  0.001780695    1.908    0.476
        36 -11.3241    145.6126    163.5774   1.0278262531e+02   1.9214069763e+01    0.4713957    0.3228074 -50.03  0.002115307    1.435    0.303
        37 -10.5822    134.1312    165.1413   1.0590920006e+02   2.1141322574e+01    0.3503563    0.3278837  60.50  0.001838946    1.076    0.071
        38 -12.0556    133.2453    171.7555   1.0749256988e+02   1.9738641694e+01     1.032878    0.5708759  38.79  0.003792383    1.861    0.463
        39 -11.1587    143.7846    169.9239   1.0456163792e+02   1.8095700171e+01    0.5949655    0.4455929 -86.90  0.002657619    1.754    0.430
        40 -10.3822    139.2446    168.0045   1.0525694904e+02   1.9449202871e+01    0.2905081    0.2600793 -62.15 0.0006620233    1.109    0.098
        41 -10.8648     14.0522    162.6611   1.3650766886e+02   3.9415901246e+01    0.5112836     0.314293 -83.98  0.002251545    1.446    0.309
        42  -9.1500     40.5711    162.8191   1.2982275223e+02   3.6732629119e+01    0.1930016    0.1166933 -81.11 0.0006181502    1.645    0.392
        43 -11.7356    165.9229    154.9764   9.6159839612e+01   1.7005669079e+01    0.8781132    0.5297025  22.02  0.003237769    2.669    0.625
        44 -13.3360    159.5715    147.0919   9.5831303055e+01   2.0118353474e+01    0.9001869    0.6058197  37.25  0.003962958    1.613    0.380
        45 -12.7645    146.3971    154.1768   1.0054117777e+02   2.1249777148e+01     1.144803    0.5532526  48.57    0.0042503    2.184    0.542
        46 -12.6924    151.1618    150.0824   9.8481521405e+01   2.1208045139e+01    0.8350462    0.4345241  55.94  0.003059021    2.356    0.576
        47 -11.7258     40.7669    149.7519   1.2780673870e+02   3.9954054143e+01    0.8414189    0.6581609   0.83  0.004718895    1.698    0.411
        48 -13.5889     71.7335    139.8828   1.1732248495e+02   3.8407846894e+01     1.529941     1.052311 -36.26  0.007339135    1.620    0.383
        49 -13.9945     56.6340    136.0550   1.2092474178e+02   4.1437603003e+01      1.57843     1.153097 -11.59  0.005992829    1.846    0.458
        50 -10.8416    128.8223    151.0037   1.0418760515e+02   2.5579104027e+01    0.3996848    0.2304368 -50.37  0.001632663    1.689    0.408
        51 -12.6477    164.3685    141.0020   9.3333019931e+01   2.0460194916e+01    0.4704681    0.3853227 -29.31  0.002283718    1.338    0.253
        52 -10.5153     99.9036    129.5977   1.0702641434e+02   3.6266676402e+01    0.4253466    0.3132139 -47.27  0.001300175    1.304    0.233
        53 -11.2673     91.3253    144.0187   1.1265499610e+02   3.4274700206e+01    0.3024701    0.2455124 -39.50 0.0004572031    1.280    0.219
        54 -11.7082     96.3707    137.4826   1.0982584975e+02   3.5002539102e+01     1.390158     0.818688   9.08  0.004596464    3.724    0.731
        55 -13.2686    153.2775    137.1140   9.4979822815e+01   2.3717909081e+01    0.9765045    0.6018204 -45.17  0.004139132    1.587    0.370
        56 -12.3368    163.9072    120.3268   8.8502269880e+01   2.5064734984e+01    0.7081982    0.4880405 -15.27  0.002872446    2.279    0.561
        57 -13.1440    164.0863    130.1988   9.0850586501e+01   2.2901198468e+01    0.8242548     0.691735  35.46  0.003859373    1.304    0.233
        58 -11.9748     39.8968    133.6269   1.2535401639e+02   4.4011288426e+01    0.7251559    0.4624029 -60.82  0.003141685    1.339    0.253
        59 -11.1054    112.9109    133.4942   1.0435469476e+02   3.2899410301e+01    0.6625751    0.4272865 -36.59  0.002203027    1.718    0.418
        60 -12.8367    141.4411    138.8048   9.8231015621e+01   2.5855366866e+01    0.9598245    0.6512505 -81.42  0.003794702    2.233    0.552
        61 -11.9701     46.6645    116.4229   1.1997361343e+02   4.7371453686e+01    0.8262415    0.6123394  72.44  0.003762475    1.808    0.447
        62 -11.5913    166.8187    111.8399   8.5778080399e+01   2.6181772433e+01    0.5567648    0.3962906  88.92  0.001809063    1.914    0.477
        63 -12.6531    159.5522    108.8303   8.6608635975e+01   2.8441280363e+01    0.8915899    0.5290917 -39.21   0.00378007    1.733    0.423
        64 -12.2532     56.1622    107.8038   1.1503830253e+02   4.8201017265e+01    0.8948417    0.6609456  10.16  0.004703925    1.589    0.371
        65 -11.6182     63.7395     98.5652   1.1030875604e+02   4.9231907660e+01    0.6203722    0.5003549 -19.80  0.002929439    1.277    0.217
        66 -10.9348     94.6722     99.3345   1.0086842241e+02   4.4052808277e+01    0.3662775    0.2584081 -61.05  0.001738323    1.647    0.393
        67 -10.9190     84.6154    100.3565   1.0417844543e+02   4.5602972181e+01    0.2948627    0.2397859  51.87  0.001560885    1.391    0.281
        68 -12.1694     51.9470     93.9977   1.1303496406e+02   5.1783109422e+01    0.8064474    0.4778632 -37.41  0.004025808    1.610    0.379
        69 -13.0624     57.2561    203.6418   1.3116063309e+02   2.4639270289e+01     1.370507    0.8570244 -55.13  0.007074353    1.661    0.398
        70 -12.2453     43.5901     75.5334   1.1097777049e+02   5.6569830305e+01      1.15536    0.3432173 -50.91  0.004385038    3.085    0.676
        71 -11.5300     39.4148     70.8214   1.1115225140e+02   5.7952336711e+01    0.5319538    0.3686773  -6.02  0.003082327    1.536    0.349
        72 -12.4952     56.4309     75.8842   1.0652387309e+02   5.4886849351e+01    0.9047285    0.7345647 -21.22  0.005472406    1.129    0.114
        73 -11.6600    209.3837     70.7042   6.8357689783e+01   2.4054874391e+01    0.4278868    0.2388216 -53.10  0.002049595    1.705    0.413
        74 -12.5527     17.4674     63.3401   1.1738556169e+02   6.1464606348e+01    0.5969086    0.3918498   3.42  0.003728128    1.605    0.377
        75 -13.3965    187.6743     35.5462   6.3316794948e+01   3.4068759180e+01    0.6533853    0.6246032  73.19  0.002604831    1.236    0.191
        76  -9.0615    120.3115    249.3186   1.2328191551e+02   4.9413697470e+00    0.1243487     0.103039  -1.73 0.0003254343    1.644    0.392
        77 -11.7167     44.9231     46.7707   1.0142654955e+02   6.1469963021e+01    0.4565446    0.2211809 -41.60  0.002360082    2.006    0.501
        78 -13.1780      2.3965    171.3205   1.4018757705e+02   3.8310031796e+01     1.467204    0.2394084 -72.60  0.004482004    4.837    0.793
        79 -11.8635    179.1424    242.0145   1.1000497525e+02  -3.3742097677e+00      0.30191    0.1960273 -43.98  0.001621688    1.670    0.401
        80 -10.8018    171.3881    241.8086   1.1156173615e+02  -2.0752534021e+00    0.1822459    0.1210015 -33.63 0.0009543018    1.690    0.408
