#   1 NUMBER                 Running object number                                     
#   2 MAG_AUTO               Kron-like elliptical aperture magnitude                    [mag]
#   3 X_IMAGE                Object position along x                                    [pixel]
#   4 Y_IMAGE                Object position along y                                    [pixel]
#   5 X_WORLD                Barycenter position along world x axis                     [deg]
#   6 Y_WORLD                Barycenter position along world y axis                     [deg]
#   7 A_WORLD                Profile RMS along major axis (world units)                 [deg]
#   8 B_WORLD                Profile RMS along minor axis (world units)                 [deg]
#   9 THETA_WORLD            Position angle (CCW/world-x)                               [deg]
#  10 FWHM_WORLD             FWHM assuming a gaussian core                              [deg]
#  11 ELONGATION             A_IMAGE/B_IMAGE                                           
#  12 ELLIPTICITY            1 - B_IMAGE/A_IMAGE                                       
         1 -13.3151    171.7790     54.3002   6.0640010007e+01   3.5279856871e+01     1.996227     1.345153  24.51  0.005738497    1.999    0.500
         2 -13.4219    186.6465     39.9115   5.3737470733e+01   3.3530494475e+01     1.052857    0.9617339 -36.54  0.003392326    1.132    0.117
         3 -12.8900    191.2529     33.9201   5.1297742712e+01   3.3137100165e+01    0.6533644    0.5923289 -50.24  0.001542318    1.104    0.094
         4 -12.5304    193.4138     14.3264   4.5415053284e+01   3.4908455723e+01     1.049401    0.6589978  49.60  0.005193323    1.668    0.400
         5 -11.8321    198.3691     23.2059   4.7296369623e+01   3.2636896129e+01    0.5329948    0.3718971  -3.49  0.001881515    1.938    0.484
         6 -13.8715    209.8440      8.4877   4.2043512647e+01   3.1385170195e+01     1.156571     1.074002  41.29  0.004372167    1.278    0.218
         7 -10.6029    243.7397      1.7118   3.7536077606e+01   2.4037542380e+01     0.439141     0.128863  73.95  0.001723795    3.217    0.689
         8 -11.3980     58.0150    214.4350   1.2082262943e+02   2.3444606131e+01    0.2323593    0.1492047  61.22 0.0005731409    1.267    0.210
         9 -12.8776    247.2673    245.1625   8.9609648754e+01  -1.0513007217e+01    0.9338436    0.6424747  -4.65  0.006590939    1.347    0.258
        10 -18.0450     36.2122    240.8600   1.2651964419e+02   2.1181780971e+01     6.525553     5.532542  53.07   0.04928054    1.434    0.303
        11 -11.3097     61.1850    203.8560   1.1927548194e+02   2.5137427415e+01    0.2061966    0.1682036  70.02 0.0005734162    1.063    0.059
        12  -9.1431     87.3553    202.7851   1.1387726918e+02   2.1712165916e+01    0.2029273    0.1656635   5.50   0.00118977    1.990    0.497
        13 -10.3772    247.6651    200.5214   8.1909664283e+01  -5.3655647206e+00    0.2474277    0.1122443  44.59  0.001182854    2.349    0.574
        14 -10.8339    204.0531    199.6019   8.9622273540e+01   2.0909099088e+00    0.2695233    0.1742275  20.46  0.001249099    1.652    0.395
        15 -10.8827    193.0678    195.2621   9.0960139496e+01   4.7526938889e+00    0.8552251    0.4549646 -62.50  0.002886961    5.042    0.802
        16 -11.3710    151.0166    196.2901   9.9669668986e+01   1.2313241185e+01    0.3568432    0.3183715  57.00   0.00196616    1.089    0.081
        17  -9.8828     80.1944    194.4683   1.1441367132e+02   2.4462463594e+01    0.4624566    0.1958256  54.69  0.001603872    2.344    0.573
        18 -11.5556     63.7647    195.7547   1.1797209702e+02   2.6463429675e+01    0.3460168    0.2205692 -47.42  0.001306176    2.180    0.541
        19  -8.8043    159.4884    194.5339   9.7616891900e+01   1.1080126584e+01    0.1373195     0.122041  41.43 0.0007175384    1.002    0.002
        20  -9.9497    156.5365    190.0675   9.7473902288e+01   1.2446719232e+01    0.1900244    0.1382835 -47.90  0.000390667    1.527    0.345
        21 -11.0648    150.6208    187.9703   9.8367403699e+01   1.3943299862e+01    0.3371217    0.2138387 -70.96  0.001531065    2.316    0.568
        22  -9.5774    238.3189    185.3298   8.0634799995e+01  -1.7758612491e+00    0.1371197    0.0896709   6.30 0.0003762474    1.687    0.407
        23  -9.5746    153.3251    183.9795   9.7097854425e+01   1.4197954700e+01     0.219188    0.1159462 -70.90 0.0007050276    4.397    0.773
        24 -10.9992     99.2341    180.9686   1.0853656448e+02   2.4412378095e+01    0.2954917    0.2752526 -60.34 0.0008496305    1.242    0.195
        25 -11.6030    145.3368    181.4067   9.8373370160e+01   1.6203641007e+01     0.364125    0.3257414  77.36  0.001453364    1.179    0.152
        26 -11.8583    142.0302    176.0516   9.8155471114e+01   1.7897225263e+01    0.4259162    0.3595212 -85.24  0.001624625    1.338    0.253
        27 -10.0755    189.1977    178.2970   8.8540109115e+01   8.3362778546e+00    0.3808933    0.3070846 -85.37  0.001186984    1.857    0.461
        28 -10.0178    187.9553    173.4431   8.7834044870e+01   9.4350790925e+00    0.3530244     0.228044 -58.57  0.001608243    2.141    0.533
        29  -9.6541    184.7086    212.9978   9.5636270903e+01   3.4429080133e+00    0.1799545    0.1651748  23.96  0.001178991    1.098    0.089
        30 -11.2092     39.6546    212.9910   1.2414482798e+02   2.5949446424e+01    0.2227441    0.1174324  54.46   0.00130873    1.544    0.352
        31 -10.0518     75.4779    247.8071   1.2035693308e+02   1.5096861162e+01    0.3185575   0.08174202 -60.58  0.001411325    4.264    0.765
        32  -9.6548    240.4654    169.4298   7.7067490959e+01   1.7410758483e-01    0.1333299    0.1151475   1.06 8.692212e-05    1.011    0.011
        33  -9.2013    187.1926    165.6257   8.6401440291e+01   1.0997889356e+01    0.2663026    0.1809829 -52.14  0.001269523    1.722    0.419
        34 -19.1425     22.0519    103.6703   1.1698429959e+02   5.1936102455e+01     16.26173    0.8076281 -68.24   0.02771265   15.270    0.935
        35 -11.0309     92.8895    157.8616   1.0648235788e+02   3.0565990934e+01    0.2684032    0.2249386 -68.17 0.0004263666    1.156    0.135
        36  -9.0228    149.2182    156.0330   9.2692706240e+01   2.0617941716e+01      0.24788    0.1736746 -81.05  0.001071907    2.095    0.523
        37 -11.9527     98.2866    151.2910   1.0403377511e+02   3.1193731932e+01    0.5891157    0.4421326 -33.76  0.002984533    1.726    0.420
        38 -10.9366    133.8857    145.8523   9.4190426205e+01   2.5887177673e+01     1.227988    0.3211057 -55.25  0.003002613    5.668    0.824
        39  -9.8108    113.4914    151.3513   1.0027820722e+02   2.8535547982e+01    0.3242579    0.2189354  83.04  0.001285963    2.005    0.501
        40  -9.4788    174.5702    149.0385   8.5521398878e+01   1.6767354996e+01    0.2855048    0.2109768  61.78 0.0007673713    1.566    0.361
        41 -10.1327    143.6811    145.6438   9.1798797314e+01   2.3953366989e+01    0.5233799    0.1818486 -56.45  0.001466942    4.310    0.768
        42 -11.7130     52.8587    209.3536   1.2138158602e+02   2.5090747549e+01    0.1920698    0.1442285  76.55 0.0003090128    1.063    0.059
        43 -11.5612    109.1754    138.4769   9.8831937360e+01   3.2264727094e+01    0.6629249     0.460655 -49.57  0.003217786    1.441    0.306
        44 -11.8228     97.5801    137.2114   1.0158991632e+02   3.4588887057e+01    0.3032444    0.2715386 -72.59 0.0003824166    1.054    0.051
        45 -10.9418    106.0065    130.8177   9.8060656043e+01   3.4613849413e+01    0.3899831    0.3316349 -77.39  0.001116692    1.191    0.160
        46 -10.0407    136.1184    128.5127   8.9778178266e+01   2.9266970156e+01    0.5278531    0.1480471 -46.15  0.001534178    3.568    0.720
        47 -10.5264    134.8944    120.7389   8.8214348943e+01   3.1243393028e+01    0.6554105    0.1159075 -47.99  0.001466282    5.889    0.830
        48 -10.2311    115.6859    128.7847   9.5067616327e+01   3.3291435043e+01    0.3090923     0.280333 -17.16 0.0007231181    1.282    0.220
        49  -9.8523    161.6070    128.5248   8.3665488384e+01   2.3754496538e+01    0.4709619    0.3205836  75.07  0.001906805    2.186    0.543
        50 -10.5686    103.5022    124.6008   9.7380745989e+01   3.6512614959e+01      0.28729    0.2489736  -9.12 0.0005394866    1.441    0.306
        51  -9.7924    120.1599    123.5620   9.2697607335e+01   3.3619625437e+01    0.3048742    0.1923749 -34.50 0.0008618712    1.896    0.472
        52  -9.3780    152.6039    119.6334   8.3576761290e+01   2.7628255630e+01    0.3114696    0.2328154 -61.18   0.00115126    1.510    0.338
        53  -9.8871     79.2440    120.5921   1.0325009716e+02   4.1454565455e+01    0.1876695     0.140354  20.04  0.000950677    1.699    0.411
        54  -9.4376    110.8889    118.1266   9.3889985744e+01   3.6654976612e+01     0.215488    0.2113491 -78.31 0.0003803421    1.032    0.031
        55  -9.9397    231.2187    113.7819   6.6204061002e+01   1.0937349078e+01    0.2663865    0.2515396  22.72 0.0007629957    1.109    0.098
        56  -9.5355    167.9728    112.6488   7.8215899134e+01   2.5566037601e+01    0.3463517    0.2619655 -84.92  0.001506997    1.837    0.456
        57 -11.1953    119.1950    110.5162   8.9759920331e+01   3.6766538299e+01    0.6007241    0.3947509  63.61  0.002550427    1.943    0.485
        58  -9.7733    205.3725    110.1012   6.9855974555e+01   1.7327622187e+01    0.3262398    0.2281189  44.36  0.001001401    1.481    0.325
        59 -10.2495    134.5658    105.2606   8.4311455479e+01   3.4700189083e+01    0.4723273    0.1500859 -45.76  0.001431995    3.117    0.679
        60 -11.0775     71.9113    245.1400   1.2076662819e+02   1.6023936594e+01     0.215064    0.1624604 -73.90  0.001024754    1.503    0.335
        61  -9.6403    186.4435     86.2499   6.7152245427e+01   2.6178176454e+01    0.3003157    0.2956778  79.19  0.001321404    1.029    0.028
        62  -9.1971    227.9928    231.9953   9.0787097575e+01  -6.2511134612e+00    0.1451184    0.1150616  14.25 0.0006658309    1.048    0.045
        63  -9.1488    167.7109    230.9971   1.0161565212e+02   3.6086348538e+00    0.2275981    0.1680963   6.90  0.001052897    1.746    0.427
        64 -11.4224     47.7623    205.7513   1.2206529996e+02   2.6431066095e+01    0.3644419    0.1535159  50.77  0.001399021    1.992    0.498
        65 -10.6227     62.0951    220.1465   1.2053283431e+02   2.1820843222e+01    0.1750595    0.1344374  76.33 0.0009875258    1.077    0.071
        66 -11.4039     70.7822    207.0694   1.1767764625e+02   2.3213858993e+01    0.4745677     0.284122  24.43  0.002430539    2.583    0.613
        67  -8.3887    224.2614    206.6613   8.7142850082e+01  -2.4038576871e+00    0.1073532    0.1025924 -81.75  0.000264141    1.586    0.369
