#   1 NUMBER                 Running object number                                     
#   2 MAG_AUTO               Kron-like elliptical aperture magnitude                    [mag]
#   3 X_IMAGE                Object position along x                                    [pixel]
#   4 Y_IMAGE                Object position along y                                    [pixel]
#   5 X_WORLD                Barycenter position along world x axis                     [deg]
#   6 Y_WORLD                Barycenter position along world y axis                     [deg]
#   7 A_WORLD                Profile RMS along major axis (world units)                 [deg]
#   8 B_WORLD                Profile RMS along minor axis (world units)                 [deg]
#   9 THETA_WORLD            Position angle (CCW/world-x)                               [deg]
#  10 FWHM_WORLD             FWHM assuming a gaussian core                              [deg]
#  11 ELONGATION             A_IMAGE/B_IMAGE                                           
#  12 ELLIPTICITY            1 - B_IMAGE/A_IMAGE                                       
         1 -13.3119    212.9223     40.9279   4.3378081075e+01   2.7139155207e+01     1.251268     1.030508 -49.54  0.006243093    1.144    0.126
         2 -13.5357    232.2200     24.5507   3.7470263120e+01   2.4816113946e+01    0.8697703    0.7887249  58.09  0.002606305    1.317    0.241
         3 -12.6624      3.6321     17.9025   9.7038068918e+01   7.1411316464e+01    0.7236623    0.1939776 -46.86  0.003365282    2.603    0.616
         4 -10.7392     64.8913    242.5400   1.1687951354e+02   1.6029688679e+01    0.2239008    0.1535438  85.77   0.00145755    1.444    0.307
         5 -12.8271    138.5890    248.8076   1.0315936944e+02   4.4362736378e+00     1.000166    0.2558691  41.07  0.003813398    3.099    0.677
         6 -12.8056    105.3534    245.9323   1.0937658738e+02   9.8779445205e+00    0.6689103     0.295746  37.98  0.003344742    1.894    0.472
         7 -10.3831     86.3672    217.5267   1.1014383767e+02   1.7989531662e+01     0.395742    0.2008518  84.24  0.001556304    3.557    0.719
         8  -9.5595     65.3372    216.6515   1.1448582516e+02   2.1037410337e+01    0.1367133   0.07803454  65.52 0.0007047022    1.784    0.439
         9 -10.8616     56.9524    211.7321   1.1576827474e+02   2.3125493438e+01     0.303232    0.1776938  52.94  0.001491207    1.514    0.339
        10 -11.6881     43.6905    185.1272   1.1607891503e+02   3.0536922619e+01    0.2687415    0.2423172 -54.56 0.0004650446    1.323    0.244
        11 -11.9018     51.4883    178.1941   1.1351318381e+02   3.1238743292e+01     0.383656      0.30267 -27.80 0.0005019506    1.762    0.433
        12 -14.3817      4.1449    243.9702   1.2776858890e+02   2.2475835711e+01     2.462604     1.328978 -78.03     0.017021    1.717    0.418
        13 -10.6227     64.7161    167.0247   1.0884130033e+02   3.2238369333e+01    0.2325564    0.2144437 -78.33 0.0003473429    1.072    0.067
        14 -13.0759     49.8107    164.0072   1.1221709439e+02   3.4789189398e+01    0.5135399    0.2978297 -41.10  0.001416324    2.205    0.547
        15 -11.7738     73.7204    159.6733   1.0542255360e+02   3.2794862826e+01    0.5906301    0.5187492 -24.77  0.003382356    1.373    0.272
        16 -13.2431     10.5225    213.6925   1.2517109712e+02   2.7719720202e+01    0.3629798    0.3431836 -73.83 0.0007524429    1.441    0.306
        17  -9.9757     89.4518    146.2082   9.8826809983e+01   3.3730915869e+01    0.2756976    0.2659265  76.25 0.0008018403    1.045    0.043
        18 -11.8595     67.7476    143.2639   1.0434115210e+02   3.7625969664e+01    0.6693543    0.4249403  63.37  0.002413105    1.939    0.484
        19 -11.7844     77.1872    143.9639   1.0181808876e+02   3.6138603351e+01    0.3184302    0.2485635 -55.44  0.000647326    1.211    0.174
        20  -9.0363     93.5470    142.2942   9.6922785390e+01   3.4024213648e+01    0.1968991    0.1350409 -46.11 0.0004624888    1.452    0.311
        21 -10.0272    105.1032    132.3398   9.1553790718e+01   3.4448227114e+01     0.482487    0.3262863 -16.98  0.001797563    2.201    0.546
        22  -8.9444    192.9463    129.7750   6.9273690155e+01   1.6842193585e+01     0.198684    0.1922888  19.02 0.0003139155    1.073    0.068
        23 -10.2692     90.6508    129.6680   9.5105974573e+01   3.7567544542e+01    0.2464449    0.2344292 -70.20 0.0003631024    1.045    0.043
        24 -10.6508    245.5090    125.5161   5.8855138156e+01   7.0576139118e+00    0.2675885     0.106405 -44.63  0.001044428    2.466    0.595
        25  -8.8218    103.0836    120.7412   8.9418331565e+01   3.7572198004e+01    0.1960101    0.1865299  22.23 0.0002724811    1.088    0.081
        26 -13.6757     28.5991    198.3607   1.2056060165e+02   2.9198795332e+01     1.136308    0.9983842  57.50  0.007412798    1.219    0.180
        27  -9.7246    241.6476    101.6716   5.4051194692e+01   1.1717163885e+01    0.1391291    0.1046294   5.21 0.0007047308    1.770    0.435
        28  -9.3270    164.7888     82.5363   6.2733694697e+01   3.2295972441e+01    0.2159189    0.1507289  67.75 0.0009458669    1.680    0.405
        29 -14.4612     15.5345    208.1498   1.2388407600e+02   2.8394340841e+01     1.144341    0.6430315  53.31  0.003196315    1.530    0.346
        30 -10.7847    106.2919    230.1360   1.0741791822e+02   1.2598311187e+01    0.4104431   0.08486851  34.92  0.001203886    5.065    0.803
        31 -12.1142     82.7534    249.5455   1.1409457417e+02   1.2413331005e+01    0.6504664    0.1547089  43.27  0.002647313    3.060    0.673
        32 -11.1719     83.0270    224.8592   1.1164419334e+02   1.6993548732e+01    0.3597607    0.1660747  33.35  0.001708767    2.162    0.538
        33 -15.4051      6.8051    144.3705   1.2097291984e+02   4.3424508900e+01     13.21647     2.826299 -81.60   0.03239956    7.976    0.875
