#   1 NUMBER                 Running object number                                     
#   2 MAG_AUTO               Kron-like elliptical aperture magnitude                    [mag]
#   3 X_IMAGE                Object position along x                                    [pixel]
#   4 Y_IMAGE                Object position along y                                    [pixel]
#   5 X_WORLD                Barycenter position along world x axis                     [deg]
#   6 Y_WORLD                Barycenter position along world y axis                     [deg]
#   7 A_WORLD                Profile RMS along major axis (world units)                 [deg]
#   8 B_WORLD                Profile RMS along minor axis (world units)                 [deg]
#   9 THETA_WORLD            Position angle (CCW/world-x)                               [deg]
#  10 FWHM_WORLD             FWHM assuming a gaussian core                              [deg]
#  11 ELONGATION             A_IMAGE/B_IMAGE                                           
#  12 ELLIPTICITY            1 - B_IMAGE/A_IMAGE                                       
         1 -15.2392    190.0213     21.5710   6.8718866332e+01   3.5298536899e+01      4.49935     2.248641 -33.64  0.009524344    1.954    0.488
         2 -14.6008    217.9128     37.1381   6.9641037099e+01   2.6265953135e+01     1.685815     1.097806  70.91   0.00435196    1.537    0.349
         3 -15.7228    246.3586     75.0643   7.5817332482e+01   1.4144788945e+01     3.964414    0.7063152 -34.73   0.01127433    4.320    0.769
         4 -16.9838    186.8393     74.2708   8.4742330886e+01   2.8562177514e+01     5.882916     3.032604  41.29   0.02226004    2.319    0.569
         5 -14.7514    213.2727     45.9016   7.2589726043e+01   2.6241092796e+01     1.350481    0.7014984  85.70  0.005214153    2.631    0.620
         6 -18.6612    218.0835     91.3557   8.4016951549e+01   1.8038691882e+01      8.61194     6.689418  -8.56   0.04051141    1.525    0.344
         7 -15.7579    215.1060     55.2645   7.4885287633e+01   2.4448492341e+01     4.001266     1.982007 -86.27   0.01251836    4.154    0.759
         8 -11.9228    250.1902     24.6907   6.3234332735e+01   2.0145560968e+01    0.4201928    0.2182586 -33.18  0.001315321    1.764    0.433
         9 -12.3739    240.2123     23.3763   6.3798872314e+01   2.2600251636e+01     0.480135    0.2433852 -53.55  0.002250931    1.854    0.461
        10 -12.6767    225.2814     23.6182   6.5283517967e+01   2.6141815231e+01    0.5485778    0.4849741 -68.76  0.002698646    1.003    0.003
        11 -10.7974    247.6025     15.3913   6.1266371787e+01   2.1827892980e+01    0.3400434    0.2019712 -36.48  0.001211348    1.528    0.346
        12  -9.9314    122.0326     15.5011   7.7978353597e+01   5.3258667480e+01    0.3363087    0.1614996 -35.80  0.001466081    2.170    0.539
        13 -11.7762    238.1749     10.3899   6.0832594198e+01   2.4569464724e+01    0.3955381    0.2445673  68.90  0.001893163    1.607    0.378
        14 -10.3671    142.9225      8.1535   7.1235443102e+01   4.8859317626e+01    0.2108206    0.1988872 -10.75  0.000333968    1.140    0.123
        15  -9.6563    117.1184      7.6773   7.5913235469e+01   5.5202170212e+01    0.2176997     0.173252 -30.90 0.0006439428    1.352    0.260
        16  -9.9979    209.9842      6.3783   6.2260023519e+01   3.1843238356e+01    0.1833842     0.180705  78.16 0.0003894301    1.180    0.153
        17 -10.3020    151.1675      2.9642   6.8124361904e+01   4.7236851666e+01    0.3273966     0.190974 -29.51  0.001146729    1.804    0.446
        18  -9.9325    180.4469      1.8847   6.4019566943e+01   3.9803111472e+01    0.2259095    0.1922613 -12.36  0.001319931    1.358    0.264
        19 -11.5429    166.3665      2.2951   6.5828224787e+01   4.3397496123e+01    0.2851968    0.2339555  63.61  0.001126655    1.120    0.107
        20  -9.2672     26.4850      3.5440   1.0475041430e+02   7.2061273072e+01    0.1152467   0.08708411 -13.21 3.607615e-05    1.025    0.025
        21 -10.8814     63.1923    219.8611   1.4029808527e+02   2.2610740265e+01    0.2999431    0.1480647  58.08 0.0006943559    1.693    0.409
        22 -10.6651    228.9526    250.4972   1.1442009538e+02  -7.5234724680e+00    0.2500732   0.08660845  40.14  0.001249977    2.303    0.566
        23  -9.3593    222.4802    250.4999   1.1547953323e+02  -6.5804281952e+00    0.1125331   0.08519907  26.26 0.0008102916    1.019    0.018
        24  -9.3716    192.0199    250.6299   1.2059516089e+02  -1.9879883655e+00    0.1674671   0.08623926  40.76 -0.0001541599    1.509    0.337
        25  -9.8882    165.3288    249.5497   1.2504062328e+02   2.3317874150e+00    0.2028883    0.1361247  54.17  0.000659574    1.420    0.296
        26  -9.4828    125.1183    250.1648   1.3209012813e+02   8.5161247000e+00     0.159643    0.1094384  61.18 0.0006763907    1.305    0.234
        27 -10.6992     59.4111    215.1305   1.4060058361e+02   2.3996483132e+01     0.364111    0.1715108  54.30  0.002035429    1.746    0.427
        28  -9.1155     78.6829    218.6868   1.3733152663e+02   2.0725968028e+01   0.09925103   0.09537795 -14.53 0.0004277501    1.645    0.392
        29 -10.4639    124.3871    215.9063   1.2831710331e+02   1.4219242165e+01    0.2275782    0.2067813  36.83 0.0007849763    1.267    0.210
        30 -10.3338    203.3084    214.6413   1.1327017780e+02   8.6050251139e-01     0.176808     0.165294 -59.52  0.001205441    1.426    0.299
        31 -10.6996    202.9027    210.4962   1.1265631601e+02   1.5127267837e+00    0.3030596    0.2177693  -3.80 0.0007894363    1.658    0.397
        32 -10.4354      3.4730    214.1567   1.5043046105e+02   3.0363704206e+01    0.1995763    0.1334704  40.03 0.0002428095    1.717    0.418
        33  -9.8779     89.9848    211.3069   1.3443762806e+02   2.0481212610e+01    0.1701982    0.1317526  58.82 0.0003376079    1.081    0.075
        34  -9.2990    232.3567    210.2146   1.0742681741e+02  -3.3804231174e+00    0.1536449    0.1089717 -37.78 0.0008702994    1.661    0.398
        35 -10.4629    157.8544    209.9468   1.2101949088e+02   9.5163565165e+00    0.2187529    0.1604997  43.19            0    1.171    0.146
        36 -10.0975    237.7825    207.4649   1.0602481962e+02  -3.9062204379e+00    0.2900986    0.2023002  -1.86  0.001772964    1.444    0.308
        37 -10.5246     96.9544    208.8729   1.3280944888e+02   1.9891741128e+01     0.186229    0.1574265  81.56 0.0003083351    1.113    0.101
        38  -8.9835     34.0049    209.0165   1.4480457546e+02   2.8233938759e+01    0.1353269   0.09866575  72.96 0.0003273972    1.016    0.016
        39  -9.4549     86.7724    208.0149   1.3470936467e+02   2.1588195495e+01    0.1708901    0.1217191  70.79 0.0003074139    1.233    0.189
        40 -10.0463     89.9274    206.3053   1.3390283478e+02   2.1450738874e+01    0.1987565    0.1610775  50.83 0.0003712247    1.206    0.171
        41  -9.6069    210.4408    204.5029   1.1027122330e+02   1.0605053759e+00    0.1908077    0.1193681 -34.73 8.256872e-05    1.751    0.429
        42  -9.4523    210.1429    201.1633   1.0973887640e+02   1.5899521295e+00    0.1608239    0.1411353  48.35            0    1.284    0.221
        43  -9.7944    250.6607    202.5288   1.0300224350e+02  -5.3311417345e+00    0.1810157    0.1031086 -29.37 0.0006282849    1.746    0.427
        44 -10.9006    191.1428    201.5780   1.1331465611e+02   4.9069850477e+00     0.330873    0.2334528  65.33   0.00123599    1.950    0.487
        45 -10.6160    156.9240    202.1354   1.2000216691e+02   1.1006442775e+01    0.2082652    0.1662787  63.92  0.001226551    1.305    0.234
        46  -9.4206     85.8131    202.1605   1.3425876799e+02   2.2875068744e+01    0.1504159    0.1417872  65.89 0.0004057386    1.294    0.227
        47  -9.3546    245.0220    201.5350   1.0375074899e+02  -4.3182922805e+00     0.178193    0.1045116  34.96  0.001004225    1.538    0.350
        48  -9.2490     46.6598    201.6931   1.4189380827e+02   2.8216140869e+01    0.1007276   0.08865376 -51.25 0.0007042433    1.684    0.406
        49 -11.5405    214.4476    197.3172   1.0827437909e+02   1.3885796138e+00    0.3792379    0.3395944 -74.35    0.0016926    1.616    0.381
        50  -9.4162     36.8520    199.5954   1.4360021640e+02   2.9778296518e+01    0.1531782   0.08182356  54.46 0.0002428593    1.567    0.362
        51 -11.3923    149.1642    196.1962   1.2061290400e+02   1.3459189815e+01    0.2864132    0.2669911 -39.88 0.0005194934    1.245    0.197
        52 -10.0701    132.1409    246.9226   1.3052515858e+02   7.9208292248e+00    0.2003411    0.1285936  48.75 0.0003118297    1.206    0.171
        53  -9.3472    161.9611    246.0309   1.2519227507e+02   3.3435540428e+00    0.1402131    0.1119095  43.32 0.0003428643    1.022    0.022
        54  -9.9113    223.4452    245.4816   1.1459048275e+02  -6.1773825614e+00    0.1622598    0.1062944 -26.47 0.0007607854    1.749    0.428
        55 -11.1644    225.9248    241.5048   1.1358727650e+02  -6.1072460582e+00    0.2435511    0.1727873  33.94 0.0003778619    1.171    0.146
        56 -10.7939    215.0441    244.4066   1.1583321211e+02  -4.7935762489e+00    0.2389452    0.1713082  37.00  0.000483888    1.179    0.152
        57 -15.5445    232.4665     79.0339   7.8675805967e+01   1.6676319528e+01     1.298161    0.9466769 -25.52  0.003476392    1.387    0.279
        58 -10.1920     65.8471    242.4489   1.4158799346e+02   1.8228134508e+01    0.1829851    0.1315905  86.18 0.0004179697    1.276    0.216
        59 -11.5261    129.3170    179.5974   1.2207399514e+02   2.0246954769e+01    0.2952271    0.2092174  75.21  0.001124528    1.644    0.392
        60 -10.1000     33.3871    178.2595   1.4257434502e+02   3.4586919883e+01    0.3641584    0.1183714 -75.63   0.00159787    2.760    0.638
        61 -11.4706    221.3748    177.4697   1.0326984285e+02   3.0794028050e+00    0.4070935    0.3060674  -5.38  0.002288277    1.408    0.290
        62 -10.8124    141.0255    192.6967   1.2171588221e+02   1.5577331798e+01    0.2536522    0.2125458  75.06 0.0009376064    1.236    0.191
        63 -10.2447    236.1497    177.4883   1.0068453139e+02   4.0789829810e-01    0.2131007    0.1784714 -29.97 0.0006252177    1.258    0.205
        64 -10.5451    122.9582    175.6706   1.2281125181e+02   2.2194993854e+01    0.1984215    0.1681509  61.00 0.0007467541    1.074    0.069
        65 -10.0910    247.2727    173.9969   9.8118943054e+01  -1.0403768044e+00     0.199153    0.1629857  20.26 0.0002826369    1.129    0.114
        66 -11.4803    140.8578    172.3666   1.1834163739e+02   1.9558368285e+01    0.2951365    0.2492715  46.44 0.0009211062    1.123    0.109
        67  -9.8831    233.7144    172.1048   1.0002558988e+02   1.6260373729e+00    0.2188315    0.1847852  52.37  0.001310449    1.418    0.295
        68  -9.6061    249.4245    194.8102   1.0178641303e+02  -4.1717423585e+00     0.223749    0.1495873  35.58  0.001026508    1.405    0.288
        69  -9.6968     25.9796    172.3086   1.4361359376e+02   3.6630949393e+01    0.1589874    0.1249498  72.61 0.0003762057    1.116    0.104
        70  -9.7402     76.0028    195.2523   1.3547537739e+02   2.5685685793e+01    0.1691056    0.1343622  66.97  0.001091935    1.052    0.050
        71 -11.0043    229.6873    164.9135   9.9251695109e+01   3.4481072600e+00    0.2953812    0.2081541  27.62 0.0005206699    1.420    0.296
        72 -10.8008    234.3225    163.8210   9.8221898237e+01   2.7500474000e+00    0.4474127    0.2036591  49.49  0.001557146    2.392    0.582
        73  -9.1480     96.0182    166.0155   1.2731446809e+02   2.8876824253e+01    0.1622479    0.1422589  82.51 0.0003696712    1.012    0.012
        74  -9.3949     18.0400    166.2296   1.4479193629e+02   3.8706373827e+01    0.1300378   0.09068672  41.01 0.0003090586    1.603    0.376
        75 -10.7250    211.1643    166.0937   1.0283338394e+02   6.8101235624e+00    0.2302978    0.2023029  53.40 0.0004761041    1.267    0.211
        76  -9.5781     56.1793    164.9790   1.3628747693e+02   3.4847670555e+01    0.2169365    0.1214563  80.43  0.000939612    1.936    0.483
        77 -10.3938    128.6752    164.0075   1.1953009889e+02   2.3583485562e+01    0.2644635    0.1853678  69.09 0.0007253598    1.614    0.380
        78 -13.1942    129.4856    157.1953   1.1808177299e+02   2.4877921574e+01    0.9974481    0.5709959  69.82  0.003855536    2.721    0.632
        79 -10.5271    120.9895    162.4933   1.2100193882e+02   2.5329651779e+01    0.2142089    0.1335668  43.81  0.001020013    1.554    0.357
        80 -11.3092    226.5300    190.3045   1.0483129140e+02   2.7206682017e-01    0.3963459    0.2016269 -41.89  0.001917221    2.236    0.553
        81 -10.1514     16.1049    156.3240   1.4440013587e+02   4.1043594730e+01     0.214397    0.1291466 -71.00  0.001337833    1.403    0.287
        82  -9.7604    129.8708    192.3044   1.2395502687e+02   1.7643786542e+01    0.2068127    0.1687647 -88.56  0.000353355    1.311    0.237
        83 -10.0774     77.0584    154.3521   1.2998256363e+02   3.4423126622e+01    0.2384656    0.1718576 -78.83 0.0001424879    1.292    0.226
        84 -14.9017    222.4451     75.4621   7.9207087088e+01   1.9584193217e+01    0.6890156    0.5022146 -48.36  0.001648963    1.313    0.239
        85  -8.9688      8.0025    153.0357   1.4592091676e+02   4.2445782341e+01    0.1325797    0.1013179  85.49 0.0009435051    1.047    0.045
        86 -10.9465    121.4263    150.4021   1.1865552194e+02   2.7878765706e+01     0.377212    0.2660826  81.01  0.001074423    1.768    0.435
        87 -11.1291    129.1534    149.9568   1.1675004606e+02   2.6501754336e+01    0.3910451    0.2166389  58.29  0.001504176    2.076    0.518
        88 -12.1813     11.2949    146.7093   1.4466142149e+02   4.3576635876e+01    0.3636345    0.2119268  78.24 0.0006871792    1.512    0.338
        89  -9.7917     48.2497    191.8306   1.4074107878e+02   3.0034423150e+01     0.280719    0.1306542 -61.18  0.001481107    2.188    0.543
        90 -11.6878    240.9948    146.3062   9.3354730324e+01   4.1643212424e+00    0.3470165    0.3229727  23.43 0.0005938555    1.133    0.117
        91  -9.1970     36.6666    147.3345   1.3876979506e+02   4.1091214473e+01    0.1334584   0.07798024  72.20 0.0007052216    1.735    0.424
        92  -9.9889     32.3865    135.7013   1.3843994304e+02   4.4196703564e+01    0.2428379    0.1544253 -65.81  0.001061326    1.342    0.255
        93  -9.4112      1.5925    133.2032   1.4577325788e+02   4.7304878779e+01    0.1674462   0.07852518 -68.25 0.0009460585    1.658    0.397
        94  -9.0078     41.6398    131.2510   1.3548154885e+02   4.4283846671e+01    0.1281636   0.08346493  68.51  0.000626081    1.611    0.379
        95 -11.1077    117.8843    190.1891   1.2613972418e+02   2.0140482781e+01    0.4272195    0.2477766 -69.11  0.001213633    2.009    0.502
        96 -11.4656    231.3365    187.8096   1.0352041675e+02  -2.1327306073e-01    0.3152903    0.2828288 -23.66 0.0008139678    1.234    0.189
        97 -10.3585    101.5439    124.9198   1.1839647189e+02   3.7288258577e+01    0.2467014    0.2093899  17.93 0.0006938201    1.487    0.327
        98 -10.0603     48.3772    123.7055   1.3255532339e+02   4.5310364589e+01    0.2520875    0.1593565 -53.66  0.001370133    1.505    0.336
        99 -10.0362     41.9512    126.4700   1.3471370562e+02   4.5368260075e+01    0.1627902    0.1256655  39.07 -3.658346e-05    1.494    0.331
       100 -11.7778     99.3449    117.7866   1.1739972265e+02   3.9322003581e+01     0.502676    0.3298613  51.84 9.170955e-05    1.619    0.382
       101 -11.6092    122.8037    117.7472   1.1120820197e+02   3.4884637950e+01    0.3739557    0.2942665  65.90  0.001174677    1.386    0.279
       102 -10.8401    166.3974    195.6187   1.1707545279e+02   1.0403519831e+01    0.2244751    0.2136963 -75.64 0.0008842335    1.188    0.159
       103 -10.3305     56.8538    116.4491   1.2895885144e+02   4.6015922596e+01    0.2430727    0.1632279 -60.29 0.0002997234    1.294    0.227
       104  -9.1645     11.3450    114.2812   1.4136461333e+02   5.0898935344e+01    0.1163639   0.07472543 -48.77   0.00070123    1.637    0.389
       105 -11.0227    112.6893    109.5452   1.1182710693e+02   3.8722749700e+01    0.3527536    0.2879905 -24.38  0.001141311    1.468    0.319
       106 -11.2697    137.0186    103.1213   1.0384237505e+02   3.5056914498e+01    0.2931458    0.2201902  26.57  0.001127465    1.629    0.386
       107 -11.9020    126.5294    109.2566   1.0812200358e+02   3.5993190688e+01    0.5994766    0.2979273  35.50  0.002208245    2.509    0.601
       108 -10.4285     29.2364    106.8041   1.3527358255e+02   5.1199789872e+01    0.2685372    0.1845035  69.03  0.001153257    1.620    0.383
       109  -9.7463     14.3375    242.3260   1.4992799289e+02   2.4252538689e+01   0.08336332   0.07259884 -74.56 0.0007051546    1.724    0.420
       110 -10.8420    100.0776    106.6774   1.1455818331e+02   4.1735569921e+01    0.3711978    0.2948076  19.61 0.0009183382    1.590    0.371
       111 -11.6177    143.3316    188.3430   1.2054345741e+02   1.5977319219e+01     0.371225    0.2160342 -68.22  0.001615224    2.377    0.579
       112 -11.6874    124.5435     90.3715   1.0345970338e+02   4.0457938246e+01    0.4418239     0.347494 -20.78  0.001395932    1.495    0.331
       113 -10.3728    107.6633     89.4334   1.0780561852e+02   4.4127684072e+01    0.2500449    0.1714499 -29.34 0.0005256782    1.694    0.410
       114  -9.6968    107.0254    190.4880   1.2846012389e+02   2.1902028373e+01    0.2019878    0.1173857  44.20  0.001028648    1.578    0.366
       115  -9.1189      3.2895     88.6630   1.4039888476e+02   5.7204640269e+01    0.1154166   0.07523256  79.02 0.0005964602    1.637    0.389
       116 -12.0013    115.9377     84.7488   1.0412260304e+02   4.3446382885e+01    0.3225223    0.2846348  58.02 0.0003156404    1.201    0.168
       117  -9.0126     32.3008     86.6764   1.3071413904e+02   5.5557274683e+01    0.1232761   0.08899578  82.09 0.0003476852    1.632    0.387
       118  -9.1733     49.0136     84.7746   1.2477066515e+02   5.4288227509e+01    0.1556187    0.1103658  30.40 0.0008756953    1.658    0.397
       119  -9.4478     58.6224     83.2152   1.2120860992e+02   5.3479496398e+01    0.1924572    0.1072116 -48.35 0.0003025128    1.572    0.364
       120 -10.7732    102.0163     78.7126   1.0625315512e+02   4.7485688020e+01    0.1982961      0.19233  26.33  0.000403019    1.086    0.079
       121 -11.4948    125.9624     77.4574   9.9194586737e+01   4.2764432808e+01     0.324693    0.2800456  26.07 0.0008720789    1.266    0.210
       122 -12.2059    131.4207     72.4624   9.6206950390e+01   4.2494231782e+01    0.4909102    0.3826458  65.60  0.001852502    1.435    0.303
       123  -9.3457     80.1873     75.2675   1.1192647355e+02   5.2086649305e+01    0.1853801    0.1587961 -72.41 0.0005891341    1.315    0.240
       124 -10.9650    105.0862     73.1488   1.0361086254e+02   4.8017878268e+01    0.2658162     0.209711 -55.79 0.0007391037    1.330    0.248
       125  -9.6288     49.1431     73.1787   1.2180288625e+02   5.6848002910e+01    0.1937647    0.1521061 -39.22 0.0002906978    1.186    0.157
       126  -8.8456     20.6818     72.7387   1.3179182709e+02   5.9631228949e+01    0.1197454   0.07545629 -39.70 0.0002137712    1.545    0.353
       127 -11.9602    135.6670     62.8063   9.2007768060e+01   4.3262229831e+01    0.3915408    0.3289224  29.60  0.001862368    1.275    0.216
       128 -11.0616    145.6961     68.4181   9.1449635329e+01   3.9864802521e+01    0.4003804    0.2809834 -15.94 0.0008821366    1.765    0.433
       129 -10.7614    119.5093     69.4244   9.8347342232e+01   4.5734924400e+01    0.3332495    0.2615333  75.28 0.0008488769    1.600    0.375
       130 -10.3572    102.3084     69.2762   1.0317426197e+02   4.9335040544e+01    0.2687587    0.1759724  33.88  0.001245292    1.709    0.415
       131 -10.8378    107.6025     66.2855   1.0063649049e+02   4.8851724055e+01    0.2473193    0.1757495 -30.91 0.0004880315    1.424    0.298
       132 -10.4431     75.2218    188.5489   1.3488798026e+02   2.7181850943e+01    0.3277336     0.179133 -62.68  0.001040483    1.825    0.452
       133 -12.7088    141.2288     68.3200   9.2467108411e+01   4.0958448224e+01    0.7088737    0.5073907 -63.03  0.002615269    1.713    0.416
       134  -9.1625    117.2537     63.9890   9.7155356557e+01   4.7242284697e+01    0.1892258    0.1242803 -38.32 0.0003222073    1.481    0.325
       135 -10.5350     13.0210     64.4980   1.3281113052e+02   6.1955927017e+01    0.1913323    0.1117805  27.25  0.001148436    2.113    0.527
       136 -10.3903    146.8746     62.5925   8.9306468030e+01   4.0595556081e+01    0.3237123    0.1875518 -51.53  0.001306865    1.973    0.493
       137 -10.2079    100.3330     62.1104   1.0136159915e+02   5.1103928908e+01    0.3622738    0.2193938 -66.19  0.001163237    2.899    0.655
       138 -11.0003    142.2674     60.6193   8.9716457370e+01   4.2056850562e+01    0.4177567    0.1872621 -31.60  0.001522729    2.358    0.576
       139 -10.9469    144.2842     56.0909   8.7753977447e+01   4.2320363981e+01    0.3443076    0.2498664  73.08  0.001473909    1.600    0.375
       140 -10.0825     18.3908     62.2642   1.3028298288e+02   6.2072283201e+01    0.1655435   0.09787437 -69.90 0.0005370146    1.589    0.371
       141 -10.8261     88.3838     57.1923   1.0335563542e+02   5.4290641727e+01    0.2584014    0.2321872  84.80 0.0006365546    1.409    0.290
       142  -9.6787     49.0284     58.0011   1.1742575228e+02   6.0068062331e+01     0.151206    0.1350791 -30.76 0.0003326215    1.075    0.070
       143  -9.5185      1.9933     58.2341   1.3566515710e+02   6.3919303062e+01    0.1214946   0.09582432   6.05 0.0008743841    1.610    0.379
       144 -11.5583    126.7454     55.9950   9.1919414589e+01   4.6524609866e+01    0.3308257    0.2545189 -23.42  0.001455779    1.356    0.263
       145 -10.5958    139.0848     52.7041   8.7798840561e+01   4.4140489098e+01     0.242228     0.192331  81.04   0.00118015    1.490    0.329
       146  -9.8483    106.3122     51.9220   9.5998775170e+01   5.1725273681e+01    0.2060367    0.1798435 -24.59 0.0004989383    1.105    0.095
       147  -9.8442     24.2310     51.2109   1.2508490194e+02   6.3941840318e+01    0.1501051    0.1307812 -75.47 0.0004284029    1.337    0.252
       148 -11.5094    123.3191     48.6068   9.0188044830e+01   4.8532268781e+01    0.3592263    0.2624762  69.39  0.001727163    1.631    0.387
       149 -10.2297    140.4767     46.5081   8.5354658742e+01   4.4768096077e+01     0.248549    0.1474315 -16.55 0.0005437901    2.121    0.529
       150 -12.1168    155.9228    194.2733   1.1894196671e+02   1.2570464988e+01    0.5186423    0.2892331  51.46   0.00249954    1.709    0.415
       151 -11.9245    133.2338     47.8727   8.7494158052e+01   4.6317362077e+01    0.4020734    0.3669432  78.55 0.0005825903    1.189    0.159
       152 -10.6552    139.9842     41.6822   8.3783057706e+01   4.5604373397e+01    0.3897146    0.2547221  13.80  0.001492696    2.176    0.540
       153 -10.0815    126.6328     40.1355   8.6294198884e+01   4.9055145631e+01    0.2951062    0.1936953  46.82 0.0008222316    1.484    0.326
       154 -10.9756    243.3914     37.4648   6.6932158012e+01   2.0101280962e+01    0.4183409    0.3255171  32.31  0.001873407    1.718    0.418
       155 -11.0976    143.7881    195.0573   1.2152211131e+02   1.4639937902e+01    0.2745797    0.1982594 -63.67 0.0009580476    1.591    0.372
       156 -11.4569    140.9839     30.0589   7.9455898603e+01   4.6935267713e+01    0.2689896    0.2340448  21.85  0.001474153    1.203    0.169
       157 -11.3820    147.3028     37.0597   8.0634951362e+01   4.4427448321e+01    0.4690643    0.3193582  83.98  0.002125495    1.837    0.456
       158 -11.1626    141.4413     34.7478   8.1028546546e+01   4.6209447547e+01    0.3835954    0.2632036  50.92 0.0008918039    1.393    0.282
       159  -9.8670    105.5405     37.0843   9.0616789544e+01   5.4263690535e+01    0.2025495    0.1335016 -31.08 0.0003475072    1.491    0.329
       160  -9.5436    123.5023     34.4433   8.4935294768e+01   5.0599271431e+01    0.1448553     0.131987  24.83 5.086073e-05    1.067    0.063
       161  -9.8760    127.0172    238.3065   1.3048679419e+02   1.0047153357e+01    0.1813285    0.1634728  11.27 0.0007206333    1.522    0.343
       162 -10.1118    248.9785     33.0887   6.5332912868e+01   1.9381609579e+01     0.215336    0.1784671 -83.91 0.0007176002    1.173    0.147
       163  -9.7614    245.4874     29.5897   6.4819208087e+01   2.0618019828e+01    0.3662952     0.174684 -38.12  0.001277541    1.809    0.447
       164 -11.0634    132.6943     31.2233   8.1627318926e+01   4.8830340868e+01     0.331083    0.2485664 -16.66  0.001135349    1.421    0.296
       165 -10.4151    151.1631     32.2842   7.8235489541e+01   4.4081965972e+01    0.4643859    0.2665527 -60.80  0.001865061    2.418    0.586
       166  -9.4962    128.4743    188.4876   1.2366426357e+02   1.8631628436e+01    0.1349478    0.1195112  61.23 -7.429305e-07    1.011    0.011
       167 -10.4421     21.6661     30.9418   1.1955198134e+02   6.8096840130e+01    0.1779869    0.1565879  -7.85 0.0002622055    1.228    0.186
       168  -9.6787    187.9455    236.5164   1.1935652871e+02   4.4330112663e-01    0.1614579    0.1416928  29.40 0.0003562084    1.107    0.097
       169 -10.3401    236.4930    234.6168   1.1077811549e+02  -6.9178563673e+00    0.2233853    0.1545058  21.70 0.0007193183    1.175    0.149
       170  -9.4050     99.1652     25.8394   8.7870591525e+01   5.7189677549e+01    0.1902972      0.14743  15.67 0.0003951615    1.318    0.241
       171  -9.6265    236.5110    187.0686   1.0248831136e+02  -1.0029720465e+00    0.1797425     0.117942 -27.89 0.0005041996    1.510    0.338
       172 -10.7698    128.6810     23.5269   7.9633190206e+01   5.0761881108e+01    0.2955334    0.1956613 -61.98  0.001358468    2.054    0.513
       173  -9.1058     20.3178    186.3254   1.4581953432e+02   3.4234456112e+01    0.1027575   0.07798309 -58.76 0.0007045073    1.674    0.403
       174  -9.7493    123.9893     24.0599   8.0871812739e+01   5.1823566641e+01    0.2318982    0.1547647  27.25 0.0005737381    1.671    0.402
       175  -9.9080    210.2529     22.0073   6.6439692729e+01   3.0065051832e+01    0.4089744    0.2014329 -66.35  0.001470309    2.544    0.607
       176 -10.2395    142.1451     22.8759   7.6656703847e+01   4.7516142581e+01    0.3062286    0.1916707  67.42  0.001438276    1.601    0.375
       177  -9.1830     43.3718     23.1379   1.0652368354e+02   6.7136697591e+01    0.1644239     0.101443 -44.76 0.0006170956    1.632    0.387
       178  -9.4751     40.9811     19.5424   1.0592621043e+02   6.8001685361e+01    0.1850412    0.1289743 -31.22 0.0003339744    1.219    0.180
       179 -11.2258    165.9771     18.2895   7.1038912793e+01   4.1922027435e+01    0.2963604    0.2082298  -8.95  0.001425185    1.696    0.410
       180  -9.3011    176.7637    231.9769   1.2070309956e+02   2.8963344255e+00    0.1324985    0.1033897 -40.38 0.0004359982    1.568    0.362
       181 -10.0393    110.8424    184.2910   1.2677308247e+02   2.2527318547e+01    0.2258662    0.1756381 -82.89 0.0009681025    1.312    0.238
       182  -9.7524    153.9266    230.9946   1.2471345556e+02   6.8308313233e+00    0.1795213     0.147776  47.40 0.0003326197    1.022    0.021
       183  -9.2934     19.3039     17.6275   1.1530850769e+02   7.0637508409e+01    0.1013969   0.08764534 -69.73 0.0007031453    1.758    0.431
       184 -10.7669    172.6802    182.9317   1.1360566251e+02   1.1439387324e+01    0.1828224    0.1803976 -66.63 0.0008161693    1.118    0.106
       185  -9.7769     69.1231    230.3490   1.4009142550e+02   1.9906227645e+01    0.1666643    0.1350536  88.81  0.000468504    1.240    0.193
       186 -11.9188    156.7541    180.3137   1.1638727450e+02   1.4974973080e+01    0.4707031    0.2928925  70.95  0.002025256    2.454    0.593
       187  -9.7948    149.9529    226.8217   1.2489594936e+02   8.1384828957e+00    0.1848799    0.1517249  26.12 0.0008944659    1.338    0.253
       188 -11.9276    161.0516    176.8212   1.1486262221e+02   1.4802083586e+01    0.3761145    0.3192177  82.56   0.00141136    1.360    0.265
       189 -10.2065    127.7362    226.4753   1.2898566648e+02   1.1855857996e+01    0.2132122    0.1724174  64.93 0.0009706673    1.133    0.117
       190 -10.3021    204.2564    225.8946   1.1490062944e+02  -8.1891199855e-01    0.3066487    0.1476027  45.17   0.00126304    1.860    0.462
       191 -11.1216    238.2537    224.0440   1.0878014550e+02  -5.9845469749e+00    0.2380153    0.1737153  19.95 0.0004148514    1.120    0.107
       192 -10.7598    180.4793    223.0337   1.1873191495e+02   3.5529393981e+00    0.5071386    0.1473024  43.96  0.001990861    2.891    0.654
       193  -9.5700     93.7949    222.1252   1.3484586556e+02   1.7906727515e+01    0.1834008    0.1299498  65.86 0.0004416682    1.194    0.163
