#   1 NUMBER                 Running object number                                     
#   2 MAG_AUTO               Kron-like elliptical aperture magnitude                    [mag]
#   3 X_IMAGE                Object position along x                                    [pixel]
#   4 Y_IMAGE                Object position along y                                    [pixel]
#   5 X_WORLD                Barycenter position along world x axis                     [deg]
#   6 Y_WORLD                Barycenter position along world y axis                     [deg]
#   7 A_WORLD                Profile RMS along major axis (world units)                 [deg]
#   8 B_WORLD                Profile RMS along minor axis (world units)                 [deg]
#   9 THETA_WORLD            Position angle (CCW/world-x)                               [deg]
#  10 FWHM_WORLD             FWHM assuming a gaussian core                              [deg]
#  11 ELONGATION             A_IMAGE/B_IMAGE                                           
#  12 ELLIPTICITY            1 - B_IMAGE/A_IMAGE                                       
         1 -14.3732    194.7521     13.8424   6.9450351566e+01   3.4487179270e+01     2.724561     1.634271   9.12  0.009706854    2.084    0.520
         2 -13.9475    200.8487      7.0690   6.6762837121e+01   3.3606195675e+01     2.599388     1.232808  32.24  0.001462308    2.902    0.655
         3 -10.9866     32.5585      4.4395   1.0942934902e+02   7.2821308977e+01    0.5182142    0.1151005 -45.41  0.001602519    4.581    0.782
         4 -10.2322    162.9928    249.4890   1.2793527003e+02   7.0050792134e+00    0.1689808   0.07644452  34.35  0.001040185    1.612    0.380
         5 -11.7065    139.1866    249.6089   1.3202355002e+02   9.9291848507e+00    0.3526596    0.2076624 -37.85  0.002466321    2.312    0.567
         6 -12.4163    125.6917    248.9324   1.3429430562e+02   1.1651385409e+01    0.5585377     0.294268  19.39  0.003287111    2.369    0.578
         7 -11.1299     98.8739    249.3512   1.3898156026e+02   1.4747781481e+01    0.2718611    0.1623275  50.07  0.001357722    1.428    0.300
         8 -11.6710    102.8831    248.1444   1.3819286086e+02   1.4448178489e+01    0.2842788    0.1912578  36.84 0.0005347056    1.121    0.108
         9 -10.6913     88.7391    249.3073   1.4072950119e+02   1.5894743714e+01    0.2327156    0.1895602 -46.80  0.001979232    1.710    0.415
        10 -11.2095     83.5150    244.6625   1.4131406986e+02   1.7114345556e+01    0.4170993    0.1982805  61.62  0.002494527    2.513    0.602
        11 -11.0187     81.6062    248.6469   1.4191377528e+02   1.6769771901e+01    0.3009106    0.1565183  52.71  0.001012583    1.656    0.396
        12 -11.0302     77.4878    245.4898   1.4241917199e+02   1.7656846027e+01    0.1854885    0.1644811  79.79  0.001411597    1.315    0.239
        13 -11.4320     66.4673    249.8643   1.4457595497e+02   1.8208388357e+01    0.3230173     0.186846  33.73  0.002397711    1.436    0.304
        14 -11.5387     68.8597    244.1408   1.4383153370e+02   1.8769598478e+01    0.3192201    0.1794139  28.60  0.002215588    1.700    0.412
        15 -13.9128     33.0028    245.7917   1.4999819688e+02   2.2048332400e+01     2.580065    0.6527168  27.85   0.01146057    4.684    0.786
        16 -10.2089     37.9012    231.4661   1.4856619598e+02   2.3761880771e+01    0.1919716    0.1055288  57.49 0.0007539166    1.444    0.307
        17 -10.2512    228.5279    227.8939   1.1425332768e+02   9.9314705173e-01    0.2361816    0.1837074 -47.34  0.001590407    2.714    0.632
        18 -11.3420    161.2228    226.5655   1.2558774237e+02   9.9483870259e+00    0.2665986    0.1668053  22.11  0.001742334    1.417    0.294
        19 -15.2209      3.5671     20.4873   1.3598401586e+02   7.2037859855e+01     23.56878     1.822591 -67.96   0.03553611   20.302    0.951
        20 -11.5180     95.5020    240.6690   1.3890620768e+02   1.6320804545e+01    0.2533264    0.1899527 -35.23  0.001687849    1.935    0.483
        21 -11.9628    173.5514    222.1508   1.2280137563e+02   8.8370713719e+00    0.4552273    0.2795793  31.39  0.002392317    1.266    0.210
        22  -9.1511    152.6859    212.9612   1.2544117673e+02   1.2906267642e+01    0.1474671    0.1278912  21.62 0.0003218504    1.105    0.095
        23 -10.6138     33.5500    205.4803   1.4811114358e+02   2.8471645721e+01    0.3109482    0.1712367  59.59  0.001241377    1.513    0.339
        24 -10.6765    193.0245    194.9415   1.1525158580e+02   9.5021151879e+00    0.6468325    0.3697846 -59.59  0.002217159    7.470    0.866
        25 -11.6756     72.5086    197.3094   1.3973079578e+02   2.5884741131e+01    0.3240417     0.222849 -40.41  0.002057099    2.016    0.504
        26 -11.7441     77.1094    189.9357   1.3808357485e+02   2.6678050939e+01      0.24529    0.2119671 -45.67  0.000640632    1.421    0.296
        27 -11.1338     85.4043    177.6152   1.3496640311e+02   2.7960961856e+01    0.2127171    0.2022582  57.36 0.0004761099    1.090    0.083
        28 -13.3110     73.1817    175.2852   1.3746781739e+02   2.9925210778e+01    0.4192382    0.2568786 -40.42  0.001814506    2.231    0.552
        29 -10.5675    125.2941    174.8030   1.2569766855e+02   2.2908756666e+01    0.3987357    0.1618005  26.58  0.001509755    3.301    0.697
        30 -12.4400     91.7136    168.5915   1.3242571898e+02   2.8882213915e+01     1.298196    0.4618097  46.63   0.00249618    2.810    0.644
        31 -13.3960     67.4691    144.1864   1.3519181491e+02   3.7082819581e+01     1.394363    0.7174396  77.31  0.005684729    3.179    0.685
        32 -13.2043     57.8893    131.6043   1.3607986785e+02   4.1028547769e+01     1.822486    0.6639298 -80.44  0.005567377    5.150    0.806
        33  -9.4681    105.4786    147.5867   1.2600606550e+02   3.1137710633e+01    0.3096831    0.1996678 -31.73  0.001011702    2.006    0.502
        34 -12.1568     92.0003    151.2969   1.2994694754e+02   3.2342456891e+01    0.2596938    0.2369586  -9.50 0.0005497379    1.265    0.210
        35  -9.0840    134.0000    148.0118   1.1919898866e+02   2.6455457241e+01    0.2154124   0.07751293 -47.93 0.0008025392    2.943    0.660
        36 -11.1141     46.7053    146.6067   1.4084143225e+02   3.8858394162e+01    0.2128129    0.1878077  84.08  0.001401159    1.029    0.028
        37  -8.6448    192.2719    144.2846   1.0592209778e+02   1.6776612534e+01    0.1350675   0.09401941   5.47 0.0001956894    1.502    0.334
        38 -10.4774    198.9662    246.9618   1.2163166666e+02   2.8102071989e+00    0.1481247    0.1135822  42.60  0.001143462    1.712    0.416
        39  -8.7308    242.3087    138.6731   9.5977116803e+01   8.9212526654e+00    0.1149513   0.09640837 -40.64 0.0002236359    1.657    0.396
        40 -10.0068    112.5862    136.9296   1.2231628369e+02   3.2219925251e+01    0.3212112    0.2226412 -21.90  0.001143636    1.927    0.481
        41 -10.6537    100.4237    134.2656   1.2496260044e+02   3.4711503624e+01    0.2757777    0.2249926 -28.67 0.0006722621    1.393    0.282
        42 -10.1977    102.9696    151.8027   1.2731545121e+02   3.0652809274e+01     0.286685    0.2531907  21.34 0.0008344397    1.177    0.150
        43 -13.9353     11.0699    206.8549   1.5242128633e+02   3.0164192284e+01     1.072485    0.7729145  44.07  0.005259228    1.230    0.187
        44 -12.1993     43.1838    129.0963   1.3985509490e+02   4.3159138965e+01    0.4014348     0.237602  45.31   0.00219068    1.669    0.401
        45  -8.8284    117.7052    129.6828   1.1957667623e+02   3.2872229288e+01     0.140682    0.1085143 -11.08 0.0003133615    1.606    0.377
        46 -12.7903     49.5532    231.6861   1.4651716745e+02   2.2605015205e+01    0.2883192    0.2363921 -57.52 0.0009260687    1.647    0.393
        47 -10.9278    168.3041    113.3458   1.0368593930e+02   2.6440883972e+01    0.3754605    0.3112671 -74.56  0.001169637    1.777    0.437
        48  -9.3849    109.0332    123.9720   1.2066580813e+02   3.5541604309e+01    0.1982117    0.1942273  29.65 0.0003146175    1.016    0.016
        49 -10.3536     19.9721    111.4772   1.4466873226e+02   4.9262315660e+01    0.1683909    0.1212182  26.52  0.001033837    1.597    0.374
        50  -9.6500    154.4789     75.5067   9.6195668994e+01   3.6107233068e+01    0.1543854    0.1439334  -9.24 4.585092e-05    1.014    0.014
        51 -15.5729      9.7128    240.1107   1.5364186338e+02   2.4895392697e+01     6.949961     1.074026 -71.46   0.03226661    5.890    0.830
        52 -11.7292    246.7760    248.6249   1.1434715875e+02  -2.9848468917e+00     0.526244    0.1718905  33.60  0.003041869    2.316    0.568
        53 -15.2686     57.2595    219.7055   1.4441504727e+02   2.3729114598e+01     6.080044    0.6306043  35.95    0.0231739    4.373    0.771
