#   1 NUMBER                 Running object number                                     
#   2 MAG_AUTO               Kron-like elliptical aperture magnitude                    [mag]
#   3 X_IMAGE                Object position along x                                    [pixel]
#   4 Y_IMAGE                Object position along y                                    [pixel]
#   5 X_WORLD                Barycenter position along world x axis                     [deg]
#   6 Y_WORLD                Barycenter position along world y axis                     [deg]
#   7 A_WORLD                Profile RMS along major axis (world units)                 [deg]
#   8 B_WORLD                Profile RMS along minor axis (world units)                 [deg]
#   9 THETA_WORLD            Position angle (CCW/world-x)                               [deg]
#  10 FWHM_WORLD             FWHM assuming a gaussian core                              [deg]
#  11 ELONGATION             A_IMAGE/B_IMAGE                                           
#  12 ELLIPTICITY            1 - B_IMAGE/A_IMAGE                                       
         1 -13.7899    190.6460     22.5746   6.7625705182e+01   3.4380736988e+01     2.348849     1.185027  -8.23  0.007767917    2.314    0.568
         2 -14.1423    198.7431     17.5622   6.4871368333e+01   3.2754634315e+01     2.423577     1.090194  50.01  0.009135064    2.111    0.526
         3 -13.8391    203.4404      9.6562   6.1783255333e+01   3.2272788656e+01     1.580913    0.7939138  46.48  0.001329471    1.979    0.495
         4 -13.9224      7.0530     11.6358   1.2362484152e+02   7.1484647668e+01     2.058337    0.7040484 -50.22   0.01044349    1.935    0.483
         5  -9.1806     93.1596    244.7784   1.3367149124e+02   1.7303490899e+01    0.1510448   0.09574607  56.23  0.000588581    1.242    0.195
         6 -10.2936    205.0266    250.2445   1.1627854923e+02   1.6216771509e+00    0.1529453   0.09848462  32.93 0.0008797137    1.059    0.055
         7  -9.3454    184.0067    250.5064   1.1962946429e+02   4.5311696457e+00    0.1476051   0.06613794  27.15 0.0004335104    2.366    0.577
         8  -9.7985    152.4753    243.7533   1.2398424486e+02   9.6572489093e+00    0.1496611    0.1061799 -57.10  0.001137183    2.054    0.513
         9  -9.8086    150.9350    239.4617   1.2379221258e+02   1.0369245777e+01    0.1845152     0.116307  44.14 0.0006647134    1.190    0.160
        10 -11.1227    143.4762    244.7342   1.2555029486e+02   1.0785977487e+01    0.3843736    0.1148744  42.92  0.001710181    2.377    0.579
        11 -11.4266    146.1199    240.6655   1.2471171711e+02   1.0900025355e+01    0.2569786    0.1495506  45.61 0.0004300564    1.300    0.231
        12 -10.7673    143.5268    249.3133   1.2598359389e+02   1.0249876067e+01    0.2362318    0.1617144  57.08  0.001093462    1.479    0.324
        13 -11.2055    150.3027    247.9154   1.2475722995e+02   9.4852948858e+00    0.3757525    0.2024618  43.59   0.00193888    1.336    0.252
        14 -11.1575    133.7473    249.5345   1.2757220720e+02   1.1536230362e+01     0.445204    0.1424951  47.72  0.002339527    2.498    0.600
        15 -11.9499     96.4273    239.3205   1.3274642438e+02   1.7629122179e+01    0.5491201    0.3115934  77.95  0.003667003    2.319    0.569
        16 -10.1993     88.7691    220.3855   1.3254533150e+02   2.1253062861e+01    0.3302413    0.1589047 -46.50  0.001861615    3.437    0.709
        17  -9.8918     93.8088    217.1326   1.3139782450e+02   2.1104795178e+01     0.244229    0.1394918  76.76  0.001503697    2.243    0.554
        18 -12.2291    111.8094    248.1802   1.3096177170e+02   1.4554045439e+01    0.7957312    0.2940958  45.92  0.004778416    1.925    0.481
        19 -11.8592     99.7858    246.8107   1.3276744861e+02   1.6230686694e+01    0.4572242    0.3666933  58.55  0.004055257    1.154    0.134
        20 -11.0969    124.0808    249.5886   1.2912191551e+02   1.2802482739e+01    0.4584526    0.1598502  36.49  0.002473914    2.435    0.589
        21 -12.6318    125.3453    241.9452   1.2824831824e+02   1.3572704325e+01    0.5144481    0.3518679  22.56  0.003554729    1.813    0.448
        22 -12.5346    110.2093    230.1826   1.2971522789e+02   1.7112818745e+01    0.6769593     0.231233  41.93  0.002579198    2.156    0.536
        23 -10.7746     92.5260    226.0582   1.3236049249e+02   1.9956646492e+01    0.2899489    0.2131186  69.15  0.001509628    1.285    0.222
        24 -11.9301     99.2503    223.2577   1.3098005785e+02   1.9509178306e+01     0.431481     0.214491  39.06   0.00106028    1.649    0.394
        25 -10.5962    110.3657    222.3786   1.2898027646e+02   1.8179310294e+01      0.23584    0.2023311 -38.74 0.0007890073    1.646    0.393
        26 -10.9460    105.1134    219.1458   1.2959684944e+02   1.9341472611e+01    0.3677556    0.1868815  61.47  0.002022725    2.211    0.548
        27 -11.0158     73.8588    230.8321   1.3581977837e+02   2.1507359024e+01    0.3190343    0.1426827  34.15  0.001951079    2.219    0.549
        28 -10.8382     84.9732    229.6250   1.3390249826e+02   2.0371060127e+01    0.2453518    0.1841619  21.79  0.001063701    1.848    0.459
        29 -10.4565     79.5401    229.2316   1.3477509852e+02   2.1075609471e+01    0.1551311    0.1023666  82.37 0.0007815163    1.601    0.375
        30 -11.1555     87.9697    248.9651   1.3477621931e+02   1.7376657945e+01    0.3591824    0.2531952  48.48   0.00269442    1.076    0.071
        31 -11.0281     81.2444    246.5674   1.3566802294e+02   1.8478119541e+01    0.3167869    0.1879124  87.25  0.002406312    1.998    0.500
        32 -10.5552     90.4109    236.5201   1.3351581535e+02   1.8746514468e+01    0.4606444    0.1491017  54.10  0.002329282    3.013    0.668
        33 -10.3511     83.8151    242.1950   1.3497645819e+02   1.8762907592e+01    0.2501028    0.1643748  20.91  0.001730101    2.402    0.584
        34 -10.8525     84.7639    237.8647   1.3452796614e+02   1.9240648641e+01    0.3309531    0.2060613  32.87  0.001895036    1.679    0.404
        35  -9.7578     74.4582    250.5687   1.3696119484e+02   1.8724612864e+01    0.2250674   0.07207256  37.83  0.001283503    2.537    0.606
        36 -13.3969     45.4628    247.3304   1.4116273821e+02   2.2248969192e+01    0.7993611     0.481459  36.60  0.006532603    1.650    0.394
        37 -12.6922     42.0935    236.8920   1.4119527558e+02   2.4044182481e+01    0.4688407    0.1695016  50.38  0.001020659    1.896    0.473
        38 -13.1250     46.9473    228.4406   1.4002374004e+02   2.4784156923e+01    0.3752041    0.3288076  38.46 0.0009990812    1.509    0.337
        39 -14.9802     55.5422    216.3488   1.3793050332e+02   2.5719245896e+01     2.212344     1.594208  86.13    0.0182127    1.323    0.244
        40 -10.8274    173.3481    240.0136   1.2015572041e+02   7.1216573899e+00    0.2030171     0.185524  84.27 0.0008858198    1.638    0.389
        41  -9.4080    211.2691    240.0060   1.1400277414e+02   1.6729126434e+00    0.2025229   0.08367342  22.12 0.0009125337    3.503    0.715
        42 -10.4796    115.9464    240.1355   1.2962806318e+02   1.5041062573e+01    0.1572175    0.1182131  48.63 0.0007636537    1.037    0.036
        43 -10.6637    104.6394    238.0927   1.3131110271e+02   1.6764856911e+01    0.2284304     0.128318  41.46 0.0008900013    1.358    0.264
        44 -11.3061     98.5396    231.1658   1.3176021936e+02   1.8479638706e+01    0.3363873    0.2408389  65.55  0.001679543    1.303    0.233
        45 -13.4509     19.9820    232.6688   1.4437249828e+02   2.6742611738e+01    0.6692269    0.4588064  86.44  0.004364235    1.354    0.261
        46 -10.8391    165.7564    235.4124   1.2088419400e+02   8.7248769922e+00    0.1925424    0.1627595  52.31  0.001549175    1.336    0.251
        47 -11.4812    121.7440    232.7554   1.2800327383e+02   1.5232725239e+01    0.2577818    0.2145241  30.35 0.0005328535    1.312    0.238
        48 -11.3622    136.2799    227.9902   1.2506055761e+02   1.3850826115e+01    0.2630105    0.1725987 -37.84  0.001809313    2.184    0.542
        49 -15.3022     11.8081    208.7612   1.4477870485e+02   3.1100199264e+01     2.588202     1.131677 -78.77   0.01828332    2.123    0.529
        50 -11.8333    135.5101    241.0617   1.2649851198e+02   1.2312744847e+01    0.3249435    0.2163808  25.53  0.001888062    1.653    0.395
        51 -11.4683    141.9184    230.0602   1.2431469865e+02   1.2787853119e+01    0.2974209    0.2237543 -38.32  0.001802025    1.820    0.451
        52 -10.4573    181.0489    229.8595   1.1765519118e+02   7.1077367909e+00    0.1647527    0.1510988  55.03  0.001334376    1.455    0.313
        53  -9.6615    151.1106    229.8306   1.2272342853e+02   1.1501370566e+01    0.2431757    0.1111828  47.82  0.001106174    1.834    0.455
        54 -11.0081    156.8284    231.6198   1.2195309630e+02   1.0458465343e+01    0.2060864    0.1533266  46.82 0.0003841559    1.183    0.155
        55 -10.1571    190.9067    228.0726   1.1577205403e+02   5.8349692895e+00    0.1675471    0.1209864  32.55 0.0003068449    1.017    0.017
        56 -11.1594    165.4558    227.3300   1.1998644408e+02   9.7077537167e+00     0.267202    0.2095672 -72.71  0.001525853    2.070    0.517
        57 -10.7040    132.8931    224.2039   1.2524793432e+02   1.4827527522e+01    0.1702495    0.1457775  31.10 0.0005672565    1.227    0.185
        58 -10.9212    117.0582    224.4711   1.2801869426e+02   1.6985328644e+01    0.2811785    0.1598545  34.72 0.0006736948    1.594    0.373
        59 -10.6429     79.1699    223.5685   1.3442908695e+02   2.1946687496e+01    0.4098296    0.2093672  60.98  0.002678402    1.814    0.449
        60  -8.9112    220.2494    223.6343   1.1029792645e+02   1.9026417416e+00   0.09169072   0.08257593  42.49 0.0006951431    1.620    0.383
        61  -9.6316    155.9700    223.4894   1.2116109300e+02   1.1578130632e+01     0.168242   0.08467063  41.34 0.0003351584    1.498    0.332
        62 -10.4977    149.9767    222.4600   1.2208245570e+02   1.2591586566e+01    0.1868175    0.1650829   9.82 7.858327e-05    1.334    0.250
        63  -9.0796    149.5522    218.5455   1.2169836975e+02   1.3160654855e+01    0.1480154    0.1333597  61.17  0.000107374    1.284    0.221
        64 -12.0728    142.1752    221.0086   1.2328037743e+02   1.3920787042e+01    0.3171015    0.2681423 -60.10 0.0009887641    1.556    0.357
        65 -10.3505    137.2376    214.7744   1.2344732525e+02   1.5482988848e+01    0.2162877    0.1769948  66.18 0.0008479644    1.349    0.259
        66 -10.2822    141.6874    212.7479   1.2241264834e+02   1.5106419539e+01    0.3208407    0.1831199  37.25  0.001372569    1.430    0.301
        67 -10.0082    164.3508    220.8917   1.1938992114e+02   1.0649944888e+01     0.213752    0.1566815  -2.35  0.001073669    1.823    0.452
        68  -9.9562    177.5086    220.0178   1.1699495813e+02   8.7609105763e+00    0.1400022    0.1125828 -30.49  0.001031682    1.586    0.370
        69 -10.2109    233.9475    217.4656   1.0714998738e+02   4.4795713596e-01    0.1947168    0.1428667 -44.24 0.0006746323    2.458    0.593
        70  -9.8952    134.1347    218.1470   1.2437830710e+02   1.5469483892e+01    0.2256163    0.1288235  64.06  0.001268895    2.388    0.581
        71 -10.9368     88.0294    213.1378   1.3207411614e+02   2.2439986388e+01    0.2689602     0.201983  34.95 0.0004453287    1.389    0.280
        72 -10.0761    182.9909    214.2637   1.1526629579e+02   8.5947573087e+00     0.165057    0.1201123  34.47 0.0004196697    1.046    0.044
        73 -10.5350    102.0270    212.2454   1.2950052183e+02   2.0773239282e+01    0.3306732    0.1784015  51.28  0.001750601    1.533    0.348
        74 -12.6747    131.8143    211.6494   1.2406693137e+02   1.6712375573e+01    0.2978222    0.2304682  18.51 0.0005442401    1.543    0.352
        75  -9.5418    152.1096    211.9040   1.2043456100e+02   1.3655193333e+01    0.1708958    0.1300498  51.13 0.0005707496    1.248    0.199
        76  -9.6398    109.1214    209.3462   1.2793679345e+02   2.0257351663e+01    0.2452555     0.120452 -71.66  0.001324797    2.982    0.665
        77 -12.5362    135.1867    236.9299   1.2615114540e+02   1.2866199962e+01     0.327522    0.3146274 -10.57  0.001629597    1.408    0.290
        78  -8.8564    197.6838    208.2558   1.1183819208e+02   6.9847468787e+00    0.1067503   0.08073084  49.87 0.0002086296    1.533    0.348
        79 -10.7445    174.6908    206.2671   1.1561911269e+02   1.0878872138e+01    0.2809687    0.1930713  -5.51  0.001337843    1.957    0.489
        80 -11.6413    247.5480    205.3060   1.0301890035e+02  -4.6061859736e-01    0.4468523    0.2117842  25.84  0.002505559    1.764    0.433
        81  -8.5777    183.2942    206.3158   1.1408659697e+02   9.5038332934e+00     0.117404   0.07771922  16.97 0.0002729461    1.602    0.376
        82 -10.1270    149.5405    204.5848   1.1997053755e+02   1.5049450484e+01    0.2618424    0.1916205  -6.05  0.001035111    1.985    0.496
        83  -9.8283    126.0375    205.8743   1.2446376672e+02   1.8391478248e+01    0.1763111    0.1251227  54.79 0.0004847053    1.279    0.218
        84  -9.2432    113.9801    205.3046   1.2662624283e+02   2.0199170631e+01    0.2656243    0.1379729 -77.90  0.001327355    3.403    0.706
        85 -10.6480    103.3863    203.1192   1.2835835401e+02   2.1998144522e+01    0.3117541    0.2522597 -85.70  0.002333267    1.374    0.272
        86 -10.5797    100.5128    198.4166   1.2841400953e+02   2.3135826314e+01    0.2192812    0.1840115 -47.10  0.001091021    1.546    0.353
        87 -10.5176     99.1966    194.8637   1.2829413427e+02   2.3891945598e+01    0.2958714     0.220283  -1.45   0.00145292    2.393    0.582
        88  -9.8695     75.5190    203.5318   1.3351530973e+02   2.5492328978e+01    0.2765117    0.1665318  30.77  0.001791561    1.851    0.460
        89  -9.4555    224.9333    202.6425   1.0629031917e+02   3.2788575013e+00    0.1654749    0.1136904  30.57 0.0004130042    1.132    0.117
        90 -10.0667    166.9546    203.2820   1.1660073222e+02   1.2495333542e+01    0.2287311    0.1573324  17.96 0.0003009624    1.601    0.375
        91 -10.3252    169.8907    200.2815   1.1563709952e+02   1.2423455522e+01    0.1909065     0.161199  39.44 0.0003591795    1.130    0.115
        92  -9.8537    133.0486    202.9188   1.2281598072e+02   1.7795534017e+01    0.1717277    0.1573649  31.94 0.0002999236    1.181    0.153
        93 -10.8771    134.1219    197.7904   1.2198024403e+02   1.8398944098e+01    0.2495994    0.1975223 -87.45 0.0002733085    1.643    0.391
        94 -10.6649    197.3297    200.6518   1.1074038438e+02   7.9270424190e+00    0.3234541    0.1781152  47.16  0.001661613    1.765    0.433
        95 -11.7894     93.1057    205.0356   1.3043976504e+02   2.3057677011e+01    0.5466657    0.2478743  45.58   0.00157226    1.750    0.428
        96  -9.6700    121.7363    200.4566   1.2464040259e+02   1.9834138320e+01    0.3674814    0.1337435  53.85  0.001462102    3.500    0.714
        97 -10.1092    115.5659    200.0838   1.2575822952e+02   2.0780217202e+01    0.2457945    0.1969099   6.36 0.0008340941    1.767    0.434
        98 -14.5476     27.5417    247.6630   1.4379690599e+02   2.3935413606e+01    0.9536603     0.626789  39.29  0.006930377    1.532    0.347
        99  -9.3137    163.9490    206.1983   1.1755023773e+02   1.2584688292e+01    0.2071993    0.1508648 -89.11  0.001194803    2.614    0.618
       100  -8.7627    158.5345    199.5128   1.1762572566e+02   1.4346290460e+01    0.1199811   0.09615294  38.27 7.732571e-05    1.022    0.022
       101 -10.2982     83.4734    193.4638   1.3115128703e+02   2.6180635002e+01    0.3118385    0.2072764  14.31 0.0007604457    2.580    0.612
       102  -9.4307     86.2270    199.0266   1.3115242753e+02   2.4907792596e+01     0.160517    0.1391205 -54.86  0.000326704    1.482    0.325
       103  -9.3598     85.7140    195.7277   1.3094043814e+02   2.5517898216e+01    0.1596972     0.147271 -87.26 0.0001889575    1.248    0.198
       104  -9.5869    192.0570    197.9886   1.1126522330e+02   9.1088057693e+00    0.1785628    0.1413028  28.82            0    1.032    0.031
       105 -12.0336     70.8971    194.5155   1.3361846909e+02   2.7538699114e+01    0.3760231    0.2481631 -52.44  0.002540123    1.956    0.489
       106 -11.9938     75.5951    187.9553   1.3214710343e+02   2.8100049052e+01     0.262666    0.2329954  44.75 0.0007676639    1.244    0.196
       107  -9.5932    113.5003    195.9857   1.2568591680e+02   2.1720730449e+01    0.2601224    0.1427551  57.52  0.001462314    1.887    0.470
       108  -9.8748    112.9994    192.0100   1.2532275802e+02   2.2431966338e+01    0.1733911    0.1453225  50.05  0.001238887    1.019    0.019
       109  -9.4440    107.2085    195.9081   1.2687757777e+02   2.2621248749e+01    0.1751091    0.1304698  62.39 0.0007001815    1.262    0.207
       110 -10.4367    159.5561    194.0821   1.1666526539e+02   1.4944275928e+01     0.287975    0.1942693  54.74  0.001031543    1.586    0.370
       111 -10.7255    120.4136    193.7864   1.2410278477e+02   2.1068449520e+01    0.3448381    0.2477934  47.64  0.002292294    1.156    0.135
       112 -10.9310     38.6610    192.7031   1.3942296624e+02   3.1330345669e+01    0.2263404    0.1665309 -72.25  0.001794053    1.471    0.320
       113  -9.1586     42.4819    189.4206   1.3851922852e+02   3.1519530557e+01    0.1688849    0.1102118  43.13  0.000498415    1.402    0.287
       114  -9.5831     46.2511    187.5863   1.3769699082e+02   3.1457932803e+01    0.2775444    0.1533677  24.67  0.001684082    2.461    0.594
       115 -15.4172      6.1354    243.9227   1.4672246594e+02   2.6338511414e+01     1.220643    0.5716865 -86.56   0.01001705    1.997    0.499
       116 -10.5020    248.6875    193.9346   1.0089951124e+02   4.3413702740e-01    0.2830723    0.1309599  22.52  0.001446166    2.081    0.520
       117  -9.4778    173.0008    193.1903   1.1401187552e+02   1.2868040375e+01     0.294154     0.147042 -22.74  0.001293186    3.571    0.720
       118  -9.7684     47.2332    192.9538   1.3788172788e+02   3.0425157091e+01    0.1362829     0.120052  88.26 0.0004781488    1.262    0.207
       119 -13.3318     13.9159    239.1087   1.4547796984e+02   2.6351089413e+01    0.3398137     0.164995  43.46 0.0009637633    1.583    0.368
       120 -10.5108    191.3259    191.4822   1.1036384310e+02   1.0041811806e+01    0.2601888    0.1833021  22.74 0.0006939596    1.263    0.208
       121  -9.9061    135.6523    189.9512   1.2066675725e+02   1.9363625497e+01     0.243164    0.1847042  -2.45  0.001151909    1.898    0.473
       122 -11.6033    249.9661    187.5575   9.9562287264e+01   8.5425935316e-01    0.3564761    0.2101041  -7.80  0.002132121    1.642    0.391
       123 -11.5573    248.0517    177.9451   9.8108629728e+01   2.1267585440e+00    0.3277797    0.1865592 -20.50  0.001891148    1.741    0.426
       124 -10.5445    166.0343    241.5928   1.2153416275e+02   7.9931278701e+00    0.2988639    0.1299069  30.28  0.001180398    2.328    0.570
       125 -10.1060    175.8643    186.9716   1.1250666799e+02   1.3239745240e+01     0.186923    0.1525927  31.85  0.000427525    1.018    0.018
       126  -9.4180     67.6154    186.8623   1.3358787241e+02   2.9242853179e+01    0.1713183    0.1378692  13.90 0.0007315092    1.807    0.447
       127  -9.1382    158.1512    241.8321   1.2285353173e+02   9.0812787537e+00    0.1408952   0.09948794  27.36 0.0004551843    1.320    0.242
       128  -8.7940    160.8411    185.6274   1.1516253891e+02   1.5951753405e+01    0.1709643   0.09850224  47.41 0.0003520822    1.577    0.366
       129  -8.9489    154.5015    185.4642   1.1636499268e+02   1.7026152161e+01    0.1244307    0.1027962  35.55 5.911506e-05    1.020    0.020
       130 -11.1242    141.0018    183.7635   1.1876027915e+02   1.9485210010e+01    0.3735046    0.2067371  55.55  0.001150005    2.016    0.504
       131  -9.5149     37.6980    184.1764   1.3906636876e+02   3.2912760678e+01    0.1826257    0.1063465  49.44  0.001277301    1.429    0.300
       132  -9.6603    217.2117    183.1661   1.0430415648e+02   6.6858948677e+00    0.1845454    0.1354718  18.52 0.0003747815    1.119    0.107
       133 -10.3358    223.1879    244.6253   1.1272572375e+02  -4.1664364976e-01    0.1632222   0.06718946  33.13 0.0009560346    1.747    0.427
       134  -9.9304     65.9924    181.9864   1.3347578758e+02   3.0294606083e+01    0.1585767     0.132159  62.42            0    1.056    0.053
       135  -9.9116     87.3495    183.5628   1.2941375525e+02   2.7383301283e+01    0.3461062    0.1527851  34.72  0.001786396    2.235    0.553
       136 -10.8902    134.3055    179.2040   1.1944086540e+02   2.1288271871e+01    0.4146004    0.2694882   4.64  0.001980201    2.929    0.659
       137 -10.2676    104.2587    180.7547   1.2571339409e+02   2.5568845279e+01    0.1895392    0.1653692  49.65 0.0002660652    1.070    0.066
       138  -9.6680    175.9238    179.9101   1.1134514012e+02   1.4216519364e+01    0.1894652    0.1496518  17.84 0.0004444913    1.215    0.177
       139 -10.2028    115.0392    178.0448   1.2318616351e+02   2.4464059856e+01    0.3606599    0.1867862 -60.13  0.001912075    2.263    0.558
       140  -8.4825     37.4712    180.4905   1.3886888092e+02   3.3593098359e+01    0.1058222    0.0792105  69.41 0.0002114316    1.047    0.045
       141 -10.7949    181.9017    177.3582   1.0976925225e+02   1.3537234909e+01    0.3243167    0.2068203  36.94  0.001599962    1.309    0.236
       142 -10.3683     30.3815    177.5155   1.4002411428e+02   3.4796967109e+01    0.3942886    0.1000928  40.92  0.002008805    2.904    0.656
       143  -9.6057    109.1246    176.2502   1.2416258625e+02   2.5650035284e+01    0.2076272    0.1396102  80.68 0.0006977672    1.921    0.480
       144  -9.3183     95.4992    175.3241   1.2684843112e+02   2.7749825084e+01    0.2225783    0.1605153 -41.68    0.0010195    1.821    0.451
       145  -9.9000     77.1651    175.7390   1.3064642226e+02   3.0078701122e+01    0.1700605    0.1334208  76.88 0.0005071187    1.178    0.151
       146 -12.3764     71.0124    174.2074   1.3174418049e+02   3.1111979003e+01    0.2945266    0.2402121  27.20 0.0006930383    1.485    0.327
       147 -11.0817     68.9359    167.5071   1.3149890047e+02   3.2608454283e+01     0.303858    0.1745653 -63.41 0.0009256751    1.769    0.435
       148 -12.2480    248.4122    172.0674   9.6934577726e+01   2.6795767729e+00    0.5446118    0.3047267  28.00  0.003055074    1.490    0.329
       149  -9.6108    154.3332    173.1081   1.1446948786e+02   1.8953238923e+01    0.2574186    0.1770354   7.55  0.001354073    2.028    0.507
       150 -11.3384     11.7847    172.0451   1.4322963902e+02   3.7373865203e+01    0.3224903    0.1975014 -75.62  0.002409252    1.510    0.338
       151 -10.0856    128.9471    179.3379   1.2054016178e+02   2.2114186634e+01    0.1800173    0.1724977  84.36 0.0003662669    1.168    0.144
       152 -10.9426     80.7034    163.4929   1.2856401469e+02   3.1909202322e+01     0.221291    0.1879128  70.47 0.0002058004    1.042    0.040
       153 -10.0790     91.1513    172.7909   1.2744788578e+02   2.8799714385e+01    0.2082102    0.1806631   5.97 0.0009327946    1.563    0.360
       154 -12.5384     90.0070    167.2076   1.2702133442e+02   2.9980836285e+01    0.5608094    0.5212711  36.09   0.00279295    1.224    0.183
       155  -9.8582     84.7085    165.2915   1.2791861122e+02   3.1047068464e+01    0.1787243    0.1445741  55.74 0.0001702536    1.094    0.086
       156  -9.2646     31.5832    171.7581   1.3942595236e+02   3.5741353090e+01     0.134538   0.08116903  84.35 0.0003221545    1.447    0.309
       157 -11.7580     84.5365    176.0005   1.2917206921e+02   2.9093891512e+01    0.3450128    0.2706358  63.25  0.001330419    1.120    0.108
       158  -8.7045    132.7148    171.2990   1.1860144923e+02   2.2858104781e+01    0.1208875   0.09088228  67.67  0.000267404    1.551    0.355
       159  -8.7888    167.2221    170.0013   1.1136565160e+02   1.7193829748e+01    0.1542377    0.1072838 -38.57 0.0008691039    1.651    0.394
       160  -9.2552    100.5685    170.5056   1.2520326253e+02   2.7908062852e+01    0.1190575     0.102904  60.70 0.0008064954    1.026    0.025
       161 -10.8827     44.0518    169.0102   1.3675357266e+02   3.5056296464e+01    0.2527418    0.2147417 -46.64  0.001284138    1.600    0.375
       162 -10.3861     47.6734    168.3194   1.3596450496e+02   3.4817765487e+01    0.2502063    0.1573911  81.31  0.001211446    1.481    0.325
       163  -9.1137     36.2327    170.4413   1.3842252682e+02   3.5552020236e+01    0.1457318   0.07862062  49.25 0.0009410213    1.592    0.372
       164  -9.4369     48.1546    179.8380   1.3677569151e+02   3.2641302080e+01    0.1563019    0.1102395  61.13  0.000446492    1.164    0.141
       165  -9.6823    107.2010    168.2223   1.2350600649e+02   2.7359699847e+01    0.1689101    0.1528762  38.76 0.0004363176    1.144    0.126
       166  -9.4765     58.5674    167.6797   1.3367333454e+02   3.3771031965e+01    0.1800014    0.1042724  57.15 0.0005446774    1.565    0.361
       167 -11.7709    249.3844    149.9662   9.2331922999e+01   4.9245055692e+00    0.7909721    0.3286267 -27.37  0.003399116    2.322    0.569
       168 -12.3406    248.2135    101.5787   8.1455631724e+01   1.0899134908e+01    0.8316569    0.4715171 -19.99  0.004006263    1.609    0.379
       169 -11.7060    247.5003    122.8964   8.6660699462e+01   8.4403185348e+00    0.6808456    0.5642294  82.59  0.003731135    2.139    0.532
       170 -12.0372    248.4210    114.2171   8.4479485020e+01   9.3138073630e+00    0.7491227    0.4757544 -25.15  0.003917662    1.465    0.318
       171 -12.3140    245.2068    162.5566   9.5599161958e+01   4.2448083242e+00    0.4844727    0.3807309  -0.22   0.00312521    1.133    0.118
       172 -12.2470    246.5767    157.5466   9.4361427844e+01   4.5649634315e+00     1.357084       1.0509 -81.56  0.006276054    3.960    0.747
       173  -9.4200    175.9331    166.4510   1.0900796823e+02   1.6174443950e+01    0.1969815    0.1132462  42.60 0.0004288223    1.524    0.344
       174  -9.4064    136.3994    165.7889   1.1697805288e+02   2.3189527374e+01     0.226278    0.1500628  59.60  0.000948841    1.717    0.418
       175  -8.9331    124.4329    165.4551   1.1945362165e+02   2.5202925169e+01    0.1246369    0.1102455  50.44 4.135151e-05    1.024    0.024
       176 -10.2474     47.1866    163.2932   1.3564310916e+02   3.5823638843e+01    0.1788606    0.1314863  84.11 0.0006017751    1.183    0.155
       177 -11.6809    248.4602    141.1760   9.0605643917e+01   6.0948868139e+00     1.058786    0.3008768  37.47  0.003779937    3.471    0.712
       178 -10.0489     37.0912    162.8316   1.3769138555e+02   3.6908092531e+01    0.1687116     0.114006  66.87 0.0006046726    1.261    0.207
       179  -9.6667    123.1628    160.8825   1.1902314013e+02   2.6221624986e+01    0.2039638     0.184389  20.29 0.0008824411    1.204    0.169
       180  -8.8740    119.7436    159.3110   1.1952015289e+02   2.7053960659e+01    0.1972186    0.1035624  47.46            0    1.771    0.435
       181 -10.7146     33.6036    159.9816   1.3819454534e+02   3.7781368223e+01    0.2800517     0.158719 -55.39  0.001293044    2.039    0.510
       182 -11.9185     23.7809    149.4799   1.3948815693e+02   4.0692953205e+01    0.3772358     0.192567 -74.22  0.001471848    1.688    0.408
       183 -13.1435     25.3270    156.2295   1.3963766952e+02   3.9240479485e+01    0.7103454    0.3392202  29.69  0.004278282    2.334    0.571
       184 -11.2402     96.1601    158.8878   1.2462298482e+02   3.0691935842e+01    0.3140971    0.2377481 -58.70  0.001980534    1.406    0.289
       185 -11.5133     73.5268    158.7000   1.2956226203e+02   3.3736837355e+01    0.3733463    0.2671225  86.89  0.002389913    1.403    0.287
       186  -9.8153     79.0466    158.9828   1.2838940098e+02   3.2986760691e+01    0.1735412    0.1522723  67.69 0.0003857274    1.018    0.018
       187  -9.2932     52.5135    158.4880   1.3408731777e+02   3.6196707209e+01    0.1113793   0.09378221  77.07 4.074466e-06    1.022    0.022
       188  -9.6973     89.1412    156.8676   1.2590150687e+02   3.2057820920e+01    0.1517328    0.1440164  -8.21  0.001052959    1.326    0.246
       189  -9.8282    134.3326    155.9335   1.1579666565e+02   2.5257855953e+01    0.2308962    0.1848217  83.48 0.0003374315    1.590    0.371
       190  -9.6810    132.0903    152.3034   1.1566504230e+02   2.6291753863e+01    0.1812958    0.1541215  46.56 0.0003509503    1.084    0.078
       191 -12.4501    248.3113    134.3597   8.9131762139e+01   6.9190209088e+00    0.8807404    0.7351595  13.51  0.005480415    1.104    0.094
       192  -9.8303     32.8715    154.1369   1.3790202431e+02   3.8985779152e+01    0.1559595    0.1306055 -75.70  0.000273846    1.237    0.192
       193 -10.4627      9.1212    155.1991   1.4288409722e+02   4.0724234975e+01    0.1501016   0.09110748  65.60  0.001072535    1.358    0.263
       194  -9.7363     62.1016    152.7211   1.3140899247e+02   3.6273793634e+01    0.2853177    0.1526507 -83.72  0.001036375    2.049    0.512
       195 -10.9969     14.1022    153.8732   1.4179854422e+02   4.0605437389e+01     0.187422    0.1406975  77.37  0.001143146    1.030    0.029
       196 -10.7884    112.6726    152.3787   1.1999836735e+02   2.9460377999e+01    0.3061016    0.2368637  50.38 0.0005315843    1.201    0.168
       197  -8.9085    148.6628    152.6976   1.1212641250e+02   2.3317503509e+01    0.1351288    0.1002981  10.33 0.0007037527    1.666    0.400
       198 -10.8577    102.3758    151.1994   1.2213757694e+02   3.1261779230e+01    0.2933468    0.2595446  71.19  0.001210232    1.086    0.079
       199 -10.2241    105.0314    146.0507   1.2073409019e+02   3.1862113266e+01    0.3022919    0.2699782 -85.40  0.001950719    1.142    0.124
       200  -8.7675    119.6993    151.3250   1.1825335103e+02   2.8536566041e+01    0.1298495   0.09631875  73.01    0.0002828    1.635    0.388
       201 -10.2853     90.9718    150.2665   1.2459215826e+02   3.3091457300e+01    0.2014537    0.1680163 -83.86 0.0003671079    1.198    0.165
       202 -11.5547     56.1611    150.3887   1.3248240203e+02   3.7404729886e+01    0.4851865    0.3258961 -60.14  0.002156125    1.523    0.344
       203  -9.2822     52.7331    146.3356   1.3282715913e+02   3.8591888700e+01     0.166466    0.1320292  51.96  0.000153047    1.216    0.178
       204 -12.5337     74.1037    138.9668   1.2695431007e+02   3.7619587213e+01    0.8998537    0.4758509  54.30  0.004321411    1.992    0.498
       205 -10.5108     67.0066    147.7597   1.2973756031e+02   3.6694962697e+01    0.1896023    0.1645908  60.74 0.0003730597    1.093    0.085
       206 -13.0763     67.3240    143.5737   1.2915477934e+02   3.7506828002e+01    0.7156671    0.4156602  66.83  0.003241814    1.944    0.486
       207 -11.4792     32.2026    145.8083   1.3737589270e+02   4.0702225613e+01    0.2969564    0.1967902 -74.12  0.002027185    1.342    0.255
       208 -11.9821     32.7090    141.3070   1.3687860637e+02   4.1569456741e+01    0.3354944    0.2836187   9.68   0.00247903    1.649    0.394
       209  -9.3416    141.2461    148.0536   1.1288637371e+02   2.5460557531e+01    0.2777489    0.1640324  18.15   0.00116789    2.686    0.628
       210 -11.9269      2.4357    144.8818   1.4370490335e+02   4.3189336006e+01    0.3346572    0.2641556  87.30  0.002750929    1.095    0.086
       211 -12.2559      3.1442    138.8364   1.4322876876e+02   4.4335220760e+01    0.7140236    0.1632234  48.50  0.003363926    3.564    0.719
       212  -9.9662     37.0074    143.7416   1.3612622205e+02   4.0683864925e+01    0.1505957    0.1280415  62.55 0.0004872065    1.149    0.130
       213 -10.6316     26.0866    139.3855   1.3821112451e+02   4.2529879711e+01    0.1901167    0.1288751 -71.24  0.001223116    1.329    0.248
       214  -9.3729     53.7911    140.1687   1.3191120334e+02   3.9741043920e+01    0.1731515    0.1343633  74.89 0.0005797795    1.174    0.149
       215  -8.8698    164.2213    139.3871   1.0616627150e+02   2.2688985557e+01    0.1371895    0.1020324  -5.21 0.0004390336    1.618    0.382
       216 -10.1733    119.2827    138.1758   1.1606870776e+02   3.1115857695e+01    0.2764147    0.2317625   8.91  0.001308765    1.428    0.300
       217 -10.9868    112.5960    136.3354   1.1731644162e+02   3.2582122748e+01    0.4188933    0.2712639  40.61  0.002008392    1.482    0.325
       218 -11.2406     58.9174    133.3368   1.2987190496e+02   4.0603657818e+01    0.2675237    0.1614367 -68.96 0.0008238106    1.526    0.345
       219 -11.5794     47.8946    138.3114   1.3308790511e+02   4.0741288048e+01    0.3785818    0.2127955  18.93  0.002042451    2.563    0.610
       220 -12.4402     45.7032    131.4733   1.3285757258e+02   4.2391380009e+01    0.5778958    0.3517062  60.08  0.003060333    1.650    0.394
       221 -12.6141    248.6295    239.6243   1.0811836460e+02  -3.5106239641e+00    0.5591414    0.3488266   3.23   0.00415598    1.479    0.324
       222 -11.3512     33.6818    135.9187   1.3616900937e+02   4.2590781966e+01    0.2781465    0.2425709  62.97   0.00130696    1.170    0.145
       223 -12.4543      1.9929    123.0536   1.4254298705e+02   4.7606065115e+01    0.8194522    0.1633908 -81.07  0.003081781    4.426    0.774
       224 -11.4396    133.6540    142.8277   1.1361268171e+02   2.7758396134e+01    0.8237326    0.2888029 -52.73  0.003019348    3.424    0.708
       225 -11.3214     66.2064    128.1837   1.2738143388e+02   4.0850972215e+01    0.4141735    0.2842821 -86.05  0.001179237    1.498    0.332
       226 -12.1237     31.1381    126.6049   1.3588004643e+02   4.4762233812e+01    0.4610467    0.1941393  33.98  0.002475557    2.439    0.590
       227  -9.4970     85.9529    126.7095   1.2218120448e+02   3.8601943028e+01    0.2304809    0.1850457 -14.03  0.001326945    1.708    0.415
       228 -12.2475      9.2557    125.3893   1.4100551139e+02   4.6666402799e+01    0.3155541    0.1950461 -80.09  0.001562142    1.291    0.226
       229 -10.3950    209.7416    125.8437   9.3917038710e+01   1.5606439139e+01    0.2634307    0.2255848  -3.29 0.0005185094    1.090    0.083
       230 -11.1974     38.3246    122.3006   1.3364546276e+02   4.5046652361e+01     0.310303    0.1337259  43.48  0.001610092    2.304    0.566
       231  -9.8589    117.6160    129.1481   1.1476571880e+02   3.3174976041e+01    0.1941973    0.1220469 -39.34 0.0009444953    1.784    0.440
       232  -8.9301    114.7277    123.0032   1.1425720637e+02   3.4901723151e+01    0.1662019    0.1184173 -51.71 0.0002903858    1.429    0.300
       233  -9.7993     50.1958    122.9181   1.3071380134e+02   4.3760946928e+01    0.1899477    0.1409739  77.34 0.0009042947    1.312    0.238
       234 -10.7591     15.2922    122.8637   1.3937948901e+02   4.6781904946e+01    0.1950411    0.1278194 -35.86  0.001245515    2.150    0.535
       235  -9.3917    238.5077    122.0623   8.7934565469e+01   1.0293348618e+01    0.2086204     0.124203 -19.59  0.001022987    1.580    0.367
       236 -11.0335     20.6962    121.0436   1.3790841683e+02   4.6774622223e+01    0.2205084    0.1478244 -45.13  0.001438514    1.805    0.446
       237  -9.0850    143.5035    121.4978   1.0694871069e+02   2.9930332601e+01    0.1409031    0.1350252  41.58 0.0008097209    1.069    0.065
       238 -10.9023     32.1278    110.8808   1.3392983192e+02   4.8063593064e+01     0.326948    0.1519281 -85.99  0.001470271    2.281    0.562
       239 -11.5580     31.0048    118.2634   1.3505338930e+02   4.6554748782e+01    0.3172858    0.1990494  63.11  0.001320732    1.607    0.378
       240 -10.3917     33.3155    115.3097   1.3413182461e+02   4.6998399734e+01    0.1944588    0.1424637 -54.73 0.0007228631    1.394    0.282
       241  -9.1335     74.3316    128.6410   1.2541251158e+02   3.9749757223e+01    0.1344616   0.08794551  72.71 0.0007041751    1.798    0.444
       242  -8.5768    130.6713    119.2748   1.0953105125e+02   3.2802770021e+01    0.1382232    0.1104157  74.84  0.000220184    1.590    0.371
       243 -11.0565    168.1747    113.3494   9.9378925352e+01   2.6367549194e+01    0.3279445    0.3035209  89.73 0.0008662044    1.372    0.271
       244  -9.5314     72.7293    115.0472   1.2364933431e+02   4.2874796780e+01    0.1734576    0.1540442 -67.59  0.001109948    1.058    0.055
       245  -8.7931     82.0141    114.2437   1.2102366365e+02   4.1813380770e+01    0.1544568    0.1095295  37.11 0.0002485985    1.481    0.325
       246  -9.4719    204.1062    111.2100   9.1439323066e+01   1.8937169952e+01    0.3226957    0.1443407  31.77  0.001151716    2.720    0.632
       247 -10.1161     69.9745    111.2989   1.2375085215e+02   4.4041890431e+01    0.1711354    0.1554002  54.59 0.0003168634    1.151    0.131
       248 -11.3202     56.8033    110.4919   1.2721287623e+02   4.5767670443e+01      0.35411    0.2271872  11.13  0.001876024    2.310    0.567
       249 -10.2440    134.5706    105.2558   1.0528373923e+02   3.4804376795e+01    0.3628629    0.1399406 -40.98  0.001301405    2.668    0.625
       250 -10.4677     28.4387    106.1335   1.3436052174e+02   4.9404029781e+01    0.1694212    0.1595955 -28.60 0.0006124931    1.338    0.253
       251  -8.9586    112.3075    104.3201   1.1081654621e+02   3.9162672491e+01    0.1418488    0.1101849 -10.85 0.0006048953    1.639    0.390
       252  -9.3355     35.5787    102.5042   1.3192934105e+02   4.9617379246e+01    0.1198407    0.0986369 -78.70 8.116502e-05    1.018    0.017
       253  -9.9279     62.8779     99.9080   1.2371582899e+02   4.7423960561e+01    0.1979823    0.1596875 -42.46 0.0005118442    1.302    0.232
       254  -8.9344    136.9859     94.2542   1.0182975512e+02   3.6457669710e+01     0.188274    0.1260287  43.68 0.0003848769    1.490    0.329
       255 -10.6442      1.7868     89.5367   1.4001827702e+02   5.4749159559e+01    0.2726298     0.105577 -80.13  0.001405061    2.061    0.515
       256 -10.2310     46.0731     90.0959   1.2694310453e+02   5.1435903290e+01    0.3274206    0.1628741  19.44  0.001573366    2.727    0.633
       257 -10.0754    199.9106    245.9084   1.1655903140e+02   2.7375095679e+00    0.1492743    0.1095721  51.29 0.0005279877    1.686    0.407
       258 -10.3576     74.5117    243.6998   1.3653948436e+02   1.9634832471e+01    0.2662213    0.2185996 -84.97  0.002451116    1.443    0.307
       259 -10.5113     73.2133    237.9690   1.3638706252e+02   2.0570171235e+01    0.2868611    0.1156457  55.46  0.001451618    2.061    0.515
