#   1 NUMBER                 Running object number                                     
#   2 MAG_AUTO               Kron-like elliptical aperture magnitude                    [mag]
#   3 X_IMAGE                Object position along x                                    [pixel]
#   4 Y_IMAGE                Object position along y                                    [pixel]
#   5 X_WORLD                Barycenter position along world x axis                     [deg]
#   6 Y_WORLD                Barycenter position along world y axis                     [deg]
#   7 A_WORLD                Profile RMS along major axis (world units)                 [deg]
#   8 B_WORLD                Profile RMS along minor axis (world units)                 [deg]
#   9 THETA_WORLD            Position angle (CCW/world-x)                               [deg]
#  10 FWHM_WORLD             FWHM assuming a gaussian core                              [deg]
#  11 ELONGATION             A_IMAGE/B_IMAGE                                           
#  12 ELLIPTICITY            1 - B_IMAGE/A_IMAGE                                       
         1 -12.3381    195.7618     37.5059   4.9675434776e+01   3.1523359894e+01     1.021189    0.9595444 -28.33  0.003617105    1.154    0.133
         2 -12.6225    205.3788     26.9381   4.5521388154e+01   3.0453890960e+01    0.9139661    0.8105922  10.93  0.001768189    1.400    0.286
         3 -10.3894     40.8562      7.4543   7.7783360934e+01   6.9362862472e+01    0.2964153    0.1380828 -36.63  0.001545109    2.101    0.524
         4 -11.0780    229.1416      2.9099   3.7158424228e+01   2.7428465239e+01    0.7489082    0.3255274  75.85  0.003494488    2.164    0.538
         5  -8.8594     62.3220      5.3099   6.7828157051e+01   6.6276236915e+01    0.1314893   0.08026984  15.78 0.0003733044    1.648    0.393
         6 -10.3018     58.2486      3.1525   6.8256082298e+01   6.7202822420e+01    0.3047578    0.1558264  31.38  0.001592943    1.850    0.459
         7 -10.3960     76.6380    171.0633   1.1081486313e+02   2.9763936127e+01    0.3186118     0.276367 -33.49 0.0009729384    1.527    0.345
         8  -8.8136    117.8175    250.3294   1.1180068201e+02   7.9679656996e+00    0.1745201    0.1263343  56.70 0.0006022465    1.167    0.143
         9 -13.3251     85.3411    229.9963   1.1577632099e+02   1.6254246324e+01     1.950522     1.317637 -81.88  0.009783504    1.546    0.353
        10 -14.5235     57.8087    247.0001   1.2213486237e+02   1.6899748182e+01     6.069172     1.995092  30.73   0.00426597    6.858    0.854
        11 -10.8041     72.3189    176.3210   1.1251670953e+02   2.9178919255e+01    0.4500811    0.2850741 -40.75  0.002223839    2.243    0.554
        12 -10.2615     47.7481    173.0355   1.1771609615e+02   3.3085739002e+01    0.3702087    0.1960103 -70.39 0.0009522353    1.668    0.401
        13  -9.4086    101.3522    171.7542   1.0509806285e+02   2.5776798044e+01    0.2505669    0.1792721 -52.50  0.001302857    1.470    0.320
        14  -8.9043     52.2829    171.7338   1.1654401322e+02   3.2841026903e+01     0.285271    0.1713177  75.12   0.00144048    1.702    0.413
        15 -11.8844     58.6516    132.1494   1.0947266613e+02   4.1448275901e+01     1.222737    0.4348092 -72.52  0.003972264    3.760    0.734
        16 -10.8566     84.4028    162.3367   1.0767768102e+02   3.0633463281e+01    0.5763903    0.3554039  64.90 0.0006050889    1.828    0.453
        17 -12.0340     72.9503    157.3197   1.0972750858e+02   3.3491356432e+01    0.5582592    0.5099521 -49.33  0.001142621    1.275    0.216
        18 -12.0193     68.5430    144.2247   1.0880936329e+02   3.7230975029e+01    0.8931216    0.5768868  84.22  0.002892739    1.810    0.448
        19  -8.3687     86.1719    145.3616   1.0439869461e+02   3.4377341122e+01    0.1953934    0.1718189  62.80 0.0008484426    1.134    0.118
        20  -9.7131    104.0563    140.1426   9.8722264651e+01   3.2649968518e+01    0.4561238    0.2932487 -30.63  0.001933955    2.199    0.545
        21 -10.6528     91.8419    140.0004   1.0191259785e+02   3.4756893924e+01    0.2883227    0.2511502 -46.66 0.0003917221    1.212    0.175
        22 -10.2437     90.9704    155.2024   1.0489213340e+02   3.1282491950e+01    0.5256467    0.3746814 -26.47  0.001783147    2.116    0.527
        23  -9.3415    112.7521    130.5963   9.4384962649e+01   3.3318728905e+01    0.2931403     0.234255 -26.57   0.00107249    1.500    0.333
        24  -8.7180    105.9049    130.7952   9.6258322343e+01   3.4534647634e+01    0.3125912    0.2430294  63.44  0.001542493    1.413    0.293
        25 -11.2007     43.4158    127.3406   1.1290777484e+02   4.4373600688e+01    0.4537475    0.3022067  85.80  0.001967054    1.593    0.372
        26  -9.4703     99.9920    126.6659   9.6955880166e+01   3.6569041611e+01    0.3339481    0.2571831 -15.56 0.0008251657    1.789    0.441
        27  -9.8673    118.9330    124.2319   9.1267151053e+01   3.3614736365e+01    0.5136653    0.3059916  12.92  0.001638754    3.855    0.741
        28  -8.4913    108.8976    119.3287   9.2810524046e+01   3.6686828721e+01    0.2061009    0.1903116  41.34 0.0004425772    1.138    0.121
        29  -9.5731    134.6523    113.3985   8.4422052965e+01   3.2834738203e+01    0.3929743    0.1428433 -41.20  0.001235772    2.858    0.650
        30 -10.7482     33.0599    108.5634   1.1288687261e+02   4.9916068695e+01      0.57899    0.1314777 -65.10  0.001961716    3.475    0.712
        31  -8.4172    205.5137    110.0626   6.7783322076e+01   1.7274527498e+01    0.2351258    0.1440212 -37.13  0.001017463    1.546    0.353
        32 -10.2524     47.8947    145.8704   1.1439431443e+02   3.9418583193e+01    0.2342885    0.2038839 -62.50 0.0008325463    1.197    0.165
        33  -9.9512    116.8203    108.9993   8.8026077375e+01   3.7536520622e+01     0.428666    0.2584654  25.52  0.001675398    2.290    0.563
        34  -8.6635    113.9955    208.0587   1.0757884271e+02   1.6040153892e+01    0.2227438    0.1432374  67.72  0.001148582    1.741    0.426
        35  -8.5345    115.0000    101.0057   8.6383287984e+01   3.9705253300e+01    0.2640181   0.08533624 -46.63 0.0007342722    2.972    0.664
        36  -9.2015     41.5094     91.9772   1.0704143787e+02   5.3043682029e+01    0.1881143    0.1692725 -48.46 0.0005778278    1.096    0.088
        37  -9.2551    193.8793    196.2020   8.9192745533e+01   4.0754059173e+00    0.3043822    0.1899375 -67.91  0.001194897    3.696    0.729
        38  -8.6589     61.4771     68.8404   9.4037953954e+01   5.5911051110e+01    0.2888255    0.1417861  47.38  0.001041079    2.783    0.641
        39  -8.9719    151.6196     54.9507   6.2786405512e+01   4.0254327279e+01    0.2784262    0.2175534  71.53 0.0005624504    1.396    0.283
        40 -12.0642    184.7657     46.6524   5.3968500001e+01   3.3061400450e+01    0.8878457    0.6725231   8.11  0.002274843    1.749    0.428
        41 -17.0720      7.8878    202.8719   1.2818804906e+02   3.0798961637e+01     15.85312     1.836213 -77.79   0.04526754    7.947    0.874
        42  -9.6128     72.7458    230.2983   1.1816473158e+02   1.7952706718e+01    0.3013104     0.228692  23.34  0.001700689    1.911    0.477
        43  -8.7428    153.9503     48.9589   6.0341560533e+01   4.0598110086e+01    0.2252482    0.2168374 -82.16 0.0004454257    1.073    0.068
        44  -8.8642     81.9820    195.0385   1.1269771115e+02   2.3682300237e+01    0.2017377    0.1787195  73.48  0.001020795    1.080    0.074
        45 -14.4117     50.9555    203.1910   1.1997551073e+02   2.6128939436e+01     2.959151     1.967464 -84.02   0.01856703    1.344    0.256
        46 -10.8812    161.8737    225.2710   1.0033212275e+02   4.9285340669e+00    0.4558677    0.3007322 -24.55  0.002446859    2.127    0.530
        47  -8.1926     98.9997    185.9751   1.0777991010e+02   2.3020673090e+01    0.2112544     0.134818  69.60  0.001030965    1.767    0.434
        48  -8.5874     99.3750    181.0840   1.0698690406e+02   2.4025992864e+01    0.2251453    0.1886192  36.58 0.0007296416    1.297    0.229
