#   1 NUMBER                 Running object number                                     
#   2 MAG_AUTO               Kron-like elliptical aperture magnitude                    [mag]
#   3 X_IMAGE                Object position along x                                    [pixel]
#   4 Y_IMAGE                Object position along y                                    [pixel]
#   5 X_WORLD                Barycenter position along world x axis                     [deg]
#   6 Y_WORLD                Barycenter position along world y axis                     [deg]
#   7 A_WORLD                Profile RMS along major axis (world units)                 [deg]
#   8 B_WORLD                Profile RMS along minor axis (world units)                 [deg]
#   9 THETA_WORLD            Position angle (CCW/world-x)                               [deg]
#  10 FWHM_WORLD             FWHM assuming a gaussian core                              [deg]
#  11 ELONGATION             A_IMAGE/B_IMAGE                                           
#  12 ELLIPTICITY            1 - B_IMAGE/A_IMAGE                                       
         1 -14.0956    206.5426      4.0387   5.3530435389e+01   3.2787222739e+01     1.500315    0.8674483  63.61  0.004771812    1.664    0.399
         2 -15.0938    185.3992     32.3632   6.2883237828e+01   3.4783681206e+01     2.351272     1.525377  13.71   0.01032661    2.799    0.643
         3 -10.8831     58.4842      2.4995   7.9931730580e+01   6.7585895498e+01    0.1234009   0.09826833  23.49  6.24276e-05    1.006    0.005
         4  -9.8461    106.6601      1.3221   6.5874428916e+01   5.7498108792e+01    0.1271487   0.09491573 -72.54 0.0007050581    1.720    0.419
         5 -10.9658    173.7066    230.3824   1.1093640728e+02   1.5473602869e+00    0.2109964    0.1687446 -58.52  0.001033697    1.671    0.402
         6 -14.0598     11.5892    206.7279   1.4315861233e+02   2.9933091790e+01    0.9286774    0.5933548  26.67  0.005772392    1.944    0.485
         7 -18.7702     34.6991    242.8676   1.4081030172e+02   2.0076333110e+01     7.057806     6.066395  33.16   0.05206646    1.533    0.348
         8 -10.5723     88.8419    203.5916   1.2575769226e+02   2.0919873356e+01    0.4305698    0.2526342  52.36  0.001724202    1.573    0.364
         9 -10.2090    163.8319    204.7065   1.0879785530e+02   7.7348369064e+00    0.2325812    0.2030489 -54.12 0.0004477566    1.329    0.248
        10 -19.1363     24.5432    107.8918   1.2975912261e+02   5.2174462941e+01     17.75321    0.7683737 -67.27   0.02564522   19.325    0.948
        11 -12.6902    194.1587    193.9538   1.0041537999e+02   4.2283664828e+00     1.040183    0.5936058 -56.63  0.003513825    2.646    0.622
        12 -11.6187    111.6333    213.0262   1.2177726546e+02   1.5234816868e+01    0.4718481    0.2515119 -78.43  0.001068603    3.036    0.671
        13 -10.6545    210.0048    199.9682   9.8393985182e+01   4.6064107821e-01    0.2002882    0.1783643   1.19 0.0004591732    1.059    0.055
        14 -13.2299    113.3713    196.8215   1.1902750258e+02   1.8373189277e+01    0.5043243    0.4586113 -44.13  0.002927464    1.264    0.209
        15 -11.1329    106.7755    210.3988   1.2252168805e+02   1.6582709493e+01    0.4403709    0.2255656  36.82  0.002005317    1.799    0.444
        16 -10.4445    153.9385    195.9458   1.0945437749e+02   1.1231903360e+01    0.2241327    0.1732559  69.93  0.000856899    1.648    0.393
        17 -11.6808    106.9537    206.0449   1.2188116176e+02   1.7473080244e+01    0.4891371    0.3548002  -8.17  0.002314143    2.355    0.575
        18  -9.3421    180.3074    192.6160   1.0305243640e+02   6.9849780290e+00    0.1392439     0.114141  84.21 0.0007020815    1.799    0.444
        19 -11.1140    116.9957    213.0554   1.2057067243e+02   1.4333289762e+01    0.2258207    0.1965535 -72.15 0.0004753576    1.269    0.212
        20 -10.7646    167.4070    188.4993   1.0507631208e+02   1.0178614609e+01    0.2870703    0.2473549 -78.66   0.00154354    1.483    0.326
        21 -11.4900    115.2265    209.6498   1.2049011185e+02   1.5330799456e+01    0.2994686    0.1908882  36.66 0.0007794581    1.451    0.311
        22 -11.7519    207.0574    180.0744   9.5109495451e+01   4.3511319464e+00     0.655515    0.3819937  25.20  0.002602577    1.970    0.492
        23 -11.3758     99.3295    180.6700   1.1993704887e+02   2.4420139538e+01    0.3061544    0.2638068  34.71  0.000597255    1.213    0.176
        24 -12.3255    105.0299    199.9490   1.2146579356e+02   1.9107707484e+01    0.5025365    0.3801877 -51.88  0.002094744    1.480    0.324
        25 -11.9157     71.9153    174.4329   1.2599439637e+02   3.0222913470e+01    0.5311465     0.216546  51.16  0.001345103    2.625    0.619
        26 -11.4729    195.7933    170.0772   9.5320604615e+01   8.2708690016e+00    0.4438432    0.3982558 -73.57  0.001232388    1.412    0.292
        27 -10.8390    193.8026    164.9564   9.4651216216e+01   9.6247389818e+00     0.385734    0.3118323  54.33  0.001550772    1.393    0.282
        28 -11.6228    143.7248    172.4485   1.0744809959e+02   1.8091407439e+01    0.5415235    0.3430971 -86.95  0.001935051    3.212    0.689
        29 -11.1202    137.5921    171.1304   1.0867840511e+02   1.9584797762e+01    0.3457011    0.2924893 -66.18  0.001282858    1.287    0.223
        30  -9.8711    195.7013    174.3186   9.6217119829e+01   7.4985037295e+00    0.2465401    0.2033299  85.43 0.0008594448    1.792    0.442
        31 -10.7710    146.2890    168.4279   1.0602948130e+02   1.8460361187e+01    0.2968223    0.2482853 -27.67 0.0008365393    1.336    0.251
        32 -10.1886     71.4096    166.7671   1.2501823943e+02   3.2158572817e+01    0.1910968    0.1245088 -55.71 0.0002498015    1.546    0.353
        33  -9.6731     40.3143    167.3111   1.3324971789e+02   3.6024713107e+01    0.1282625    0.0959532 -43.58 0.0003441286    1.634    0.388
        34 -11.0652    229.8319    165.8399   8.7937969628e+01   2.7334421279e+00    0.1818435    0.1609766 -51.18 0.0007866486    1.342    0.255
        35  -9.7448      7.3412    162.0424   1.4106105391e+02   4.0411323284e+01    0.1640198    0.1276819  89.92 0.0006290948    1.023    0.022
        36  -9.6598      2.9544    161.8060   1.4211468484e+02   4.0800063770e+01    0.1308693   0.09394584  28.93 0.0003755212    1.662    0.398
        37  -9.6573    223.3406    163.6507   8.8648106417e+01   4.2632399320e+00    0.1351198    0.1108036 -73.94  0.000704482    1.796    0.443
        38 -11.1474    141.4360    158.1137   1.0508271949e+02   2.1724833964e+01    0.2737353    0.2565082  76.47 0.0003788059    1.113    0.101
        39 -10.7931    167.4395    155.2428   9.8262811484e+01   1.6946425389e+01     0.239606    0.1899769  84.42  0.001109498    1.708    0.415
        40 -10.5681     97.1834    213.2084   1.2506668964e+02   1.7541467525e+01    0.3240522     0.199907  34.51  0.001638021    1.581    0.368
        41 -10.8066    129.4992    140.4676   1.0425339094e+02   2.8222365911e+01    0.5299862    0.3668434  11.90  0.001927418    2.204    0.546
        42 -11.2153    134.2345    148.2346   1.0476533208e+02   2.5447846544e+01    0.5392108    0.2822698 -61.83  0.001939174    2.501    0.600
        43 -11.6674    134.0000    143.9862   1.0387734641e+02   2.6473709408e+01     0.788782    0.2549888 -55.00  0.002175404    4.005    0.750
        44 -10.4732    174.9969    149.0091   9.5169614939e+01   1.6645463639e+01    0.2340751    0.2292301  75.47 0.0005975798    1.087    0.080
        45  -9.7270    121.9435    150.0000   1.0835724251e+02   2.7519197965e+01     0.251579   0.08699354  40.34 0.0003787298    2.839    0.648
        46 -11.7794    146.3786    147.2287   1.0147764507e+02   2.3135827716e+01    0.3639193    0.3009825  57.25   0.00175208    1.252    0.201
        47 -12.4001    109.4405    140.1834   1.0964022763e+02   3.2294560165e+01    0.6076628    0.3639661 -34.90  0.002414345    2.134    0.531
        48 -12.4467     98.3625    140.1465   1.1276269392e+02   3.4357660706e+01    0.2901296    0.2796605  26.45  0.000405256    1.115    0.103
        49 -10.2863     83.2207    134.1693   1.1594092190e+02   3.8430377448e+01    0.2038304    0.1682464  71.06 0.0003959731    1.305    0.234
        50 -11.3349    106.0995    130.8797   1.0849947591e+02   3.5176601002e+01    0.3636352     0.329192 -79.84  0.001079344    1.138    0.121
        51 -11.4290    104.3181    126.7499   1.0805372887e+02   3.6510328735e+01     0.350934    0.2804467 -43.08 0.0006351228    1.280    0.219
        52 -12.1807    117.3141    129.9630   1.0510722961e+02   3.3185946554e+01     0.528574    0.4179446  25.23  0.001540515    1.428    0.300
        53 -11.6404      2.9368    118.3186   1.3815744516e+02   5.1148040610e+01    0.3424236    0.1682532 -68.15  0.001465237    1.587    0.370
        54 -12.4192      2.7652    126.3064   1.3906468065e+02   4.9247571797e+01    0.5234837    0.2254271 -72.32  0.002139449    1.823    0.451
        55 -12.5106    135.6460    126.1136   9.9206192921e+01   3.0209512238e+01     1.110174    0.2611129 -49.11  0.002766896    4.610    0.783
        56 -11.0052    160.7918    127.8579   9.3402347694e+01   2.4213012328e+01    0.4058142    0.3110276 -76.10  0.001483399    1.680    0.405
        57 -11.5813    120.8083    124.2870   1.0275645974e+02   3.3798577539e+01    0.6139348    0.3109277 -26.81  0.001703648    4.448    0.775
        58 -10.1925     70.9940    121.2202   1.1698423359e+02   4.3548235708e+01    0.1880136    0.1206934  33.87 0.0004870344    1.653    0.395
        59 -10.7172    111.3547    119.2788   1.0418812539e+02   3.6905395103e+01    0.2768916    0.2669376  44.10 0.0003031347    1.046    0.044
        60 -10.7221    168.0361    112.8125   8.7934081449e+01   2.5678056061e+01    0.4279227    0.3034566 -86.30  0.001451127    2.093    0.522
        61  -9.9586    138.5376    124.4699   9.8042238742e+01   2.9944541171e+01    0.2822822    0.1488407  54.95 0.0007764014    2.167    0.538
        62 -10.5259      2.7127    111.9880   1.3749673954e+02   5.2670159235e+01    0.1849993    0.1343436 -70.11  0.001165279    1.101    0.092
        63 -10.3027    205.6520    110.1258   7.9758514724e+01   1.7527432898e+01    0.2677772    0.2166236  45.84 0.0005983031    1.318    0.241
        64 -11.0876    159.4070    205.6873   1.0993303656e+02   8.3462296772e+00    0.3899876    0.2624573  64.85  0.001813536    2.111    0.526
        65 -12.6915     61.7371    109.0692   1.1734007869e+02   4.7847593750e+01    0.5476148    0.3731569  36.23  0.002740805    1.564    0.361
        66 -11.7581     67.8832    104.5496   1.1420276904e+02   4.8064481822e+01     0.443294    0.3049713  24.87  0.002162359    1.627    0.385
        67 -10.8422     41.7294     91.9643   1.2049723557e+02   5.4372444300e+01    0.2091781    0.1911306   3.77 0.0004066101    1.195    0.163
        68 -12.4767    172.8610     71.8037   7.5801543316e+01   3.2184745086e+01    0.5496135    0.3476078 -81.83  0.001047418    2.330    0.571
        69  -9.4157     74.5141     73.9235   1.0326662859e+02   5.3893081958e+01    0.2006632     0.135052 -44.20 0.0003193603    1.434    0.302
        70  -9.7209    108.9914     63.2064   8.8289500758e+01   4.9174997147e+01    0.2015262    0.1842338  36.67 0.0002855376    1.047    0.045
        71  -9.7670    168.3829    248.1937   1.1464867189e+02  -3.9389822278e-01    0.1393524    0.1224772 -62.98 0.0001498795    1.557    0.358
        72 -13.8594    171.0567     47.4069   6.9196685568e+01   3.6419177268e+01     0.852704    0.7558815  15.83 0.0008605603    1.388    0.280
        73 -10.9008     93.8554    205.2591   1.2480831213e+02   1.9768352048e+01    0.5623758    0.3232411 -36.08   0.00237581    2.927    0.658
        74 -11.2110    159.6775    236.2039   1.1469128020e+02   2.8954745213e+00    0.1890713    0.1463387  40.48  0.000773795    1.136    0.120
