#   1 NUMBER                 Running object number                                     
#   2 MAG_AUTO               Kron-like elliptical aperture magnitude                    [mag]
#   3 X_IMAGE                Object position along x                                    [pixel]
#   4 Y_IMAGE                Object position along y                                    [pixel]
#   5 X_WORLD                Barycenter position along world x axis                     [deg]
#   6 Y_WORLD                Barycenter position along world y axis                     [deg]
#   7 A_WORLD                Profile RMS along major axis (world units)                 [deg]
#   8 B_WORLD                Profile RMS along minor axis (world units)                 [deg]
#   9 THETA_WORLD            Position angle (CCW/world-x)                               [deg]
#  10 FWHM_WORLD             FWHM assuming a gaussian core                              [deg]
#  11 ELONGATION             A_IMAGE/B_IMAGE                                           
#  12 ELLIPTICITY            1 - B_IMAGE/A_IMAGE                                       
         1 -13.7437    206.5444     35.0997   3.8966602155e+01   2.9940469139e+01    0.6066639    0.5769227 -80.69  0.001295518    1.206    0.171
         2 -14.0001    231.7054      8.7011   3.1012318822e+01   2.7663712056e+01    0.8058633    0.6317258 -71.63  0.004367508    1.029    0.028
         3 -10.7654     61.6914      8.3205   5.9350250017e+01   6.5459901987e+01    0.1059174   0.09734619 -79.12 0.0004444417    1.642    0.391
         4 -10.6740     59.7873    218.1477   1.1062463859e+02   2.0878086886e+01     0.191061    0.1448933  69.06 0.0004374873    1.188    0.158
         5 -13.7475     44.1584    194.2406   1.1184888714e+02   2.8249254192e+01     4.269616    0.6735252  48.49   0.01006341    8.050    0.876
         6 -13.1201     28.7837    216.2615   1.1721826894e+02   2.4954243568e+01    0.8417953    0.3476796  77.25  0.002799121    3.002    0.667
         7 -13.7664     39.4297    247.0075   1.1721639228e+02   1.7365051122e+01    0.5653664    0.4384852  -6.82  0.003515238    2.283    0.562
         8 -13.9248     28.5048    249.4970   1.1946091637e+02   1.8112586583e+01    0.3438053    0.2469936  31.06  0.001427524    1.591    0.371
         9 -14.4649     55.5612    234.2844   1.1300499708e+02   1.7982174023e+01    0.5926139    0.4923404  62.15  0.001770146    1.029    0.028
        10 -18.1218     11.5594    241.7623   1.2220897821e+02   2.1407637914e+01     9.801848     7.236832  85.48   0.02755052    1.184    0.156
        11 -10.7911     76.1233    210.4200   1.0608134826e+02   2.0390017634e+01    0.2954041    0.1860472 -86.23   0.00140688    1.795    0.443
        12 -10.2429     62.4093    250.6416   1.1296498214e+02   1.3854371167e+01    0.2093981    0.0866823  41.32 0.0005823512    1.920    0.479
        13 -10.0153     88.4242    209.7092   1.0312580115e+02   1.8771725124e+01    0.1813727    0.1252553 -53.82   0.00094844    1.578    0.366
        14 -12.1723    104.9104    208.6341   9.9115381575e+01   1.6487198251e+01     0.272112    0.2109683 -74.69  0.001486294    1.412    0.292
        15 -12.4242     49.0705    248.4917   1.1543798457e+02   1.5931490090e+01    0.2239455    0.1583217 -87.67 0.0006907579    1.390    0.281
        16 -10.9281     49.7821    217.3628   1.1276388339e+02   2.2305941425e+01    0.3734115    0.2149681  16.41  0.001769103    2.657    0.624
        17 -12.4742    111.3335    203.8616   9.6911042854e+01   1.6507103167e+01    0.2682141       0.2383  45.65 0.0004514254    1.043    0.041
        18 -12.7921    107.6150    203.8360   9.7790252654e+01   1.7111308939e+01    0.4294699    0.2547878  61.36  0.001901215    2.073    0.518
        19 -16.7095      5.9602    209.8535   1.2158251485e+02   2.8603993162e+01     4.874332    0.5913781 -66.37    0.0164189    5.120    0.805
        20 -12.7362    122.7151    199.4488   9.3527238336e+01   1.5596025238e+01    0.3991877    0.2682764 -79.85  0.001569003    2.044    0.511
        21 -10.2358     40.9066    200.8521   1.1325204889e+02   2.7082316730e+01    0.1772943    0.1644579  89.70  0.000492804    1.167    0.143
        22 -12.0610    193.6706    195.9995   7.7110280103e+01   4.1395856525e+00    0.6745985    0.3346903 -61.83  0.002031428    5.656    0.823
        23 -12.7771    112.2311    196.5674   9.5585668709e+01   1.7979321628e+01    0.5170888    0.3136121   0.05  0.001801861    3.820    0.738
        24 -11.2212     72.0000    248.1053   1.1081968527e+02   1.3094166644e+01    0.2663597    0.1551242 -71.30 0.0009354734    1.885    0.469
        25 -10.6711     59.8244    197.1852   1.0841198190e+02   2.5629215113e+01    0.1943388    0.1573395  72.67 0.0003792577    1.130    0.115
        26 -10.7939     64.5524    205.1498   1.0818167643e+02   2.3164893921e+01    0.6006486    0.2188186 -69.98  0.002342217    2.917    0.657
        27 -10.1732    149.3101    192.3177   8.6073600906e+01   1.2527570994e+01    0.1463099     0.111425  -6.66 0.0005872436    1.639    0.390
        28 -12.5900     56.6546    210.7789   1.1060027264e+02   2.2914474719e+01    0.8067784    0.2883826  44.73  0.002950541    2.435    0.589
        29 -13.4571     57.7221    183.9503   1.0737394797e+02   2.9053889034e+01    0.7483685    0.6654769  89.56  0.003729445    1.037    0.036
        30 -10.6917     49.8445    180.8454   1.0899469429e+02   3.0785398939e+01    0.2172227    0.1787684  75.45 0.0005015951    1.116    0.104
        31 -10.1586     79.6848    182.6931   1.0161215471e+02   2.6337169053e+01    0.2891168     0.164551  89.53  0.001163166    2.492    0.599
        32 -11.3083     99.3186    180.9212   9.6307716389e+01   2.3717423577e+01    0.2649271     0.213363  29.06 0.0006493175    1.307    0.235
        33 -10.4160     42.7437    179.8098   1.1067194076e+02   3.1868225485e+01    0.2076874    0.1845552 -66.44 0.0005033563    1.180    0.153
        34 -10.2378     45.5240    176.4891   1.0958751904e+02   3.2359893940e+01    0.2459434     0.167458 -12.05  0.001109125    2.394    0.582
        35 -12.5931    103.7492    172.3888   9.3724933684e+01   2.5024199914e+01    0.5133993    0.3444641 -39.82  0.002361594    1.709    0.415
        36 -11.9837     70.6791    170.7101   1.0221690003e+02   3.0565628209e+01    0.3276128    0.2697892 -38.01 0.0006938688    1.411    0.291
        37 -12.8138     75.2041    165.8598   1.0025410964e+02   3.1124178687e+01    0.5073152    0.3925484 -26.04  0.002561365    1.665    0.399
        38 -13.6274     83.4743    157.8094   9.6634616000e+01   3.1891568358e+01    0.9007314    0.6775488 -71.57  0.004513588    1.343    0.255
        39 -13.7775     71.9203    152.4298   9.8961471462e+01   3.4965849223e+01    0.5726795    0.4697745  80.33  0.001076312    1.281    0.219
        40 -15.4761     69.8554    144.3344   9.8141717655e+01   3.7303612129e+01     3.164191     1.526119  70.46   0.00257656    6.689    0.851
        41 -11.6087     31.5666    156.5012   1.1093100555e+02   3.8811936559e+01    0.2554257    0.1330504  26.04  0.001212237    2.169    0.539
        42 -12.5373     90.3463    151.0923   9.3479682933e+01   3.2473808816e+01    0.6563724    0.4394687 -25.17  0.002053301    2.128    0.530
        43 -13.1564     54.6291    148.2847   1.0326770565e+02   3.8325535267e+01    0.6214157    0.4140347 -66.81   0.00312379    1.384    0.278
        44 -11.8033    134.1807    147.3186   8.0825154632e+01   2.5399705226e+01    0.8097788    0.2289768 -55.90  0.001941971    5.399    0.815
        45 -11.6920     39.5435    146.7298   1.0741648366e+02   4.0449814980e+01    0.2940021    0.2021371  51.13  0.001551951    1.536    0.349
        46 -11.3845    103.6229    137.5248   8.6937413246e+01   3.3539844449e+01     0.589542    0.3321126 -25.22  0.001966767    3.307    0.698
        47 -11.3161    105.9290    130.8201   8.4781557298e+01   3.4742044717e+01    0.3731509     0.331829 -75.30  0.001216519    1.185    0.156
        48 -12.3363     91.2563    136.9648   9.0392956415e+01   3.5832158439e+01     0.295671    0.2649848 -37.82 0.0004197219    1.155    0.134
        49 -10.8642    185.8321    173.0613   7.4280354718e+01   9.8684746801e+00    0.2579366    0.2094454  34.81  0.001100869    1.243    0.195
        50 -13.2022     44.0080    130.3989   1.0356687256e+02   4.4087776944e+01     0.561107    0.3157126  87.76  0.002130706    2.488    0.598
        51 -11.2827     33.6981    165.7433   1.1143147418e+02   3.6300978551e+01    0.4322562    0.2066247  50.89  0.001775202    2.184    0.542
        52 -11.0836     72.2772    244.6779   1.1045495330e+02   1.3723655161e+01    0.2461349    0.1610717  55.12 0.0006617059    1.312    0.238
        53  -9.4796    120.5067    165.5503   8.8111380615e+01   2.3717945721e+01    0.1501479    0.1452244  64.33 0.0001238778    1.023    0.023
        54 -10.9190    112.4361    128.9712   8.2504211548e+01   3.3958675501e+01    0.2869063    0.2209481  16.99  0.000650336    1.567    0.362
        55 -11.5559     54.4866    206.4800   1.1066401716e+02   2.4161022452e+01     0.287184    0.2046177  47.61 0.0008126546    1.283    0.221
        56 -11.0473     99.5515    124.6533   8.5212743835e+01   3.7392040035e+01    0.2927163    0.2431745  -5.54 0.0006598823    1.450    0.310
        57 -12.3283     54.1680    118.4248   9.8105125226e+01   4.5895244786e+01    0.3760654    0.2036906 -68.35  0.001627589    1.924    0.480
        58 -10.0409    108.3107    118.0322   8.1050030663e+01   3.7326618167e+01    0.2107498    0.1924096 -49.73 0.0002966025    1.078    0.072
        59 -10.4760    231.1556    113.8547   5.3356122756e+01   1.2486516383e+01    0.2056425    0.1689764 -58.02 0.0007980814    1.189    0.159
        60 -12.3708     32.7647    109.2004   1.0352408168e+02   5.0490849725e+01    0.5294806    0.1358482 -59.25  0.001872112    2.943    0.660
        61 -12.9088     43.2916    109.1432   9.9894335015e+01   4.9440569657e+01    0.3771534    0.3293022 -57.62  0.001152313    1.036    0.035
        62 -12.4157     19.3128    110.8112   1.0837704390e+02   5.1231552457e+01    0.2691815    0.2213059  52.85 0.0007486478    1.394    0.283
        63 -10.1077    205.5290    110.4484   5.6724705348e+01   1.8182897631e+01    0.1425361    0.1312247 -51.63 0.0002722634    1.006    0.005
        64 -12.7237     51.8471    108.4347   9.6808690137e+01   4.8628283230e+01    0.4241486    0.2388145 -49.23   0.00197352    1.608    0.378
        65 -11.5139     33.6626    100.4683   1.0152307194e+02   5.2514471350e+01    0.2447747    0.1995121 -66.30 0.0007685813    1.164    0.141
        66 -10.7727    155.7620     87.9622   6.0797172826e+01   3.3465598320e+01    0.3781392    0.2503283 -78.94  0.001526156    2.338    0.572
        67 -10.2557     75.1143     84.8823   8.2739189331e+01   5.0760217501e+01    0.2006295    0.1933025  75.75  0.000310391    1.199    0.166
        68 -11.6025     13.3697     59.9233   1.0037563835e+02   6.3259028519e+01    0.2101904    0.1636523 -13.20 0.0004730151    1.254    0.202
        69 -12.7949    186.1122     52.5045   4.5825773805e+01   3.2239955241e+01    0.4239118    0.3347032  54.33 0.0008223329    1.333    0.250
        70 -13.7149    198.0156     43.5605   4.1976766873e+01   3.0748328689e+01    0.8305499    0.7425007 -74.15  0.002983939    1.052    0.050
        71 -10.3730    168.0039    231.4989   8.8503353608e+01   1.9214300717e+00    0.1963911    0.1147967  34.00 -0.0003501561    1.514    0.340
        72 -11.1120     57.3873    223.7710   1.1168626122e+02   1.9965354442e+01    0.4443908    0.1702278  56.00  0.001813073    2.813    0.645
