#   1 NUMBER                 Running object number                                     
#   2 MAG_AUTO               Kron-like elliptical aperture magnitude                    [mag]
#   3 X_IMAGE                Object position along x                                    [pixel]
#   4 Y_IMAGE                Object position along y                                    [pixel]
#   5 X_WORLD                Barycenter position along world x axis                     [deg]
#   6 Y_WORLD                Barycenter position along world y axis                     [deg]
#   7 A_WORLD                Profile RMS along major axis (world units)                 [deg]
#   8 B_WORLD                Profile RMS along minor axis (world units)                 [deg]
#   9 THETA_WORLD            Position angle (CCW/world-x)                               [deg]
#  10 FWHM_WORLD             FWHM assuming a gaussian core                              [deg]
#  11 ELONGATION             A_IMAGE/B_IMAGE                                           
#  12 ELLIPTICITY            1 - B_IMAGE/A_IMAGE                                       
         1 -11.0661     19.0959     27.9432   8.1329932319e+01   6.9319922582e+01     1.052623     0.270636 -47.35   0.00399521    4.138    0.758
         2  -9.1660     15.4336     42.0220   8.8776586790e+01   6.7273409950e+01     1.367342    0.7109573 -66.16  0.005941541    3.608    0.723
         3 -10.6362     72.8855     38.0493   6.1927279061e+01   5.9773427995e+01     1.152542    0.4876607 -20.69  0.003688468    4.047    0.753
         4 -12.4765    105.1278     20.6775   4.6223842933e+01   5.5081324292e+01    0.2964018    0.2819518  49.12 0.0003500309    1.101    0.092
         5  -9.4119     42.3702     30.8032   7.1057123625e+01   6.5951664781e+01    0.6567138    0.2524481 -32.14  0.002869901    2.752    0.637
         6  -9.5618     30.7732     20.7937   7.2070786839e+01   6.8973709899e+01    0.5381672    0.3355668  -5.05  0.003142181    1.641    0.391
         7 -10.0463     31.1792     12.4504   6.7866068351e+01   6.9978394421e+01    0.3861006    0.3051056  40.11  0.002337941    1.561    0.359
         8 -10.5345     42.2118     15.4313   6.4184321732e+01   6.7974753143e+01    0.5407212    0.3015759  29.56  0.002387495    1.586    0.370
         9 -11.0039     28.6053     30.0703   7.7299095804e+01   6.7912013234e+01    0.8748766    0.4381616 -15.84  0.004008232    2.690    0.628
        10 -10.7653     37.1472     26.3361   7.1509812077e+01   6.7337016744e+01    0.5054711    0.3003387 -44.42  0.002170996    2.091    0.522
        11 -10.8091     85.6516     22.0176   5.1644490891e+01   5.9175197884e+01    0.4090782    0.2819003  76.49  0.001236129    1.989    0.497
        12 -11.7782     74.0205      4.5235   4.7880597761e+01   6.3206873915e+01    0.5022631    0.3998017  15.83  0.002061081    1.256    0.204
        13  -9.5099     79.7996      4.1848   4.6174109261e+01   6.2044093321e+01    0.2706982    0.1521064  52.28  0.001051122    1.433    0.302
        14 -10.0522     77.0820     11.7366   4.9996501119e+01   6.1963736176e+01    0.4419262    0.1916066  47.59 0.0009759493    1.863    0.463
        15 -10.3090     69.8027     11.4786   5.2075268493e+01   6.3448486689e+01    0.2490612    0.1855873  39.06 0.0002412648    1.105    0.095
        16 -10.3535     72.9262     15.1566   5.2651018343e+01   6.2477282251e+01    0.3717838    0.2301679  62.91  0.000967696    1.844    0.458
        17 -10.4493     68.1719     16.5571   5.4761511446e+01   6.3269029990e+01    0.4372804    0.3164937  81.00  0.001923786    2.354    0.575
        18 -11.8548     61.8239     17.2671   5.7245268937e+01   6.4396104646e+01    0.5178297     0.309791  19.45  0.001487954    1.823    0.451
        19 -10.7356    166.8150      8.1750   3.2634065920e+01   4.2039073386e+01    0.9737952    0.3115163  60.03  0.004239495    2.613    0.617
        20 -10.6297    153.7566     22.7376   3.8090956023e+01   4.3596698077e+01    0.4743603    0.2668738  71.90 0.0003397118    1.601    0.375
        21 -10.9158    182.0894     18.5130   3.3501704873e+01   3.7529148775e+01    0.3110058    0.2296192  55.63  0.001210083    1.479    0.324
        22 -11.8214    177.6439      3.3201   3.0355830944e+01   4.0046238195e+01    0.3452463    0.2574949  67.68 0.0005231412    1.274    0.215
        23 -10.7991    183.5112     13.0429   3.2065683497e+01   3.7786821112e+01    0.6042505    0.2771237  81.03  0.002437006    2.077    0.519
        24 -10.8517    175.3667     12.7931   3.2847692154e+01   3.9644224567e+01    0.4946961     0.354594  69.45  0.003100365    1.258    0.205
        25 -10.8405    149.5397     16.9904   3.7106244536e+01   4.5178088716e+01    0.6136384    0.3102034  71.29  0.003052616    1.756    0.430
        26 -10.8168    145.7265     12.6182   3.6420549866e+01   4.6491455852e+01    0.8459675    0.3721301  57.57  0.003866052    1.941    0.485
        27 -11.3437    154.9877      3.9834   3.2890848549e+01   4.5127546006e+01    0.5342229    0.2138657  54.38  0.001667029    2.328    0.570
        28 -12.2287    161.0585      2.1355   3.1734193082e+01   4.3897909881e+01    0.3989756    0.2859094  69.21 0.0009148279    1.209    0.173
        29 -10.8265    219.5717     19.0843   3.0150325800e+01   2.9388331856e+01    0.4980873    0.2598584  87.18  0.002383758    1.823    0.451
        30  -9.7409    225.6539     16.3695   2.9138647065e+01   2.8465076567e+01    0.2746983    0.1640193 -41.46  0.001483326    1.601    0.375
        31 -10.7971    230.8286     14.6363   2.8426967079e+01   2.7632608781e+01    0.3516716    0.2805469 -71.14  0.001889922    1.087    0.080
        32 -10.8161    165.8665     18.2285   3.5291580945e+01   4.1258833148e+01    0.3854491    0.3223033  23.86  0.001204857    1.626    0.385
        33  -9.4833    200.7363     13.3722   3.0531131619e+01   3.3975130664e+01    0.2853923    0.1998342  23.44  0.001483686    2.720    0.632
        34 -11.1432    132.9961     12.5965   3.8302319774e+01   4.9458400896e+01    0.2652741    0.2143262 -41.57 8.868191e-05    1.395    0.283
        35  -9.6558    128.3508     11.3389   3.8665835531e+01   5.0650854728e+01    0.5974973    0.2404216 -21.46  0.002437024    3.174    0.685
        36 -11.1428     23.8269      7.1477   6.8910116289e+01   7.1610353497e+01    0.4171007    0.3303421  46.74  0.002288208    1.903    0.475
        37 -10.5756     16.2580      3.3907   7.1054098777e+01   7.3011850880e+01    0.4657858     0.270256  15.26  0.002330291    1.523    0.343
        38 -10.5944      6.8178      9.2125   7.9721084017e+01   7.3308662884e+01    0.5221944    0.2760404  11.55  0.002613708    1.777    0.437
        39 -10.9823      8.4072     15.3116   8.1726737044e+01   7.2294990231e+01    0.5634841    0.2487773  17.46  0.001670141    2.231    0.552
        40 -12.4558     14.4010     11.3174   7.6256032465e+01   7.2240520642e+01    0.3482415    0.2911403 -23.28 0.0002648814    1.395    0.283
        41  -9.7680    244.2630     13.3332   2.7285483065e+01   2.5196700374e+01    0.2995172    0.2328646  20.93  0.001897173    2.762    0.638
        42 -10.8124    208.4107      3.5049   2.7836594545e+01   3.3368418722e+01    0.4509472    0.2694694 -73.59  0.001646259    1.433    0.302
        43  -9.6937    210.5586     13.7306   2.9780603123e+01   3.1852005866e+01    0.2655597    0.1516441 -38.91  0.001305446    1.745    0.427
        44  -9.9634    211.8550      9.1615   2.8736641494e+01   3.2070293327e+01    0.2864016    0.1969877 -67.96  0.001280895    1.192    0.161
        45  -9.6409    117.0487     14.8216   4.1762172741e+01   5.2942048817e+01    0.2169387    0.1842081  16.54  0.000804845    1.361    0.265
        46 -10.6328     97.6970     12.3378   4.4933830437e+01   5.7524326775e+01    0.4591846     0.213757  47.71  0.001160559    1.810    0.447
        47  -9.4390     98.1990      6.4806   4.2691922816e+01   5.7909515431e+01    0.2618176    0.2137802  18.31  0.001230739    1.336    0.252
        48  -9.1534     92.6878      7.9412   4.4462526103e+01   5.8997347515e+01    0.4119175    0.1637012  47.18  0.001919537    2.079    0.519
        49 -12.1549     91.7782      2.6998   4.2701420837e+01   5.9608164856e+01    0.2804818    0.2302659 -64.85  0.001836003    1.551    0.355
        50 -10.0091    218.4167     10.9197   2.8598004643e+01   3.0530939975e+01    0.3463725    0.1811936 -59.40  0.001301667    1.640    0.390
        51 -10.1807    191.8633      8.9158   3.0334683779e+01   3.6361716779e+01    0.4295775    0.2951937 -48.52  0.002759685    1.408    0.290
        52 -10.7393    195.7020      3.5374   2.8825554932e+01   3.6061187806e+01    0.4046015    0.2388397  68.27  0.001977326    1.554    0.356
        53  -8.8681     51.5152     11.5282   5.8494371712e+01   6.6850875576e+01    0.1887992     0.138593   1.83  0.000675417    1.316    0.240
        54  -9.0154     52.5543      8.5674   5.6712892118e+01   6.6961460375e+01    0.1836337    0.1362913  43.67  0.001191972    1.266    0.210
        55  -8.4624     49.7432      7.3419   5.7211100329e+01   6.7574380176e+01     0.254858    0.1622635   9.62  0.001520296    1.620    0.383
        56  -8.8872     56.0076     10.7836   5.6451716810e+01   6.6126421788e+01     0.210678    0.1375619   5.92  0.001239929    1.630    0.387
        57  -9.2772    120.0117      9.5907   3.9525069742e+01   5.2728956574e+01    0.2116897    0.1922628 -19.20 0.0005749754    1.309    0.236
        58  -8.2579    224.3114      8.6490   2.7728179834e+01   2.9582755972e+01    0.1253095    0.0632518 -64.50 0.0007045225    1.721    0.419
        59 -10.7254    106.6756      5.6172   4.0656412127e+01   5.6089981397e+01    0.4478567    0.3931338  -0.22  0.002318847    1.335    0.251
        60  -9.4188     62.9512      6.6360   5.2162412683e+01   6.5217123627e+01    0.3285419     0.208991  69.24  0.001781544    2.205    0.547
        61  -9.2292    202.4520      6.8488   2.8990582746e+01   3.4287105205e+01    0.1816269    0.1385855  69.42 0.0007889976    1.350    0.259
        62 -10.4119    236.7304      4.9372   2.6222161340e+01   2.7544525611e+01     0.322514    0.2701413  27.45  0.002263401    2.173    0.540
        63  -9.4970    233.9424      2.6806   2.5976125936e+01   2.8318328833e+01    0.1947222    0.1284093 -80.98 0.0004701627    1.204    0.170
        64  -9.2958     87.6818      6.3148   4.5031985716e+01   6.0209759101e+01    0.2094674    0.1285129  66.03  0.001007349    1.579    0.367
        65  -9.5655    247.9851      4.7842   2.5537702870e+01   2.5444568920e+01    0.2348099    0.1307665  80.67 0.0009323416    1.648    0.393
        66 -10.8685    249.9489      1.5269   2.4862743088e+01   2.5430925502e+01    0.1759384    0.1210679 -81.41 0.0003301713    1.167    0.143
        67 -10.4312    218.0850      3.1854   2.7088212653e+01   3.1408670925e+01     0.278585    0.2222491  64.22  0.002017456    1.509    0.337
        68  -8.3076    184.9939      5.2259   3.0119190055e+01   3.8234499594e+01    0.1618865    0.1235326  88.38 0.0003277134    1.073    0.068
        69  -9.8492    126.2285      2.3782   3.6249382067e+01   5.1890098698e+01    0.4624203    0.2037967  39.33  0.001723464    2.778    0.640
        70  -9.1926     38.0355      4.4600   6.0644717219e+01   6.9812064467e+01    0.1852839    0.1321636   5.86 0.0005626314    1.256    0.204
        71 -10.7326    115.6390      2.0205   3.7829173282e+01   5.4340278537e+01    0.2368174    0.1725828  47.66  0.000345412    1.267    0.211
        72  -9.4310    119.9347      1.7371   3.7030811314e+01   5.3382142715e+01    0.2358311    0.1563659  72.96 0.0006781794    1.312    0.238
        73 -10.3999     30.5161      2.3935   6.3039854872e+01   7.1178774082e+01    0.2109196     0.170379 -27.30  0.001512391    1.553    0.356
        74  -9.3619    144.6713      2.2789   3.3676497627e+01   4.7646697360e+01    0.3151749    0.1512751  83.55  0.001517286    2.106    0.525
        75 -10.0922    135.4957      1.6414   3.4697054452e+01   4.9814010909e+01    0.2299491    0.1421754  77.04  0.001316196    1.407    0.289
        76  -8.7372    185.7299      1.4283   2.9192680888e+01   3.8430751722e+01    0.1608525   0.09137563  67.09 0.0009354366    1.576    0.365
        77  -9.0912      5.2899      1.3470   7.6538627007e+01   7.4487328625e+01    0.1858658   0.08487707  22.97 0.0005577605    1.961    0.490
        78  -9.4669    236.0280    121.6888   4.9610280755e+01   1.0764709724e+01    0.1853403    0.1670741 -45.34  0.001184469    1.086    0.079
        79  -9.7026    201.4741    249.5351   8.0047274226e+01  -6.3770334899e+00    0.2195984     0.171847   8.23  0.000620465    1.055    0.052
        80 -10.4452    115.9529    248.7537   9.7880316008e+01   5.7713824366e+00    0.3109756    0.2537393  73.68  0.001702053    1.461    0.315
        81  -8.9950     84.7013    121.5903   8.4079842786e+01   4.0938955314e+01    0.3541831    0.1620984 -42.45  0.001276248    2.281    0.562
        82 -10.5457     45.1203    119.6766   9.6949575980e+01   4.7066786439e+01    0.3614151    0.3178123  42.17   0.00129513    1.260    0.207
        83 -10.0960     32.7425    117.9683   1.0093141867e+02   4.8804247156e+01    0.2645832    0.1952823   0.04 0.0003797222    1.593    0.372
        84 -10.4068     33.7817    114.0378   9.9819550839e+01   4.9699238652e+01    0.3794488     0.276725  77.05  0.001409303    1.738    0.425
        85  -9.8805      3.2042    109.1933   1.0988537065e+02   5.3218694778e+01    0.3243439    0.2560743  61.46  0.001218473    1.493    0.330
        86 -11.6433     21.9219    119.4149   1.0494222664e+02   4.9392771476e+01    0.4795583    0.4191156  73.75  0.002882505    1.271    0.213
        87 -11.4105     21.2454    108.3983   1.0327763671e+02   5.2220369641e+01     0.783522    0.3599124 -64.47  0.003489282    1.873    0.466
        88 -10.6083     10.4368    115.2321   1.0825063914e+02   5.1285218227e+01    0.5855653    0.2952385  75.18  0.002349686    3.112    0.679
        89  -9.7039     13.9489    113.4890   1.0675673574e+02   5.1487779439e+01    0.2466351    0.2189054 -61.73 0.0006602561    1.055    0.052
        90  -9.9010    221.5448    119.3438   5.1279192386e+01   1.3785786734e+01    0.3219179    0.2508949  36.06  0.001185628    1.583    0.368
        91  -8.7851    103.8629    119.1625   7.7524138910e+01   3.8064043614e+01      0.21204    0.1834864  -4.37 0.0002629274    1.298    0.230
        92  -9.3780     38.1933    119.0060   9.9224848331e+01   4.7994189320e+01    0.2346955    0.1672849 -42.55  0.001206441    1.327    0.247
        93  -9.0723    239.2895    117.3381   4.8258584435e+01   1.0956504638e+01    0.1264278   0.09666746 -16.92 0.0007022072    1.640    0.390
        94  -9.4362     29.1942    120.9284   1.0269460122e+02   4.8381456204e+01    0.2419493    0.1789513 -61.73 0.0006054677    1.177    0.150
        95  -9.4208     70.4220    116.2912   8.7504265439e+01   4.4548732273e+01    0.2357566    0.1761674  57.04 0.0003039438    1.615    0.381
        96  -9.4389     93.9754    119.0573   8.0522311465e+01   3.9932866948e+01     0.241797    0.2242027 -20.73 0.0006482953    1.096    0.087
        97  -9.8678     47.2431    113.7793   9.4975660742e+01   4.8312051221e+01    0.3299904    0.2357864 -25.44 0.0009375037    1.547    0.353
        98  -8.4633    162.4037    113.5593   6.0870226267e+01   2.7008387265e+01    0.1513752    0.1426116 -56.21 6.890218e-05    1.021    0.021
        99  -8.8801     76.8450    111.4031   8.4137148822e+01   4.4736242262e+01    0.3018405    0.1871145 -21.50 0.0009723408    2.295    0.564
       100  -8.8007    233.7897    111.5695   4.7833654812e+01   1.2925666683e+01    0.1650914    0.1255322  79.56 0.0009392971    1.631    0.387
       101  -9.3071    116.1173    107.6331   7.0901726452e+01   3.8275668073e+01    0.2223775    0.2038184  27.72 0.0007255392    1.120    0.107
       102 -10.0047     38.1781    105.1898   9.6399045155e+01   5.1459048394e+01     0.722797    0.1906088 -41.52  0.001996621    4.832    0.793
       103  -9.8035     44.2250     99.8280   9.2912170503e+01   5.2095731456e+01     0.361728    0.1776169  35.25  0.001158216    2.192    0.544
       104  -9.6995     39.6851     99.1002   9.4458207512e+01   5.2779955930e+01    0.3208682    0.2192344  13.53 0.0007168838    1.629    0.386
       105  -9.6393     68.4445    105.5342   8.5519587247e+01   4.7471139684e+01    0.3012126    0.1654323 -30.59 2.017365e-05    2.317    0.568
       106  -8.0333     43.2931    106.2999   9.4757418588e+01   5.0627834493e+01    0.1474284    0.0978364 -31.91 0.0003532087    1.568    0.362
       107  -8.8350      8.3727    105.8384   1.0752360898e+02   5.3750966743e+01    0.2025583   0.09212517 -57.51 0.0006746507    1.710    0.415
       108  -9.5876    132.4334    104.0126   6.5499596455e+01   3.5583371302e+01    0.2779266    0.2151367  65.33 0.0006097982    1.474    0.322
       109 -10.1112    119.2079    102.8152   6.8714129686e+01   3.8684707343e+01    0.3983288    0.2738357  17.10            0    2.034    0.508
       110 -10.0271    114.3867    101.6891   6.9761031247e+01   3.9940500122e+01    0.3217952    0.2629251  79.55 0.0007040339    1.539    0.350
       111 -11.6776    117.6183     97.9658   6.7803499125e+01   4.0057539472e+01    0.2952741    0.2768315   7.71 0.0002717332    1.112    0.101
       112 -10.5499    101.4037    102.8857   7.3939613805e+01   4.2304868710e+01    0.6153581    0.3321955  30.93  0.002136138    2.151    0.535
       113  -9.3794    100.5955     99.2289   7.3163555008e+01   4.3274653711e+01    0.2889553    0.2304808  27.44 0.0008143006    1.315    0.240
       114  -8.9459     33.7874    103.1821   9.7600884575e+01   5.2398666452e+01    0.2014241    0.1415523 -37.17 0.0007578869    1.347    0.257
       115  -8.7913    127.1623    102.0895   6.6352820813e+01   3.7136681418e+01    0.2253115    0.2061178  -1.57 0.0003679648    1.194    0.163
       116  -9.4626     86.0478     96.0742   7.6922470171e+01   4.6721619932e+01    0.2907983    0.2438229  55.88 0.0007009726    1.363    0.266
       117 -10.7560     79.5264    100.9540   8.0478652195e+01   4.6760423822e+01    0.4959596    0.3515545  26.43     0.001618    1.499    0.333
       118 -10.1863     80.3839     95.7587   7.8739169671e+01   4.7794652464e+01    0.4998279    0.3364666  32.22  0.002340197    1.528    0.346
       119 -10.1981     51.3241    100.7429   9.0481080367e+01   5.1014010553e+01    0.4558547     0.244479 -63.63  0.001337311    2.026    0.506
       120  -8.4994     29.4844    102.4918   9.9071566578e+01   5.2976698002e+01    0.1393847    0.1203051 -47.05 0.0001600245    1.005    0.005
       121  -8.9733    176.9864    101.3155   5.4819408272e+01   2.6243937493e+01    0.1948761    0.1854314  83.56 0.0003892153    1.072    0.067
       122  -9.8383     95.0889    100.1916   7.5155219988e+01   4.4126515422e+01    0.2517071    0.2303996 -42.62 0.0002858336    1.080    0.074
       123 -10.0027      2.5110     79.9593   1.0518642478e+02   6.0234648179e+01    0.4341494    0.2708349 -75.73  0.002385982    1.682    0.405
       124  -9.5158      8.9753     98.3151   1.0603588302e+02   5.5551972088e+01    0.3035626    0.1976611 -74.59  0.001647982    1.484    0.326
       125  -8.9095      4.4103     97.9783   1.0770468969e+02   5.5894734293e+01    0.4147756    0.3199904  30.30  0.002543557    1.547    0.354
       126 -10.4764      2.2524     92.2807   1.0756778639e+02   5.7372357011e+01    0.5345344    0.2205709  40.06 0.0003207336    3.166    0.684
       127 -10.0687      2.0367     87.2798   1.0677011755e+02   5.8563350205e+01    0.5065731    0.1422625 -63.25  0.001714198    2.613    0.617
       128 -10.1326     58.0398     98.7326   8.7491676062e+01   5.0600226165e+01    0.5143214    0.2029428 -34.43  0.001567682    3.905    0.744
       129 -10.6404     15.5206    108.4326   1.0536249888e+02   5.2640434548e+01    0.3477681    0.2692409 -23.38  0.001108536    1.371    0.271
       130  -9.2614    149.8593     97.1541   5.9424108720e+01   3.3110619486e+01    0.2265374    0.2012776 -78.30 0.0002528382    1.193    0.162
       131  -9.9177    125.6602     96.7874   6.5279552078e+01   3.8572335600e+01     0.301608    0.2590404  72.19  0.001316573    1.303    0.233
       132  -8.1317    111.6875     96.7349   6.9140953413e+01   4.1565875381e+01    0.1506513    0.1201669   5.03 0.0002675186    1.541    0.351
       133  -9.6274     22.9537     94.8111   9.9961916946e+01   5.5403206831e+01    0.2884381    0.1764622 -67.07  0.001455804    1.582    0.368
       134 -11.1202     26.5883     87.6087   9.6900071647e+01   5.6793067053e+01    0.6756379    0.3815546 -31.32 0.0009970013    1.803    0.445
       135 -10.0511     31.8161     93.9021   9.6287165188e+01   5.4829429284e+01    0.3120979    0.2454631 -80.82  0.001065228    1.506    0.336
       136  -9.9073     34.1797     90.7780   9.4613987629e+01   5.5332440062e+01    0.3319503    0.2128858 -30.48 0.0009879725    1.563    0.360
       137  -9.8666     12.4610     94.9554   1.0408458962e+02   5.6141962870e+01    0.2540504    0.1608059  49.28  0.001312521    2.056    0.514
       138  -8.6004     14.6807     92.6663   1.0277070648e+02   5.6539800695e+01    0.2020213     0.106286 -49.87 0.0007752818    1.545    0.353
       139  -9.1809    139.6615     93.3393   6.0773306443e+01   3.6161611680e+01    0.1594748    0.1198689 -82.36 0.0007050631    1.762    0.432
       140 -10.7934     46.6576     91.2282   8.9828719935e+01   5.3835682567e+01    0.6208187    0.3264574 -67.38   0.00118256    2.471    0.595
       141 -10.6683     57.3985     87.7503   8.4751411104e+01   5.3213330385e+01      0.73136    0.4218251  60.13  0.002125066    3.406    0.706
       142 -11.5371     45.1501     68.7573   8.3950581811e+01   5.8925095598e+01    0.3064893    0.2296149 -37.81 0.0002487555    1.218    0.179
       143 -13.0720     52.9134     74.4664   8.2562061149e+01   5.6711188550e+01    0.6772326    0.3644183 -56.63  0.001212275    2.126    0.530
       144  -9.9660     38.4742     81.5889   9.0511439422e+01   5.6979198977e+01    0.4149902    0.2517685   3.43  0.001474131    1.984    0.496
       145 -10.7131     51.1181     83.0458   8.5838357632e+01   5.5116510204e+01    0.5038844    0.3009441  13.88  0.002317039    1.975    0.494
       146 -10.0977     43.4128     81.6204   8.8509102309e+01   5.6402574734e+01    0.4497102    0.2721353  13.18  0.001344622    1.875    0.467
       147  -9.0281    105.3404     90.9386   6.9330299472e+01   4.4095262543e+01    0.3044486    0.2089969  57.50  0.001362962    1.695    0.410
       148 -10.4208     64.7818     75.5079   7.8270601490e+01   5.4728871859e+01    0.6326727    0.3547935 -57.05  0.002735258    2.203    0.546
       149  -9.9678     65.1688     85.4062   8.1153914016e+01   5.2580521171e+01    0.3900046    0.2660852 -20.60  0.001847496    1.687    0.407
       150 -10.3927     86.3640     88.7596   7.4684639554e+01   4.8256068558e+01    0.4604625    0.3506908  -0.13   0.00103949    1.583    0.368
       151  -9.5148     91.0105     83.4010   7.1533453732e+01   4.8497307862e+01    0.3130572    0.1962689 -29.52   0.00114183    1.806    0.446
       152  -9.4600     87.0279     83.6455   7.2917684080e+01   4.9203345824e+01    0.2583474    0.2133439 -50.05  0.000451329    1.276    0.216
       153 -10.5546     70.5875     87.8015   7.9877684109e+01   5.1199752802e+01    0.6945509     0.309388 -57.03  0.002533316    2.753    0.637
       154 -11.6894     80.5503     83.4753   7.5059954749e+01   5.0424043045e+01    0.5292981    0.3153188  29.04 0.0005376247    1.806    0.446
       155 -10.9832     72.9884     79.4431   7.6479686106e+01   5.2575840669e+01    0.5639089     0.477304  -3.76  0.002334181    1.191    0.161
       156  -9.2951     52.3801     90.4203   8.7407502123e+01   5.3294870889e+01    0.2569823    0.1708623 -78.00 0.0009866935    2.290    0.563
       157  -8.6864     18.0666     90.7580   1.0103576328e+02   5.6749831910e+01    0.1744643    0.1553367 -14.12 0.0008508737    1.173    0.148
       158  -8.8233    112.9786     89.9774   6.6817248283e+01   4.2699519336e+01    0.2432869    0.1924604  89.24  0.001134945    1.711    0.416
       159  -8.9395      7.5010     89.3418   1.0497013323e+02   5.7783922797e+01    0.2875411    0.1650534  38.03  0.001444743    2.141    0.533
       160  -9.0831     97.9516     88.6903   7.0923014356e+01   4.6052585264e+01    0.2548592    0.2091543 -74.38 0.0003362254    1.547    0.354
       161  -9.2880     14.2461     87.8580   1.0196277562e+02   5.7706023383e+01     0.363375     0.156993 -47.22  0.001658564    1.875    0.467
       162 -10.7417    129.1424     85.3071   6.1103518995e+01   4.0087886956e+01    0.5703632    0.3563684  21.22  0.002193701    2.609    0.617
       163 -10.4870    123.4732     86.6441   6.2959447502e+01   4.1090687030e+01    0.3646705     0.332467  -1.72  0.001211981    1.196    0.164
       164 -10.4543    118.1494     83.8299   6.3561223856e+01   4.2806314080e+01    0.4607369    0.3093266  52.36  0.001907997    1.514    0.339
       165  -9.2962     39.7816     87.9793   9.1683584473e+01   5.5386857313e+01    0.2305588    0.1984172  -0.44 0.0005786996    1.182    0.154
       166  -8.9687    146.1081     70.3248   5.2851746046e+01   3.8884085372e+01    0.2180372    0.1962023 -50.43 0.0007168943    1.127    0.113
       167 -10.9808    155.1869     85.1377   5.5028465001e+01   3.4183345253e+01    0.2793358    0.2641373 -49.06 0.0002794574    1.069    0.064
       168 -10.9016    150.8224     80.5491   5.4704077521e+01   3.6018217209e+01    0.5604376    0.3117714  57.06  0.001352036    1.819    0.450
       169  -9.9881    145.9287     75.1227   5.4245675623e+01   3.8107373529e+01    0.4404279    0.2679316 -58.50  0.001901953    1.984    0.496
       170  -9.8777    141.5221     75.0432   5.5193270006e+01   3.9141926726e+01    0.3026247    0.2158805 -26.67  0.001052359    1.624    0.384
       171 -11.2231    140.8222     68.1643   5.3370083334e+01   4.0475453808e+01    0.4539789    0.3472207  29.52 0.0003717037    1.566    0.362
       172 -10.4348    143.9693     65.9371   5.2052624071e+01   4.0106913837e+01     0.328627    0.2716545  88.52 0.0006757023    1.308    0.235
       173 -10.5697    141.4564     83.8644   5.7708593391e+01   3.7568085127e+01    0.6208274    0.3191825  55.17  0.001301451    1.989    0.497
       174  -9.3858    110.7073     85.4158   6.6117778731e+01   4.4097722944e+01    0.2816644    0.1438207  50.28 0.0006569393    2.033    0.508
       175 -10.1250    105.5259     83.3214   6.6999397099e+01   4.5601161611e+01    0.5715548    0.3121673 -30.48  0.002268576    2.217    0.549
       176 -10.0018     19.2287     81.5004   9.8494933653e+01   5.8813014574e+01    0.4441509     0.286058  38.60  0.002385074    1.893    0.472
       177 -10.4877     18.3228     76.9407   9.7782872326e+01   5.9913365645e+01    0.6352262    0.1645513 -55.85   0.00191453    2.864    0.651
       178 -10.5118    167.9417     78.3992   5.0710778460e+01   3.2448583515e+01    0.2650357    0.2408121 -69.33 0.0002642228    1.048    0.046
       179 -10.3329    169.9125     73.6844   4.9123124162e+01   3.2794759449e+01     0.351491    0.2668954 -35.16   0.00113886    1.391    0.281
       180  -9.9954    136.7120     78.5336   5.7298465520e+01   3.9630137349e+01    0.2720239    0.1825878 -62.06  0.001210136    1.834    0.455
       181  -9.4697    111.0652     77.2159   6.3527145562e+01   4.5601105432e+01    0.3444189    0.2532645  35.84  0.001683089    1.384    0.277
       182  -8.1822     84.3722     78.2691   7.2134846812e+01   5.0787751912e+01    0.1507417    0.1104172   5.06 0.0003516645    1.673    0.402
       183  -9.8403    175.0443     75.0071   4.8557607517e+01   3.1398981901e+01    0.2239219    0.2024966  57.28 0.0002988312    1.173    0.147
       184 -10.7082    179.2142     74.6262   4.7748460460e+01   3.0514793035e+01    0.3910214    0.3325613 -10.19  0.002146652    1.530    0.346
       185  -9.7585     95.5561     64.7644   6.4119687813e+01   5.1115461241e+01    0.5227148    0.2297626  32.72  0.001827522    3.050    0.672
       186 -10.1903     88.8563     74.2942   6.9374209368e+01   5.0712351688e+01    0.5546401    0.3885681 -16.21  0.002101649    1.746    0.427
       187 -10.6106     94.5869     71.7558   6.6714668171e+01   5.0057703446e+01    0.3295501    0.3127188  66.04 0.0001591891    1.188    0.158
       188 -10.0226     37.1848     76.3504   8.9584947563e+01   5.8275493229e+01    0.2597448    0.1823276 -32.89 0.0005480772    1.297    0.229
       189  -9.7009     29.0431     74.9995   9.2664297642e+01   5.9413192406e+01    0.3295152     0.213521 -45.11  0.001398448    1.327    0.247
       190  -9.0879    185.0472     75.4658   4.6995078376e+01   2.9062481512e+01     0.194559    0.1340674  61.48 4.153278e-05    1.472    0.321
       191  -9.8087    122.9800     79.0005   6.0835599828e+01   4.2654230743e+01    0.3626006    0.2371472  86.95  0.001381647    2.814    0.645
       192 -10.1552     44.6889     54.7426   7.9427325843e+01   6.1699964322e+01    0.4508581    0.2575882  38.71  0.001008985    1.911    0.477
       193 -10.6396     45.3816     47.7230   7.6544201394e+01   6.2848874350e+01     1.544677    0.6950153  11.39  0.004247881    6.783    0.853
       194  99.0000     38.0172     47.3050   7.9684813241e+01   6.3907601646e+01    0.7143788    0.5268818 -65.19  0.003893713    2.184    0.542
       195  -8.3507     57.0162    249.0063   1.1066790363e+02   1.3773056155e+01    0.1424183    0.1186444  60.71            0    1.017    0.017
       196 -11.1932     28.9326     65.0739   8.9851861147e+01   6.1534538191e+01     1.082227    0.8337656 -43.99  0.004794502    1.192    0.161
       197 -10.3107     32.3462     47.8043   8.2505793564e+01   6.4509276771e+01    0.2172137    0.1836525   0.99 0.0005365119    1.101    0.092
       198  -9.0890     31.0311    248.0000   1.1595514988e+02   1.7049964257e+01    0.1903694   0.06043917  31.46 0.0008035937    2.950    0.661
       199 -12.3728      2.4122     66.1884   1.0225833084e+02   6.3308363809e+01    0.4508764    0.2909394 -63.31 0.0003075374    1.449    0.310
       200 -11.2188      7.9354     51.3077   9.5652793727e+01   6.6077372373e+01    0.6292415     0.365895  -6.58  0.001420212    1.760    0.432
       201 -10.9662      9.1234     62.6811   9.8278540054e+01   6.3667353262e+01    0.4125991    0.3247084  89.27  0.001523442    1.808    0.447
       202 -10.8040      4.3684     59.3193   9.9644036800e+01   6.4664080749e+01    0.6401579    0.2738565 -28.87  0.003020955    2.315    0.568
       203 -11.3823     23.1166     47.1909   8.6734880540e+01   6.5612908780e+01    0.4656243     0.340215 -55.17  0.002466559    1.608    0.378
       204  -9.7828     27.6974     42.9012   8.2916549931e+01   6.5906603533e+01    0.4662936    0.3580356  25.49   0.00260258    1.387    0.279
       205 -11.1306     24.9229     55.8395   8.8797045600e+01   6.3788819235e+01    0.3229695    0.2240836 -49.90  0.001885425    1.415    0.293
       206 -11.5447     28.9084     51.9869   8.5619572192e+01   6.4122656714e+01    0.4357518    0.2075266  25.85 0.0006448012    2.114    0.527
       207 -10.5077    157.2851     70.1889   5.0548272916e+01   3.6300173426e+01    0.3944664    0.2392004 -40.07 0.0002144842    1.662    0.398
       208 -10.4437     15.2746     60.4349   9.4767701123e+01   6.3701568032e+01    0.9712562    0.3854415 -37.69  0.004373484    2.258    0.557
       209  -9.2593    166.9615     69.1108   4.8455957514e+01   3.4227950334e+01    0.2542762    0.1997314 -45.75  0.001043128    1.259    0.206
       210  -9.7440    102.8592     69.4482   6.3450186869e+01   4.8770115126e+01    0.4112928    0.3371435  16.97  0.002165026    1.324    0.245
       211  -8.9768    106.5334     66.4502   6.1420317659e+01   4.8512809148e+01    0.2674851    0.2152238  36.12 0.0005825401    1.213    0.175
       212  -9.0936     80.0576     70.0309   7.0948625765e+01   5.3184530535e+01    0.2061084    0.1949068  16.27 0.0003238822    1.068    0.064
       213  -9.7361     37.6283     68.8627   8.7182787163e+01   5.9816411469e+01    0.4018699    0.2086655 -37.04  0.001894522    1.811    0.448
       214  -9.2237     64.5269     69.0192   7.6265023426e+01   5.6063411750e+01    0.3018243    0.2230355  12.91  0.001211008    1.420    0.296
       215  -9.4018     77.1596     62.1014   6.9278852955e+01   5.5169417164e+01    0.2489072     0.195708  40.58 0.0003343364    1.271    0.213
       216  -9.0265     83.5238     65.4665   6.8237360884e+01   5.3376540014e+01    0.2409652    0.2322037  36.80 0.0006904586    1.139    0.122
       217  -9.6574     82.4947     61.9299   6.7379535590e+01   5.4200136123e+01     0.321126    0.2284104  23.10  0.001300002    1.485    0.327
       218  -9.7593     87.1478     68.1324   6.7921825693e+01   5.2195854010e+01    0.3335877    0.2263163  44.72 0.0002729466    1.466    0.318
       219  -9.6086     89.6825     66.2930   6.6482384183e+01   5.2030982055e+01    0.2459217    0.2318438 -53.67 0.0006732575    1.208    0.172
       220  -8.9790    120.0863     67.0313   5.7942490127e+01   4.5425429105e+01    0.2203437     0.209533  52.01  0.000645326    1.019    0.019
       221 -10.6510    134.9237     64.8347   5.3704213252e+01   4.2393279413e+01    0.3482672    0.3274962 -28.15  0.000985638    1.141    0.124
       222  -9.0534     75.2802     66.0004   7.1279577632e+01   5.4804385086e+01    0.1959297    0.1747323 -20.78 0.0006500345    1.091    0.083
       223 -11.0510     54.6135     61.4457   7.7607521539e+01   5.9048631667e+01    0.5800471     0.431935  71.11 0.0008859779    2.501    0.600
       224 -11.6082     56.2769     56.7447   7.5279699167e+01   5.9661105017e+01    0.4051027    0.3423009  79.06 0.0002706896    1.909    0.476
       225  -9.4888    175.5058     62.9365   4.5400816382e+01   3.3233283320e+01    0.3336984    0.1965264 -45.71 0.0009911237    1.643    0.391
       226 -10.4072    194.5571     60.9078   4.2054931797e+01   2.9243041777e+01    0.3759475    0.3432383  71.51  0.001076308    1.184    0.156
       227  -9.5981     64.9003     62.3023   7.3846208517e+01   5.7273967085e+01    0.3962271    0.2267598  33.34  0.001886978    1.718    0.418
       228 -10.8339    161.7115     60.0779   4.6986136141e+01   3.6872249310e+01    0.4602937     0.234583  53.00  0.002037206    1.916    0.478
       229 -10.7632    153.1252     60.7110   4.8737505506e+01   3.8787861475e+01    0.4992495    0.2931905  47.89  0.002316629    1.746    0.427
       230 -10.4442    173.4939     68.7742   4.7228989203e+01   3.2775753645e+01    0.2573567    0.2234696 -87.72 0.0002901192    1.107    0.096
       231  -9.6458    136.8327     55.7356   5.0580555937e+01   4.3369127611e+01    0.3558714    0.2020584 -27.86  0.001358364    2.086    0.521
       232  -8.6257    136.9965     49.6611   4.8734208426e+01   4.4214728321e+01    0.2495177    0.1824478 -36.12  0.001021894    1.465    0.318
       233 -10.2379    131.7227     59.7346   5.2899943086e+01   4.3948799228e+01    0.4593788    0.3427413  34.64  0.002348025    1.484    0.326
       234 -10.2189    125.7697     57.2056   5.3497116284e+01   4.5716485485e+01    0.5025474    0.1838737  58.96  0.001747714    2.932    0.659
       235  -9.4330     71.6086     60.4716   7.0701082389e+01   5.6458345150e+01    0.3750773    0.2078964  45.93  0.001342434    1.917    0.478
       236 -10.2764    141.5257     59.6723   5.0753401966e+01   4.1671155215e+01    0.4427941    0.1701205  53.21  0.001678632    2.410    0.585
       237  -8.3804    111.5394     56.9337   5.6957623568e+01   4.8981747268e+01    0.1859433     0.140632 -31.14 -4.967188e-05    1.414    0.293
       238  -8.0819    104.3233     57.3050   5.9048285575e+01   5.0506019448e+01    0.1454819    0.1061321  18.66 0.0007032487    1.640    0.390
       239  -9.5546    187.5284     55.9789   4.1853350926e+01   3.1541524168e+01    0.2317307    0.1809932  74.69  3.23249e-05    1.228    0.186
       240  -9.1695    167.5431     56.2662   4.4973652625e+01   3.6082970076e+01    0.1721831    0.1361867 -22.72  0.000928871    1.540    0.351
       241  -9.1708     75.1791     55.4845   6.7648273261e+01   5.6675001068e+01    0.2495875    0.2157326   2.35  0.001309311    1.100    0.091
       242  -8.6389    180.5091     55.5080   4.2751045538e+01   3.3202022362e+01    0.1365592    0.1202947 -79.72 1.156073e-05    1.017    0.017
       243 -10.8311    160.9712     54.5739   4.5630524676e+01   3.7867233407e+01    0.2829183    0.2363491  78.11 0.0003929966    1.132    0.116
       244  -9.1414    159.6959     50.3870   4.4713964568e+01   3.8767447095e+01    0.2582056    0.1265052  66.58 0.0006791786    2.038    0.509
       245  -9.6068    164.5390     46.5899   4.2900565994e+01   3.8158845526e+01     0.390118    0.2206556  48.24  0.001327599    1.908    0.476
       246 -11.9498    126.5247     47.3625   5.0259003728e+01   4.6982323366e+01    0.8619149    0.6212501  38.92  0.002671396    1.447    0.309
       247 -10.0325     93.3021     53.7927   6.1080499639e+01   5.3395635328e+01    0.4373125    0.3280282  14.27  0.002283538    1.520    0.342
       248  -8.6087     81.2423     54.4999   6.5199929217e+01   5.5695324893e+01    0.3686771    0.2563782  60.85  0.001819285    1.875    0.467
       249  -9.6661    194.8387     53.0041   4.0152701440e+01   3.0338887388e+01    0.4007351    0.1843177  74.03  0.001043885    2.468    0.595
       250 -10.0573    145.8021     52.2097   4.7734085213e+01   4.1779459804e+01    0.3770171    0.2470011  77.75  0.001161752    1.714    0.417
       251  -9.0555    142.8045     49.2286   4.7449672449e+01   4.2909596570e+01    0.2006725     0.174227  86.72 0.0003584441    1.143    0.125
       252  -8.6915    106.8357     52.8272   5.6860268390e+01   5.0652425608e+01    0.2111111    0.1736421  30.88 0.0004153336    1.212    0.175
       253  -9.5377     56.1911     45.2735   7.1043249424e+01   6.1625704620e+01    0.2722312     0.201063  28.06  0.001551621    1.258    0.205
       254 -12.6524     62.0114     44.0036   6.8243621463e+01   6.0861139989e+01    0.3996222    0.3319243 -29.32 0.0005779623    1.255    0.203
       255  -9.9742     61.3932     52.0217   7.1522036821e+01   5.9667234911e+01    0.2606116    0.2086504  19.68  0.000542034    1.155    0.134
       256  -9.5021    165.9745     51.6649   4.4016208102e+01   3.7115855505e+01    0.1978532    0.1662713  79.00 0.0006328517    1.107    0.096
       257  -9.6271    175.1611     49.6643   4.2071690671e+01   3.5265227399e+01    0.3329614    0.2544008 -10.39  0.001786335    1.871    0.466
       258  -8.4847     83.6109     50.2390   6.2883261315e+01   5.5910446813e+01    0.1828286    0.1276999 -21.72 0.0008728537    1.559    0.359
       259  -8.9744     86.9484     48.8440   6.1305243033e+01   5.5457306497e+01    0.2769862     0.209533  28.10  0.001242119    1.286    0.222
       260  -9.7351    201.8103     47.2290   3.7951570895e+01   2.9617168166e+01    0.2515541    0.2158227  15.52  0.000615485    1.758    0.431
       261  -8.7771    196.9749     48.5268   3.8835119576e+01   3.0496711428e+01    0.2446923    0.1673398 -89.64 0.0009795011    1.459    0.315
       262 -10.9152    153.7694     47.5957   4.4965498939e+01   4.0551071273e+01    0.3948727    0.3111389  65.31  0.001404173    1.176    0.150
       263  -9.9562    114.8562     46.9927   5.2858692956e+01   4.9711331898e+01    0.3339734    0.2382922 -24.80  0.001005942    1.583    0.368
       264  -9.0742    182.0784     48.1804   4.0706743983e+01   3.3885227059e+01    0.1993851    0.1776735  49.73  0.001224654    1.317    0.241
       265  -9.9707    145.9582     46.0408   4.5928513069e+01   4.2606305567e+01    0.2649225    0.2267524 -47.98 0.0004037729    1.224    0.183
       266  -9.4198    144.0300     41.4985   4.4968907534e+01   4.3665286881e+01    0.3482123    0.2119578  80.26  0.001512572    1.897    0.473
       267 -11.9630     68.7700     48.0036   6.7217900270e+01   5.9054954597e+01    0.4173841    0.3288889 -56.76 0.0003291128    1.735    0.424
       268  -9.2622    245.0434     44.6984   3.3081756169e+01   2.1187255324e+01    0.1630974     0.129438 -79.00 0.0007483182    1.134    0.118
       269 -10.6292     80.0367     43.2164   6.1477526691e+01   5.7664265135e+01    0.4396214    0.3143217  65.07  0.002270512    1.876    0.467
       270  -9.2407    184.9740     44.0759   3.9310004862e+01   3.3786026615e+01    0.1934352    0.1717346  89.53 0.0004339328    1.065    0.061
       271 -10.0189    177.2525     43.8135   4.0291633815e+01   3.5583433299e+01     0.392635    0.2140471  82.66  0.001801699    2.105    0.525
       272 -10.3694    107.4295     43.9909   5.3725517225e+01   5.1794348134e+01    0.4567294     0.214103  51.12 6.374816e-05    1.912    0.477
       273  -8.7724    108.0015     40.2342   5.2302368276e+01   5.2170280649e+01    0.1946701    0.1601316  51.36 0.0004472797    1.104    0.094
       274 -10.0635     91.7281     42.5601   5.7571508052e+01   5.5385036157e+01    0.4076292    0.3026408 -45.63  0.002234582    1.576    0.365
       275  -9.0925     93.4712     38.4106   5.5561578300e+01   5.5578308276e+01    0.2245035    0.1912339  19.89 0.0006294353    1.161    0.138
       276 -10.1191     95.2530     35.0662   5.3848156983e+01   5.5627293777e+01    0.3883266    0.2251372  52.95  0.001128613    1.568    0.362
       277  -8.8274      1.4429    244.0365   1.2154122548e+02   2.0897566901e+01    0.1632273   0.09416883 -86.60 0.0004001989    1.527    0.345
       278 -10.5075     87.5515     33.9154   5.5627873045e+01   5.7399496000e+01    0.4478152    0.2963786  20.08  0.002315659    1.756    0.430
       279 -10.4690     80.8610     31.7711   5.6849605470e+01   5.9037438118e+01    0.4889774    0.2887225  46.94  0.001753371    1.507    0.336
       280 -10.0207     73.6529     28.2420   5.7779964246e+01   6.0898703824e+01    0.6179492    0.2709618  33.46  0.002612397    2.545    0.607
       281  -9.4899     74.9992     22.9969   5.5223153618e+01   6.1243068391e+01    0.2063454    0.1644734  11.69 0.0003474171    1.239    0.193
       282  -8.3125    249.3005     42.7166   3.2352173585e+01   2.0659266106e+01    0.1201648   0.06827454 -65.40 0.0001776091    1.550    0.355
       283 -11.3240    234.9285     29.8837   3.1059929766e+01   2.5030573851e+01    0.3189932    0.2080974  60.46 0.0006459832    1.803    0.445
       284  -9.5433    223.2608     34.3658   3.2946591405e+01   2.6794231339e+01    0.2856467    0.1733091 -64.29  0.001062016    1.451    0.311
       285 -10.4373    227.1110     33.0301   3.2333800400e+01   2.6185098687e+01    0.2405143     0.176007 -66.04 0.0002710326    1.102    0.092
       286 -10.8000    227.5209     40.9275   3.3895193769e+01   2.5086570123e+01     0.453956    0.3088027 -49.81  0.001681521    1.274    0.215
       287 -10.2274    222.6310     40.4426   3.4257353579e+01   2.6138695621e+01    0.2272524    0.1988319 -66.64 0.0006465279    1.155    0.134
       288  -8.9747    196.9297     41.0909   3.7121003754e+01   3.1510319045e+01    0.1943773    0.1679666 -73.56 0.0006823624    1.047    0.045
       289  -9.6551    158.0961     39.1263   4.1912852261e+01   4.0654836923e+01    0.2183432    0.1903165 -82.19  0.001330151    1.084    0.077
       290  -9.5711    126.6845     39.7580   4.7841366093e+01   4.7961044092e+01    0.3451037    0.2128731  76.71  0.001624162    1.925    0.481
       291 -12.4160    107.8399     29.0149   4.8495761877e+01   5.3577844508e+01    0.3999804    0.3249999  13.24  0.002380463    1.392    0.282
       292  -8.3234     44.3299    243.7154   1.1290802501e+02   1.6417502243e+01    0.1325297   0.07472348  59.25 0.0007008705    1.612    0.380
       293  -9.6744    120.8715     38.7136   4.8762595987e+01   4.9441185216e+01     0.314471    0.2054987 -41.53  0.001212607    1.676    0.404
       294 -11.0811    116.0588     34.4449   4.8441237400e+01   5.1076133118e+01    0.6465101    0.4854783  36.92  0.002783131    1.351    0.260
       295 -11.6199     40.1310     39.5375   7.5703463289e+01   6.4935939584e+01    0.2138705    0.1740161 -13.98 0.0002806289    1.084    0.078
       296 -11.2350      6.0627     35.9368   9.1595754572e+01   6.9117022222e+01    0.5427768    0.3950811 -52.76  0.003563303    1.500    0.333
       297  -9.8054     10.6687     31.8002   8.7507497162e+01   6.9482503089e+01    0.3740485    0.1766192  35.62  0.001702683    2.672    0.626
       298  -9.1324    203.2322     39.0326   3.5940954406e+01   3.0402823072e+01    0.1934562    0.1384794 -65.05 0.0005069249    1.242    0.195
       299  -9.7324    103.8059     38.4219   5.2750253458e+01   5.3337631052e+01    0.2868333    0.1982964 -38.45  0.001364118    1.599    0.375
       300 -10.6590    178.4541     37.2787   3.8497256579e+01   3.6157704262e+01    0.2814716    0.2329642  67.20 0.0006710319    1.192    0.161
       301  -9.2248    163.9940     36.6997   4.0360569181e+01   3.9578547177e+01    0.3387277    0.2064506  47.00  0.001715425    1.825    0.452
       302  -8.6119    149.2426     38.3734   4.3155218347e+01   4.2835503064e+01    0.2628385    0.1124127  59.84  0.001123367    2.071    0.517
       303  -9.7582    137.4944     37.4376   4.4980559327e+01   4.5722409795e+01    0.4451607    0.2115214  51.67 0.0009325393    1.934    0.483
       304  -9.5654    239.6846     37.5091   3.2149338710e+01   2.3147438155e+01    0.2215658    0.1055957  73.44  0.001200437    2.131    0.531
       305  -9.5461    185.6433     35.5023   3.7154230578e+01   3.4746459204e+01    0.2577499    0.1822625 -74.50  0.001129604    1.352    0.260
       306  -9.5406    133.0460     31.3095   4.3962904837e+01   4.7505067700e+01    0.2433281    0.2200679 -24.89 0.0006658496    1.268    0.211
       307  -9.0820    134.6577     27.7339   4.2583783280e+01   4.7533999978e+01    0.1773108    0.1662839 -31.39  0.000388504    1.220    0.180
       308 -10.3129     62.1123     32.2511   6.3504924263e+01   6.2539814591e+01    0.5814648    0.3509085   3.26   0.00272062    2.225    0.551
       309  -9.4788    145.9625     34.0265   4.2471859608e+01   4.4144701970e+01     0.256543    0.2027771  80.15 0.0004019988    1.194    0.162
       310 -11.0240    146.3271     28.6805   4.0881304239e+01   4.4684276206e+01    0.6189728    0.3057293  56.63  0.001832897    1.793    0.442
       311 -10.3891     49.2689     33.6447   6.9241291639e+01   6.4495298899e+01    0.3945136    0.1932923  23.43  0.001739404    2.386    0.581
       312  -8.9950     52.9960     16.6976   6.0292363750e+01   6.6042335959e+01    0.3332081    0.1689047  19.69 0.0002617526    2.559    0.609
       313  -9.5329    245.7374    240.8065   7.0489392419e+01  -1.0373808838e+01    0.3941104     0.165361 -19.00  0.001444596    3.283    0.695
       314 -10.8179     48.2803     26.8495   6.6754248403e+01   6.5592717293e+01    0.2992263    0.2127489  35.65 0.0005385703    1.327    0.247
       315 -10.1294     50.2297     22.5724   6.4049350899e+01   6.5823367960e+01    0.2704837    0.1858879 -17.82  0.001198527    1.458    0.314
       316  -8.5187    145.7257    242.3355   9.0490054983e+01   2.6047561835e+00    0.1243407    0.1004021  62.92  0.000312162    1.603    0.376
       317  -9.0686    127.7539    240.5709   9.4200597353e+01   5.6100892047e+00    0.2002871    0.1082751  42.60 0.0009529179    1.720    0.419
       318  -9.9365     40.9153     21.1287   6.7418380713e+01   6.7482312830e+01    0.3103999    0.2446501  49.89  0.001826327    1.732    0.423
       319  -9.1212    187.2806    235.2310   8.0571792179e+01  -2.1733563331e+00    0.2023193   0.09110136  40.74 0.0008257088    2.384    0.581
       320  -8.7852    222.0052    233.4738   7.3500987964e+01  -6.5159233409e+00    0.1744198    0.1086783  26.07  0.000506465    1.548    0.354
       321  -9.9102     34.4502     31.7322   7.5139711481e+01   6.6917620030e+01    0.2375406    0.1770171  19.21    0.0012998    1.214    0.176
       322  -8.8274     31.9864    232.6456   1.1468439007e+02   2.0214560436e+01    0.1721252     0.138162  56.35  0.000417017    1.095    0.086
       323  -8.9122    160.6013     31.8902   3.9578502584e+01   4.0958436628e+01    0.2458762    0.1533503  59.63  0.001307033    1.475    0.322
       324  -9.1724    152.9321     31.9490   4.0752378490e+01   4.2751050045e+01    0.1964548    0.1702136 -89.30            0    1.071    0.067
       325  -9.7558    247.7895     30.4291   3.0177471610e+01   2.2513275569e+01    0.2237193    0.1696768 -66.22  0.001057264    1.022    0.021
       326  -9.2893    131.3123     35.5674   4.5598414606e+01   4.7404321140e+01    0.3070748    0.1966794 -58.79 0.0008907126    1.907    0.475
       327  -9.5504    124.4965     29.7180   4.5119111440e+01   4.9684100215e+01     0.320961    0.1784256  73.02  0.001497367    1.960    0.490
       328  -8.6223     93.9863     29.9669   5.2334501919e+01   5.6518196049e+01     0.211002    0.1354246  30.70 0.0005296981    1.637    0.389
       329  -9.0601    189.9483     28.5332   3.5004687657e+01   3.4631303084e+01    0.1830404    0.1525219 -71.02 0.0004591719    1.068    0.064
       330  -9.4015    223.2717     26.7491   3.1395702661e+01   2.7733632313e+01    0.2216608    0.1433189  68.57 0.0009095492    1.566    0.362
       331  -9.4406    212.2611     26.3764   3.2283793667e+01   3.0052324619e+01      0.21792    0.1778764  47.50 0.0007747281    1.671    0.401
       332  -8.6531    182.9791     27.1757   3.5471827279e+01   3.6356019452e+01    0.2226731    0.1237898 -75.07  0.001092269    2.012    0.503
       333  -9.1082    161.5784     26.6115   3.8034698516e+01   4.1342497022e+01    0.2261803    0.1747342  67.73 0.0001986837    1.170    0.145
       334  -9.7196    204.3730     24.7407   3.2667918158e+01   3.1921133467e+01     0.267207    0.2104944  49.37  0.001128816    1.645    0.392
       335  -7.9915    166.3094     26.6932   3.7415986944e+01   4.0232901166e+01    0.1334479   0.08701321 -71.53   0.00025311    1.614    0.380
       336  -9.6526    101.1016     26.0898   4.9089003163e+01   5.5406896970e+01    0.2390996    0.1635628  54.94 0.0006340773    1.285    0.222
       337  -8.6973     82.8564     25.8179   5.3928189640e+01   5.9338295583e+01    0.1842945    0.1470939  30.73            0    1.126    0.112
       338  -9.0245    186.6766    230.6649   7.9938598614e+01  -1.3064825804e+00    0.1388059   0.09102328  -6.58 0.0007050785    1.711    0.416
       339  -8.9067    177.9379    231.0000   8.1809131878e+01  -1.0084015142e-01    0.2210368   0.06896579  33.98 0.0008099308    2.995    0.666
       340  -8.3436      3.3434    230.2709   1.2048570215e+02   2.3634818635e+01    0.1033667    0.0872383 -48.24 0.0002299087    1.613    0.380
       341  -8.3554    207.2833    226.3515   7.5079903910e+01  -3.4564671072e+00    0.1344419   0.08569482 -10.90 0.0004023783    1.656    0.396
       342  -8.8366    162.3533    225.5195   8.4245067008e+01   3.2403535085e+00    0.3314962    0.2263812  82.49  0.001335307    3.609    0.723
       343  -8.9719    224.0133    225.0236   7.1680493074e+01  -5.4509884878e+00    0.1905831    0.1520126  -7.46 0.0005863682    1.018    0.018
       344  -8.7617    132.1268    225.1886   9.0986990308e+01   8.0070508084e+00    0.1843079    0.1585242  60.56 0.0004242709    1.313    0.238
       345 -11.0870     62.1604     22.3961   5.9343711779e+01   6.3762331345e+01    0.3202834    0.2222147  10.24 0.0007203945    1.493    0.330
       346  -8.4096    125.4771    225.5113   9.2569536954e+01   8.9766619062e+00     0.138152    0.1264464  30.98 0.0001082401    1.008    0.008
       347 -10.8491      2.1041     25.2384   8.9806138372e+01   7.1256408973e+01    0.2180685    0.1451772 -31.52 0.0003383599    1.193    0.162
       348 -10.1743    131.5041     22.2718   4.1482696322e+01   4.8860468209e+01    0.3501906    0.2588129  -3.49  0.001991741    1.789    0.441
       349  -9.5604    232.4694     23.4676   3.0007827259e+01   2.6289713416e+01    0.3679667     0.168731 -89.75  0.001882133    2.345    0.574
       350  -9.3773    177.3852     23.7188   3.5285113975e+01   3.8021453078e+01    0.2081204    0.1567488 -82.94 0.0007719022    1.194    0.162
       351  -9.8160    173.6696     22.9802   3.5543861315e+01   3.8952793322e+01    0.2614462    0.2364054  46.75   0.00143347    1.348    0.258
       352  -8.3115    169.4684     23.4053   3.6165846479e+01   3.9871257012e+01    0.1941822    0.1106756  85.09 0.0001017232    1.764    0.433
       353  -9.5034     89.3092    220.7122   1.0042223462e+02   1.5506245248e+01     0.250086    0.2349446  -3.46 0.0008684153    1.226    0.185
       354  -8.0918    236.6993    216.2851   6.7863133512e+01  -5.6770477688e+00    0.1030145   0.09708153 -42.44 0.0003463629    1.554    0.357
       355  -8.7045    117.5185    211.9794   9.2402641827e+01   1.3139287986e+01    0.2046673     0.142226 -56.73 0.0004570126    1.532    0.347
       356  -8.8908    242.5202    209.8727   6.5713384720e+01  -5.3930800093e+00    0.1760821    0.1576157 -25.62 0.0007402383    1.328    0.247
       357  -8.1173    145.2995    210.2936   8.5537897185e+01   8.9901723797e+00    0.1428349    0.1074272  -8.01 0.0002583315    1.568    0.362
       358  -8.4503    230.5126    209.5535   6.7755586311e+01  -3.8028134065e+00    0.1299522    0.1008915 -13.48 0.0001913565    1.074    0.069
       359  -9.7943    123.9957    206.0027   8.9881957970e+01   1.3422951501e+01    0.2037048    0.1943231  21.28   0.00116556    1.020    0.019
       360  -9.0222     35.4473    201.5077   1.1128316596e+02   2.7047949884e+01    0.1342392    0.1144855  79.14 0.0008082202    1.014    0.014
       361  -8.0996    221.3137    199.2906   6.7539839000e+01  -8.1061848626e-01    0.1334799   0.08975489  -9.12 0.0002817803    1.590    0.371
       362  -9.3120      6.6417    194.6572   1.1758780499e+02   3.1514321384e+01    0.2341856    0.1630334 -49.18  0.001364269    1.690    0.408
       363  -8.8647    123.0835     23.2431   4.3333980406e+01   5.0719271335e+01    0.3229993     0.166268 -62.81  0.001300969    3.285    0.696
       364  -9.5511    116.9968     22.2631   4.4218605692e+01   5.2225450781e+01    0.1854903    0.1736431  38.04 0.0003407897    1.124    0.110
       365  -8.9696     26.2189     22.6228   7.5220160231e+01   6.9305607133e+01    0.2110826    0.1391835 -29.80 0.0006788868    1.427    0.299
       366  -8.0524     80.2595     22.6369   5.3454233339e+01   6.0223842070e+01    0.1165355   0.09884671 -65.80  0.000328948    1.633    0.388
       367  -8.6317     80.5011     19.0569   5.1960310764e+01   6.0552974925e+01    0.1992666    0.1237243 -14.93  0.001079471    1.864    0.464
       368  -8.4379     96.4127    195.5148   9.5101249294e+01   2.0320315391e+01     0.143516    0.1389626  73.48 0.0001365974    1.016    0.016
       369  -8.5098    241.9927    193.7561   6.2866742312e+01  -2.7198118019e+00    0.1444338    0.1029973  27.05 0.0004545265    1.548    0.354
       370  -9.3219      6.1481    174.8223   1.1618835965e+02   3.6427831350e+01    0.2691264    0.1008921  46.89  0.001014048    2.656    0.624
       371  -9.5403     18.3754    174.0904   1.1295579683e+02   3.5594572667e+01    0.2624678    0.1651352 -14.38  0.001261574    2.472    0.595
       372  -8.3188      5.8908     21.0898   8.5838728562e+01   7.1639180055e+01    0.1598144   0.09931592 -21.96 0.0003944041    1.326    0.246
       373  -9.6143    193.2064     20.0290   3.2707199830e+01   3.4887960232e+01    0.2065176    0.1734412  42.91 0.0008743117    1.591    0.371
       374  -9.2028    195.4218     15.7773   3.1538792189e+01   3.4868236567e+01    0.2205392    0.1838528  83.69 0.0007566314    1.140    0.123
       375  -9.0668    199.5649     18.7187   3.1803202780e+01   3.3645519033e+01    0.2220081    0.1127357 -35.05 0.0007013021    2.052    0.513
       376 -10.6448     15.9839    164.9493   1.1268698565e+02   3.8133166781e+01    0.4199412    0.2078209  16.19  0.001914134    2.583    0.613
       377  -9.1641    138.8248     19.0586   3.9297467915e+01   4.7476675726e+01    0.3301791    0.1260887  54.63  0.001436131    2.245    0.555
       378  -8.5415    113.0959     20.0000   4.4265485197e+01   5.3347816670e+01    0.2146018    0.0647359  61.51 0.0007915167    2.867    0.651
       379  -9.3598    238.0148     17.2581   2.8422086479e+01   2.5937133014e+01     0.164409    0.1582942 -36.89 0.0005897011    1.550    0.355
       380  -9.2939    124.0735     17.5785   4.1348040878e+01   5.1061048909e+01    0.3239312    0.1315714  54.71  0.001458627    2.035    0.509
       381  -9.8478     11.2842    167.0042   1.1415785554e+02   3.7993863397e+01    0.2119445    0.1614612  76.34 0.0009552645    1.224    0.183
       382 -10.2309      7.2226    166.3733   1.1518155429e+02   3.8469932999e+01    0.2208583     0.196897  22.64 0.0009201168    1.363    0.266
       383 -12.6029     41.2408    162.1199   1.0524789523e+02   3.6417958614e+01    0.8011839    0.3749708  53.49 0.0009069984    2.553    0.608
       384 -12.0489     30.6824    154.5932   1.0731506231e+02   3.9486873696e+01    0.6920059    0.4567396  59.82  0.003482833    1.658    0.397
       385 -10.2320     24.5015    162.8367   1.1010179858e+02   3.7927142613e+01    0.2155948    0.1933606  36.19 0.0005189146    1.257    0.204
       386 -11.0004      1.8460    158.0657   1.1588138769e+02   4.0957162920e+01    0.6441506    0.1552213 -71.10 0.0008278537    3.070    0.674
       387 -10.0828      8.0221    161.9298   1.1455810557e+02   3.9536659852e+01    0.1993407    0.1639291 -77.67 0.0003779081    1.041    0.039
       388  -9.8600     10.1371    157.8465   1.1357956456e+02   4.0418701820e+01    0.2119361      0.16033  72.79 0.0008726222    1.290    0.225
       389  -9.3259    248.9895    153.9855   5.4174195717e+01   3.0403820890e+00    0.1989519    0.1392336 -15.35 0.0005497059    1.639    0.390
       390 -10.4290     15.1914    143.4756   1.1052529804e+02   4.3731351142e+01    0.4663348    0.2309551 -32.28   0.00105293    2.705    0.630
       391 -10.9331     19.7797    151.6935   1.1015160568e+02   4.1233105362e+01    0.5262956    0.2202031 -60.54  0.002280497    1.973    0.493
       392 -11.1853     13.8912    150.8353   1.1176877661e+02   4.1931890551e+01    0.4669743    0.2773743   9.38 0.0004995189    2.189    0.543
       393  -9.1570      9.0349    147.6766   1.1283353517e+02   4.3106047394e+01    0.2160777    0.1879458 -44.42 0.0005777592    1.249    0.199
       394  -9.3739     45.8264    151.6188   1.0236758906e+02   3.8660662767e+01    0.2481037      0.18148 -65.89 0.0002410729    1.237    0.191
       395  -9.4177     35.6863    149.0093   1.0505094820e+02   4.0450134413e+01    0.2046514    0.1620702 -69.65  0.000152464    1.122    0.109
       396  -9.6475      3.1335    145.8873   1.1436081025e+02   4.3964270043e+01    0.3375762    0.1817547 -45.81  0.001685584    1.900    0.474
       397  -9.3704     89.9996     13.4245   4.7185127801e+01   5.9100849047e+01    0.3273765    0.1358008  60.77  0.001166296    2.221    0.550
       398  -8.9610    241.2218    144.0333   5.3378628934e+01   5.9645147861e+00    0.1826973   0.09063789 -40.45 0.0005321557    1.658    0.397
       399  -9.3264     38.2891    143.1363   1.0336914949e+02   4.1721943808e+01    0.2165742    0.1915674 -10.92 0.0002721783    1.305    0.234
       400  -9.6263     20.9465    140.2985   1.0835990805e+02   4.4093838819e+01     0.188732    0.1752856 -73.60  0.001165973    1.080    0.074
       401  -9.4503      1.4496    139.1755   1.1416260934e+02   4.5776525053e+01    0.3011776    0.1117916 -76.96 0.0009954209    2.337    0.572
       402 -10.5314     41.3297    134.0724   1.0091312724e+02   4.3770624067e+01    0.5897294    0.2306321 -60.47  0.002285558    2.168    0.539
       403  -9.0971    230.7057    136.9821   5.3562845302e+01   8.9542803771e+00    0.1974682    0.1550403 -39.22  0.000733701    1.077    0.072
       404 -10.2182     34.3284    136.1452   1.0352347432e+02   4.3957191726e+01    0.3932925    0.2452476 -40.68   0.00138726    1.670    0.401
       405  -9.0641    235.7966    136.6057   5.2700998868e+01   8.1638543927e+00     0.163068    0.1288383  67.03 0.0006285066    1.652    0.395
       406  -8.4249     75.3067    136.3033   9.0397983838e+01   3.8728642505e+01    0.1562345    0.1150147 -26.30 0.0002533771    1.601    0.375
       407  -8.7004     58.2631    135.7489   9.5725284674e+01   4.1300886922e+01    0.3079535    0.1703543 -37.19  0.000861507    2.104    0.525
       408 -10.4795     59.9901    130.5920   9.4143664184e+01   4.2410893992e+01     0.665684    0.3946801  63.00  0.002387696    2.486    0.598
       409 -10.0730     15.7223    135.2494   1.0932037039e+02   4.5814391280e+01    0.2210425    0.1652306  -9.36 0.0006991655    1.648    0.393
       410  -8.7296    248.9837    133.8212   5.0221525449e+01   6.5076992132e+00    0.1908239    0.1183225 -29.63  0.000515592    1.602    0.376
       411  -9.1421     47.5685    133.4664   9.8769647110e+01   4.3224975296e+01     0.410798    0.1979177  57.14  0.001447176    3.248    0.692
       412  -9.1865     12.0171    127.7239   1.0949967985e+02   4.8014164980e+01    0.3688662    0.1100988 -54.96  0.001419674    2.554    0.608
       413 -10.1766      2.3053    130.0062   1.1288698297e+02   4.8052087711e+01    0.5586987    0.3706813 -12.38  0.002164376    1.901    0.474
       414 -11.0280      8.2656    132.9863   1.1137428459e+02   4.6923274195e+01    0.4889507    0.3531195 -57.34  0.002571796    1.207    0.171
       415  -9.4877      3.0849    134.0000   1.1310255678e+02   4.6992633597e+01    0.2881175    0.1631298  26.59   0.00150293    2.029    0.507
       416  -9.7343     34.5283    127.4402   1.0201401259e+02   4.6199723999e+01    0.2940585     0.206057  80.67  0.000753275    1.717    0.418
       417  -9.7239     38.1462    123.9342   1.0016756606e+02   4.6737023517e+01    0.4146393     0.244984   1.61   0.00182327    2.314    0.568
       418 -10.0642     18.6245    126.4231   1.0714954044e+02   4.7862826640e+01    0.3085259    0.1808205 -52.43  0.000115129    1.483    0.326
       419  -9.9950     50.0914    126.5285   9.6618444426e+01   4.4724787712e+01    0.3806004    0.2349445  26.80  0.001263416    1.767    0.434
       420  -9.1329    241.2153    124.0326   4.9351951239e+01   9.4676096617e+00    0.2240576    0.1286491 -58.70  0.001084316    1.994    0.498
       421  -9.6142     71.8863    123.1777   8.8623495376e+01   4.2603369365e+01    0.2467851    0.2063859 -42.79 0.0002538701    1.144    0.126
       422  -9.9884     61.8058    120.9152   9.1485850750e+01   4.4641253207e+01    0.2840034    0.2315099 -54.81    0.0004076    1.142    0.124
       423 -10.2127      6.4300    122.5181   1.1063114619e+02   4.9701111798e+01    0.4261468    0.2638161  -8.12  0.002007487    2.049    0.512
       424  -9.5366      3.5894    117.6001   1.1092316195e+02   5.1105390678e+01    0.4159568    0.2304384 -60.22  0.002168048    1.438    0.305
