#   1 NUMBER                 Running object number                                     
#   2 MAG_AUTO               Kron-like elliptical aperture magnitude                    [mag]
#   3 X_IMAGE                Object position along x                                    [pixel]
#   4 Y_IMAGE                Object position along y                                    [pixel]
#   5 X_WORLD                Barycenter position along world x axis                     [deg]
#   6 Y_WORLD                Barycenter position along world y axis                     [deg]
#   7 A_WORLD                Profile RMS along major axis (world units)                 [deg]
#   8 B_WORLD                Profile RMS along minor axis (world units)                 [deg]
#   9 THETA_WORLD            Position angle (CCW/world-x)                               [deg]
#  10 FWHM_WORLD             FWHM assuming a gaussian core                              [deg]
#  11 ELONGATION             A_IMAGE/B_IMAGE                                           
#  12 ELLIPTICITY            1 - B_IMAGE/A_IMAGE                                       
         1 -11.3759     80.8580     29.9168   4.2278815572e+01   5.9348088013e+01    0.6379699    0.2551584 -36.99  0.002673894    2.579    0.612
         2 -11.2048     39.1657     19.4400   5.4231114663e+01   6.7279068841e+01    0.5933644    0.3819061  52.37  0.003032771    3.158    0.683
         3 -11.2294     35.2944     12.0517   5.2615143187e+01   6.8796472963e+01    0.2658206    0.2089152 -28.81 0.0006251548    1.373    0.272
         4 -11.1360     26.0527     13.0962   5.7565638920e+01   6.9690527908e+01    0.2462005    0.1801323 -22.76 0.0009617564    1.128    0.113
         5 -11.1061    124.9363     16.6581   2.4891817214e+01   5.1424688631e+01    0.3427641    0.2536372 -83.24 0.0004745355    1.845    0.458
         6 -10.0423     96.3791     10.1841   2.9336840029e+01   5.8544146409e+01     0.215355     0.202176   5.49  0.001200462    1.186    0.157
         7 -10.5629     91.3997     10.0718   3.0675126357e+01   5.9605007618e+01    0.3959676    0.2269531  33.47 0.0007153438    1.595    0.373
         8 -10.6145    226.1664     11.8371   9.0514344545e+00   2.6845711484e+01     0.212559    0.1474345 -65.38  0.001222611    1.321    0.243
         9 -10.7987    203.7525     11.2484   1.1116334029e+01   3.2274562329e+01    0.2703133    0.2165658   1.65  0.001561484    1.692    0.409
        10 -10.1574    185.1816     12.2125   1.3507173838e+01   3.6796005637e+01    0.1909445    0.1445889 -72.91 0.0006973042    1.337    0.252
        11 -11.2930    126.0810     10.9377   2.2593966715e+01   5.1707727709e+01    0.2335779    0.2079744 -14.46 0.0002884213    1.247    0.198
        12 -11.5031     52.7017     11.3414   4.4614094000e+01   6.6501157587e+01    0.3039237    0.2241282  43.17  0.001844648    1.640    0.390
        13 -12.4491     55.8303      9.4469   4.2448786553e+01   6.6239221658e+01    0.3032026    0.2114991 -27.34 0.0003116582    1.474    0.321
        14 -11.0380      2.4040      6.0666   6.6912413823e+01   7.2746516549e+01    0.2803463    0.2446767 -40.23  0.001468643    1.548    0.354
        15 -10.4441     11.5681     11.7792   6.4421110001e+01   7.1205638082e+01    0.1932311    0.1650498 -26.60  0.001486461    1.351    0.260
        16 -10.7018      7.9345      8.8654   6.5089014201e+01   7.1931377737e+01    0.1997153    0.1899428 -46.90 0.0004955327    1.736    0.424
        17  -9.7189    164.8262     10.8749   1.5862611130e+01   4.2081338626e+01    0.1838334    0.1484796 -73.60 0.0004382741    1.315    0.239
        18 -10.2213    133.1428     10.5844   2.1066720591e+01   5.0031638731e+01    0.2076837    0.1857217 -41.46  0.000536096    1.289    0.224
        19 -10.0800     79.4047     10.9215   3.4673802817e+01   6.1924387581e+01    0.2479609    0.1419944  34.47 0.0006490586    1.546    0.353
        20 -10.7035     43.8849     10.4904   4.7958071520e+01   6.7886691244e+01    0.2710833    0.2129233  30.29  0.001829064    1.421    0.296
        21  -9.5368    101.0002      9.7675   2.7941741326e+01   5.7584865122e+01    0.3405472    0.1306637 -22.33  0.001416612    2.818    0.645
        22 -10.3999    116.1651      8.3097   2.3743355822e+01   5.4291054854e+01    0.2725124    0.2073783 -44.21  0.001542364    1.608    0.378
        23  -9.6476    111.7317      6.4046   2.4013341604e+01   5.5483408850e+01    0.1965112    0.1305248  36.55  0.001061484    1.356    0.263
        24 -11.7793     29.6650      6.7796   5.2759625256e+01   7.0171385015e+01    0.3454807    0.2113761 -34.15  0.001229001    1.580    0.367
        25  -9.9528     36.4141      8.2701   5.0265678895e+01   6.9158887128e+01    0.1628211    0.1375704  34.61  0.000258233    1.648    0.393
        26 -10.2136    247.0879      5.9800   6.0544204060e+00   2.2772254169e+01    0.1815734    0.1415561 -71.82 0.0003299164    1.048    0.046
        27 -11.2189    221.7375      6.1807   8.1498145119e+00   2.8486308273e+01    0.2532972    0.1494694 -74.42 0.0009049926    1.677    0.404
        28 -10.2330    151.3529      6.2974   1.6489238135e+01   4.5903855979e+01    0.2484091    0.1579136  55.19   0.00066984    1.356    0.262
        29 -11.1626    148.5010      2.3466   1.5680893458e+01   4.6955250882e+01    0.2466597    0.2109649  71.17 0.0004414925    1.068    0.064
        30  -9.2909    143.6786      6.7243   1.7871203319e+01   4.7782446218e+01     0.141794   0.08745518  41.43 0.0002671424    1.577    0.366
        31 -10.7214    124.3007      4.6072   2.0679426534e+01   5.2692354323e+01    0.3757542    0.2045703  12.59  0.001690582    2.468    0.595
        32 -10.1646     70.7520      5.0931   3.4896236276e+01   6.4142395203e+01    0.2131265    0.1403697   8.83 0.0006362024    1.455    0.313
        33 -11.2424    194.0020      4.7007   1.0493791198e+01   3.5337001437e+01    0.2140096    0.2002889 -78.79 0.0002286225    1.121    0.108
        34  -9.8731    190.2021      3.9315   1.0706569712e+01   3.6352965350e+01    0.2206376    0.1632884 -26.07  0.001029841    1.560    0.359
        35 -10.9114    104.6697      4.3464   2.4856453088e+01   5.7258675726e+01    0.2227869    0.1888401  39.89 0.0002901396    1.031    0.030
        36  -8.6776     79.4719      5.5238   3.2256480465e+01   6.2447592183e+01    0.1293074    0.1042786  23.44 0.0008095262    1.006    0.006
        37 -12.2791     20.1299      2.3808   5.5399155102e+01   7.1791765329e+01    0.2845525    0.1820417  -4.73 0.0008527148    1.313    0.238
        38 -10.2375     48.1650      4.5066   4.3177626021e+01   6.7984234117e+01    0.2715756    0.1744059  20.58 0.0008024055    1.352    0.261
        39 -10.3087     43.7602      4.3570   4.4993917488e+01   6.8645893293e+01    0.2627079    0.1226922  33.57  0.001401953    1.973    0.493
        40 -10.1287     34.2431      4.0117   4.9160219491e+01   6.9968724543e+01    0.1822473    0.1546164  32.58  0.001184553    1.635    0.388
        41  -9.4350     38.9909      3.7208   4.6803588083e+01   6.9382603532e+01    0.1432754   0.08954503  28.65 0.0008872896    1.475    0.322
        42 -10.1760     13.1676      2.8765   5.9396156342e+01   7.2388259767e+01    0.2211869    0.1627992  37.36  0.001519673    2.136    0.532
        43 -10.2183    245.0972      1.5436   5.2766742334e+00   2.3679951234e+01    0.1663215    0.1286361 -89.25 0.0006014523    1.137    0.121
        44  -9.6819    210.5356      2.4354   8.2837158228e+00   3.1524498309e+01    0.1294844    0.1081435 -85.75 1.290662e-05    1.011    0.011
        45 -10.3113    163.1668      1.7988   1.3399938346e+01   4.3324925649e+01    0.3463148   0.07734963  49.51  0.000846102    4.143    0.759
        46 -10.0767    138.1321      1.7708   1.7165644074e+01   4.9570302510e+01    0.1877317    0.1688827  77.37 0.0005792612    1.135    0.119
        47  -9.5214    205.0158      1.5237   8.5812039800e+00   3.2944120562e+01    0.1900367   0.09176767 -77.80 0.0008090379    2.454    0.592
        48  -9.1765     85.2668      1.2865   2.8651775857e+01   6.1669009445e+01    0.1287667   0.07917142  26.63            0    1.497    0.332
        49 -10.6701     29.9068      1.3490   4.9884413047e+01   7.0830576551e+01    0.1771536   0.09466475  32.12 0.0004409366    1.843    0.457
        50  -9.9252      7.9255      1.3867   6.1584474823e+01   7.3039871352e+01    0.1358697    0.0878291   8.37 0.0002799619    1.432    0.302
        51  -9.3335     67.7455    103.9854   7.0688737589e+01   4.7047542746e+01    0.1782464    0.1110956 -54.54 0.0002495857    1.449    0.310
        52 -11.2078     24.2396    248.7471   9.8089343675e+01   2.0408291599e+01    0.2775262    0.1107128  59.89  0.001256316    1.974    0.494
        53 -11.9268     17.6847    248.4843   9.9132330575e+01   2.1153775976e+01    0.4069092    0.2570288  16.75   0.00237598    3.568    0.720
        54 -12.0932      2.2388    233.4305   1.0091761230e+02   2.5398465889e+01    0.3849702    0.2682289  89.09  0.002122488    1.220    0.180
        55 -11.3611      2.4985    247.7433   1.0148437037e+02   2.2810841636e+01    0.3861459    0.2415079  54.63  0.002618716    1.283    0.221
        56 -12.5845      9.8498    245.0960   1.0022084494e+02   2.2554853596e+01    0.5950462    0.2400476 -75.04  0.003190246    2.262    0.558
        57 -11.3132      4.9581    243.3451   1.0091679652e+02   2.3347767670e+01    0.3092098    0.1312752  48.09  0.002008659    1.810    0.447
        58 -12.0346      6.0793    239.9840   1.0059117959e+02   2.3840119043e+01     0.347039    0.2294374  47.99  0.001743038    1.429    0.300
        59 -10.7338    247.7987    101.8941   2.7456222147e+01   9.2626672620e+00    0.2138674    0.1815347 -17.31  0.001220492    1.215    0.177
        60 -11.4077     18.6543     98.7809   8.5335503092e+01   5.3280140476e+01    0.6293024    0.2957211 -79.60  0.002893972    2.379    0.580
        61  -9.4445    217.7999     98.3880   3.1358345259e+01   1.6347892675e+01    0.2006738    0.1365237  42.83 0.0005689983    1.592    0.372
        62  -9.3458    139.6962     98.2898   4.7997876895e+01   3.4899305275e+01    0.1550178    0.1273539 -86.85 0.0001817742    1.569    0.363
        63  -9.7759     37.5206     97.0428   7.8936779638e+01   5.2145073881e+01     0.202454    0.1110361 -61.06 0.0005643666    1.546    0.353
        64 -12.0188     57.6822     92.1074   7.1135045574e+01   5.1096822712e+01    0.4010596    0.3052756 -45.78  0.001173547    1.157    0.136
        65 -10.3251      8.5611     91.9488   8.7447502170e+01   5.5473235731e+01    0.3819371    0.2053523  70.60  0.001513923    2.840    0.648
        66 -10.9230    125.2465     92.9731   5.0342485594e+01   3.9221594272e+01    0.2575404    0.2185422  33.27 0.0002635175    1.190    0.160
        67  -9.6372    119.3198     93.6926   5.2211970401e+01   4.0337568630e+01    0.1536065    0.1255018 -89.54 0.0002572724    1.638    0.389
        68  -9.7934     97.7613     93.6128   5.8568636217e+01   4.4604736208e+01    0.2074725    0.1398069  49.92 0.0006254517    1.671    0.402
        69 -10.3952    113.9112     91.7612   5.3204645043e+01   4.1868501878e+01    0.2068795    0.1966553  25.74 0.0002728404    1.058    0.055
        70 -11.3861    104.1346     91.3217   5.5973384518e+01   4.3905006962e+01    0.4337031    0.2440232  48.85  0.001419784    1.972    0.493
        71 -10.8115     22.9749     90.9555   8.2554586566e+01   5.4761270340e+01    0.4195828    0.2002407 -25.66   0.00122302    2.987    0.665
        72 -11.9068    159.5258     89.4263   4.0587531826e+01   3.1983397856e+01    0.4208597    0.2861396  32.43 2.099608e-05    1.675    0.403
        73 -10.2412     66.7027     91.6344   6.8004050807e+01   5.0029106869e+01     0.221204    0.1943712 -38.09 0.0002821951    1.034    0.033
        74  -9.8946      1.4864     90.0870   8.9429840759e+01   5.6261790748e+01    0.2403066   0.07764618 -63.40  0.001124815    2.124    0.529
        75  -9.8352     45.6307     89.7648   7.4652198788e+01   5.3008292250e+01     0.333403    0.1898184  63.71  0.001360181    3.366    0.703
        76 -13.7920     65.4448     81.8920   6.5823713478e+01   5.2363680517e+01    0.4409367    0.4215192 -39.56 0.0008544213    1.114    0.102
        77 -11.2057      9.5496     80.0613   8.5097007326e+01   5.8075713799e+01    0.2131749    0.1947259  30.24  0.001076705    1.384    0.278
        78  -8.9719     27.4941     82.4808   7.9305496111e+01   5.6327234793e+01    0.1316277   0.09958366 -44.66 1.152302e-05    1.126    0.112
        79 -10.4989     48.0947     79.4909   7.1276054293e+01   5.5039343637e+01    0.2325338    0.1702539 -56.24 0.0004090509    1.268    0.212
        80  -9.3477     24.2920     79.6688   7.9833724839e+01   5.7200794300e+01    0.2011684    0.1041091 -65.07 0.0004931778    1.734    0.423
        81  -9.9091     22.4840     76.5128   7.9798722600e+01   5.8031023680e+01    0.1879834    0.1461889  57.51 0.0007246812    1.710    0.415
        82 -11.5161    179.6616     76.4091   3.2540755340e+01   2.9367306856e+01    0.5387357    0.2544015  49.18  0.002040475    2.087    0.521
        83 -10.4955     74.9758     76.7807   6.1064213721e+01   5.2067685241e+01    0.2173524    0.1848324 -43.73 0.0002684126    1.135    0.119
        84 -10.4228     53.1496     75.8058   6.8473360620e+01   5.5259887695e+01    0.3083197    0.2243383  34.73  0.001479733    1.562    0.360
        85  -9.5795     84.8657     79.3669   5.8519803571e+01   4.9927964963e+01    0.2372221    0.1600436  -1.47  0.001048638    2.055    0.513
        86 -10.9091     12.5281     76.1049   8.3296096667e+01   5.8775953485e+01    0.2972245    0.1335413 -13.44  0.001328213    3.421    0.708
        87 -11.4170      5.9050     73.9379   8.5247116405e+01   5.9612903639e+01    0.2580078     0.159448   9.54  0.001404735    2.002    0.501
        88 -10.8645    130.9147     69.3970   4.1586060377e+01   4.2533867997e+01    0.4233285    0.2864793   4.38  0.001325797    2.157    0.536
        89  -9.4161    105.5335     71.6340   4.9513216072e+01   4.7642930598e+01    0.1456694    0.1376577  14.28   7.5255e-05    1.047    0.045
        90 -10.9365     76.3948     70.0644   5.8501187259e+01   5.3227143632e+01    0.3534929    0.2560481  19.74  0.001234877    1.486    0.327
        91 -12.5538     81.0616     66.9477   5.5889323541e+01   5.3084279791e+01    0.3317841    0.2636109 -33.19 0.0004205056    1.170    0.145
        92  -9.2102    118.6350     70.7588   4.5379990109e+01   4.5051648519e+01    0.1547628    0.1125813  19.09 0.0006709319    1.605    0.377
        93  -9.2530     99.2025     70.0649   5.0959460714e+01   4.9197026566e+01    0.1817521    0.1127182 -38.01 0.0003574957    1.573    0.364
        94 -10.2037     90.5703     69.5096   5.3545703734e+01   5.0924090095e+01    0.2822348    0.2166884 -88.98 0.0008293476    2.237    0.553
        95  -9.3403     39.4723     70.4708   7.2051212911e+01   5.7892930055e+01    0.1286288    0.1100381 -42.68 9.722034e-05    1.059    0.056
        96 -10.9002     10.5672     69.6306   8.2695542199e+01   6.0296631306e+01     0.188153    0.1421001  13.04 0.0007746185    1.601    0.375
        97  -9.9620    151.9832     70.9645   3.6870106213e+01   3.7210773807e+01    0.1844635    0.1801563  28.53 0.0005149551    1.011    0.011
        98 -11.8293    211.9769     67.3070   2.4416612126e+01   2.2871111710e+01    0.2562448    0.2348107 -49.88 0.0003157111    1.055    0.053
        99 -11.8554     16.8126     64.6187   7.9214691657e+01   6.0988688658e+01    0.3209429    0.2750157 -34.62 0.0003972352    1.126    0.112
       100 -13.4696     21.0671     58.3763   7.5971990487e+01   6.2001299162e+01    0.3876693    0.2187199 -47.02 0.0007818387    1.375    0.273
       101 -11.2776      7.9049     62.8767   8.2258546715e+01   6.1882265798e+01    0.2729557    0.1374773 -51.51 0.0002931926    1.461    0.316
       102 -11.8206     11.6997     59.6846   8.0044287517e+01   6.2341217164e+01    0.2158967     0.183028 -42.78 0.0002949198    1.105    0.095
       103 -10.6737     26.9686     65.9629   7.5624755922e+01   5.9967253856e+01    0.1794494    0.1579085 -26.00 0.0003622933    1.138    0.121
       104 -10.9790    128.5689     63.9412   4.0438975094e+01   4.4038070577e+01    0.2968721    0.2467057 -55.03 0.0006293536    1.386    0.279
       105  -9.1263    166.4848     64.4920   3.1745020269e+01   3.4682856412e+01    0.1523498    0.1464999  44.52 9.017767e-05    1.030    0.029
       106 -10.4612     51.9693     63.7637   6.5393193289e+01   5.7921523822e+01    0.2298217    0.1709164 -49.75  0.000265936    1.294    0.227
       107 -10.2709     49.7383     59.7662   6.4999627078e+01   5.8992387682e+01    0.1891199    0.1637358 -54.83 0.0006254927    1.317    0.241
       108  -9.4835    179.5063     63.5423   2.8910009917e+01   3.1539682821e+01    0.1502773    0.1445811  81.98 0.0001308075    1.019    0.018
       109  -9.6439    119.9271     62.5999   4.2336370093e+01   4.6234300157e+01    0.1975112    0.1771364  29.94  0.001052119    1.067    0.063
       110 -10.1375     98.0262     60.8047   4.8226655938e+01   5.1151330508e+01    0.2050347    0.1975082  52.85 0.0006514115    1.221    0.181
       111 -10.1795     42.0737     59.7707   6.7991327567e+01   5.9850778885e+01    0.1781971    0.1620589 -38.28 0.0003945956    1.170    0.146
       112  -9.9896     38.1341     59.7278   6.9531808825e+01   6.0263096189e+01    0.1828728    0.1245448 -28.26 0.0005203223    1.349    0.259
       113 -11.2706     58.3452     58.9630   6.1443097246e+01   5.8066306973e+01    0.2265575    0.1838957  17.40   0.00021104    1.272    0.214
       114  -9.8796     71.4652     56.7354   5.5821386936e+01   5.6588432913e+01    0.1895645    0.1660646 -78.68 0.0005435837    1.674    0.403
       115  -9.7871    229.1628     56.3621   1.9259039916e+01   2.0448742072e+01      0.18642    0.1638994 -86.92 0.0005254481    1.108    0.097
       116 -12.8573    115.2115     53.1803   4.0443177902e+01   4.8863898080e+01    0.3425602    0.3004086  11.71 0.0006730311    1.110    0.099
       117 -10.0840     34.3013     54.9796   6.9638874503e+01   6.1589133895e+01    0.2257789     0.145628 -16.67  0.001270187    1.630    0.387
       118  -9.1592    182.3135     54.3113   2.5761551555e+01   3.2249382521e+01    0.1511902    0.1130084  28.05 0.0003189634    1.633    0.388
       119  -9.8437     66.2558     47.0845   5.4283769418e+01   5.9131633199e+01    0.2011752    0.1733827 -13.57 0.0005097481    1.034    0.033
       120 -10.9138     66.8387     52.7162   5.6107845972e+01   5.8038929754e+01    0.5125055    0.2392159  26.10    0.0020943    2.565    0.610
       121 -12.4756     62.0318     49.7151   5.6846745524e+01   5.9291219996e+01    0.2700007    0.2165421 -27.80 0.0004146863    1.110    0.099
       122  -9.5145     54.3937     55.7435   6.1886140944e+01   5.9205979377e+01    0.1778553    0.1075606 -36.31 0.0004313922    1.464    0.317
       123  -9.4090    148.6420     51.8936   3.1658068659e+01   4.1147397894e+01    0.2093315    0.1332302 -43.77  0.000473211    1.698    0.411
       124 -10.7986    138.1793     50.2551   3.3514010477e+01   4.3970674235e+01    0.2965093    0.2229236  45.82 0.0008990307    1.251    0.200
       125  -9.6009     98.0892     51.1360   4.4800209310e+01   5.2809192004e+01    0.1734612    0.1681134 -52.54  0.001011123    1.257    0.204
       126 -10.1308     83.8581     50.5155   4.9232508356e+01   5.5616250006e+01    0.1980295     0.172095 -14.77 0.0003985616    1.062    0.059
       127 -11.1958     14.0723     48.9059   7.6292269414e+01   6.4394755015e+01    0.2570557    0.1746295 -50.76 0.0003161574    1.200    0.167
       128 -11.0873     10.0357     46.9800   7.7486521836e+01   6.5022603081e+01    0.4265422    0.1414618 -38.69   0.00193884    2.518    0.603
       129 -10.9560     78.3444     50.0350   5.0968848708e+01   5.6664491789e+01    0.2378458    0.1912274  27.51 0.0002904618    1.226    0.185
       130  -9.9763     74.5170     47.1014   5.1248007944e+01   5.7812227149e+01    0.1983405    0.1615854 -44.57 0.0005045151    1.405    0.288
       131  -9.5543    158.9606     48.8076   2.8510030601e+01   3.9009197976e+01    0.1945975    0.1663227 -80.72 0.0002627277    1.315    0.239
       132  -9.6083    154.8907     47.1567   2.8822386010e+01   4.0277205724e+01    0.2083975    0.1661679  35.22 0.0006612853    1.293    0.226
       133  -9.8749    129.6194     45.9972   3.4149777252e+01   4.6661348815e+01    0.1961628    0.1795426  -4.97  0.001083355    1.114    0.103
       134 -10.6249    103.4040     44.9344   4.0913687234e+01   5.2707448960e+01    0.3505395    0.2133967 -42.98  0.001629788    1.845    0.458
       135 -10.0961     79.0069     45.5000   4.9051024847e+01   5.7316421436e+01    0.2029713    0.1675305 -19.70 0.0003316778    1.120    0.107
       136 -10.0233      1.7510     45.5152   8.0664778022e+01   6.5743165028e+01    0.1760622    0.1340146 -39.22  0.001183134    1.069    0.064
       137 -10.0669     17.4553     44.6458   7.3596237598e+01   6.5005060452e+01    0.2349823    0.1867491  86.47    0.0014824    2.044    0.511
       138 -10.1675     85.9019     42.9060   4.5700338870e+01   5.6492295662e+01    0.2035121    0.1764713   1.95 0.0003723152    1.023    0.022
       139 -10.2861     27.0944     42.5878   6.8723563314e+01   6.4640231937e+01    0.2828445    0.1349505  24.19  0.001486844    2.300    0.565
       140 -12.0075    141.6573     40.9828   2.9643332049e+01   4.4450831441e+01    0.2908988    0.2279169  58.60 0.0003132556    1.222    0.182
       141 -11.7457     91.2061     39.9392   4.2821744898e+01   5.5936664541e+01    0.2657705     0.239134 -29.20 0.0002763132    1.228    0.186
       142 -11.1392     37.2687     41.2684   6.3851554310e+01   6.3905385296e+01    0.3815559    0.2936022  38.86  0.002393684    1.711    0.416
       143 -11.6935    184.4694     40.0738   2.1358941393e+01   3.3706698212e+01    0.7154804     0.321984  72.92  0.002649553    2.610    0.617
       144 -10.6051     81.3532     38.6722   4.5612276472e+01   5.7984914626e+01    0.2448105    0.1996186  12.24  0.000511607    1.116    0.104
       145 -10.3750    116.5409     40.7289   3.5662408259e+01   5.0457776300e+01    0.2789311    0.2248047 -60.08  0.001006766    1.620    0.383
       146 -12.0823    121.4545     36.9585   3.3028636719e+01   4.9850681564e+01    0.4502937    0.2734834 -32.36  0.001163741    1.731    0.422
       147 -10.6242     66.9359     36.9920   5.0150287826e+01   6.0702238606e+01    0.2045444    0.1669201  -5.10 0.0004354743    1.059    0.056
       148  -9.5070    102.6326     35.8676   3.7753367944e+01   5.4192829832e+01      0.18421    0.1247217 -39.98 0.0003733522    1.655    0.396
       149  -9.4776    112.7820     34.7859   3.4500606774e+01   5.2122742475e+01    0.1755433    0.1659756 -89.21 0.0003378184    1.302    0.232
       150  -9.3435    207.7023     34.7069   1.6613917321e+01   2.8568754298e+01    0.1334164    0.1041397  36.61 0.0004554015    1.563    0.360
       151 -10.1423    145.1116     32.5562   2.6121875392e+01   4.4691136527e+01    0.2475672    0.1883621  76.06 0.0006093959    1.424    0.298
       152 -10.3290     31.6610    247.9112   9.6826207432e+01   1.9735250443e+01    0.1806146    0.1543092 -47.13 0.0009551622    1.972    0.493
       153  -9.7951     55.1418     32.8231   5.3088466816e+01   6.3134257509e+01    0.1716993    0.1254938  -6.05            0    1.256    0.204
       154 -11.6959    212.9723     31.8705   1.5243005886e+01   2.7638140030e+01    0.2203098    0.1980979 -79.00            0    1.013    0.013
       155  -9.3833    128.3089     32.7491   2.9863643320e+01   4.8782467361e+01    0.1330183    0.1110356 -85.14 0.0003511465    1.512    0.339
       156 -10.9243     45.5762     33.7766   5.7453685718e+01   6.4252117301e+01     0.239511    0.1866172 -39.18 0.0005985634    1.353    0.261
       157 -10.3935     87.6748     31.4947   4.0653538486e+01   5.7837971116e+01    0.3356399    0.1178453  44.34  0.001296132    2.639    0.621
       158 -12.5276     11.0037     29.8014   7.1750172225e+01   6.8216485798e+01    0.2435075    0.2016774  15.62 0.0009910398    1.465    0.317
       159  -9.9332      1.1668     30.6401   7.6747201831e+01   6.8626464960e+01    0.2021608   0.07048517 -59.38 0.0006749341    2.583    0.613
       160  -9.4197     69.6202     29.8009   4.6219063464e+01   6.1348277007e+01    0.1845724    0.1141478 -39.79 0.0009586417    1.773    0.436
       161 -10.0599     39.3429     29.9253   5.8615178499e+01   6.5632839214e+01    0.2347018    0.1385456   6.23 0.0006494338    1.887    0.470
       162 -11.1110    135.6771     29.0942   2.6936655314e+01   4.7448008924e+01    0.2505207    0.1902657  54.58 0.0002859741    1.197    0.165
       163  -9.2209    131.8292     26.5653   2.6898988199e+01   4.8684678639e+01    0.1840332    0.1313198  71.96 0.0005955262    1.543    0.352
       164 -10.0914     21.0500     37.8929   6.9834478310e+01   6.6016058473e+01    0.1809812    0.1405167 -29.72 0.0004779159    1.018    0.017
       165 -10.0751    201.8966     28.3187   1.5699954112e+01   3.0802639620e+01    0.2221243    0.1577374 -84.96  0.000644244    1.440    0.306
       166 -10.8463    165.0683     26.8140   2.0621215390e+01   4.0324649704e+01    0.2491575    0.2132359  52.20 0.0002372063    1.110    0.099
       167  -9.6661    144.0234     27.4865   2.4665531912e+01   4.5573948646e+01    0.2094689     0.131567  62.24 0.0003809708    1.484    0.326
       168 -10.3421    216.9258     25.6571   1.3251040880e+01   2.7445666139e+01    0.2433939     0.184928  53.32 0.0003144268    1.428    0.300
       169 -11.2343    213.0212     23.9357   1.3262914329e+01   2.8594293614e+01    0.3117917    0.1956034 -66.31 0.0002990695    1.659    0.397
       170 -10.2523     90.8067     25.4252   3.7211695827e+01   5.8014917850e+01    0.3036489    0.1577874 -42.16  0.001363874    2.397    0.583
       171  -9.5207     59.8693     25.8378   4.8269158696e+01   6.3486177467e+01    0.1569896    0.1464356  -3.55  0.000418646    1.316    0.240
       172 -10.3071     52.3350     23.6418   5.0369695372e+01   6.4920274964e+01    0.2728009    0.1779851 -41.14  0.001556487    1.737    0.424
       173 -11.6765     47.2536     23.6623   5.2524578158e+01   6.5620592236e+01    0.3931751    0.2161121  20.12  0.001393408    1.905    0.475
       174 -10.2626    131.3640    247.0983   7.8680440762e+01   6.0274646610e+00    0.1633933    0.1428936  55.75 0.0007362785    1.123    0.110
       175 -10.2579     38.8531     13.8721   5.1825859481e+01   6.8106515888e+01    0.1824082    0.1430408  -4.94  0.001246512    1.043    0.041
       176 -10.1590    115.9971    246.7006   8.1571635916e+01   8.5133021715e+00     0.170725    0.1332966  48.26 0.0005218366    1.038    0.037
       177 -11.4203     33.4059     24.0006   5.8853936717e+01   6.7251585553e+01    0.2423614    0.2174533   9.35 0.0001133242    1.375    0.273
       178 -10.5938     32.2690     20.5642   5.7912259226e+01   6.7910857974e+01    0.2844212    0.1677393  -2.94 0.0007929206    1.799    0.444
       179  -9.9191      2.9837     26.4770   7.4521457808e+01   6.9292664750e+01    0.1471241   0.09993036   3.80 0.0004576032    1.560    0.359
       180 -10.0378    103.7843     24.8376   3.3177101179e+01   5.5367141503e+01    0.2362365    0.1595589  40.23 0.0005652156    1.321    0.243
       181  -9.4714     25.7413     25.0453   6.2886175424e+01   6.7861965270e+01    0.1627601    0.1159694 -30.32 0.0002976779    1.133    0.117
       182  -9.7484    250.8246     23.1754   9.3824906477e+00   1.9986983302e+01    0.1609167   0.08134872 -38.55 0.0008145508    1.782    0.439
       183 -10.8729    130.1663     22.3227   2.5775109825e+01   4.9567874119e+01    0.2969112    0.2310359  23.01 0.0008282135    1.336    0.251
       184 -10.2705    112.9809     22.0801   2.9693024424e+01   5.3637512437e+01    0.3802901    0.1946916  21.93   0.00149277    2.809    0.644
       185 -10.8480    200.8363     22.0995   1.4215434124e+01   3.1801330961e+01     0.219961    0.1665199 -73.16  0.001049927    1.302    0.232
       186 -10.9444    163.0248     20.7046   1.9100190011e+01   4.1532747200e+01    0.3252161    0.2427278  18.69  0.001023611    1.647    0.393
       187  -9.1857    119.3984     22.5075   2.8283745494e+01   5.2108944772e+01    0.1385383    0.1222552  32.81 8.552887e-05    1.026    0.025
       188  -9.5999     97.1644     21.8618   3.3869553379e+01   5.7135111247e+01     0.180393    0.1359997  20.49            0    1.248    0.199
       189  -9.9666     21.5134     22.3078   6.3812865358e+01   6.8698505030e+01    0.2014979    0.1198744   1.98 0.0008277347    1.720    0.419
       190 -10.9091     16.6344     20.8394   6.5627767999e+01   6.9352754147e+01    0.3055092    0.2288455   1.40  0.001734381    1.280    0.218
       191 -10.5518     14.3382     16.2309   6.4889033010e+01   7.0285442533e+01    0.2128066    0.1597645 -39.42 0.0007890316    1.336    0.252
       192  -9.9939    124.2818     21.0218   2.6610761176e+01   5.1121547668e+01    0.1880753    0.1717901  30.75 0.0004391476    1.053    0.051
       193 -10.0550    106.6002     21.3226   3.1047866231e+01   5.5156423002e+01     0.225463    0.1314422  37.02 0.0002679474    1.599    0.375
       194  -9.4515     84.3149     21.3017   3.7559593634e+01   5.9806104340e+01    0.1390603   0.08903826  18.45  0.000468043    1.615    0.381
       195 -10.1921     78.5955     21.2213   3.9413393708e+01   6.0904666177e+01     0.212715    0.1347499  36.07  0.001145961    1.426    0.299
       196  -9.4865     63.8274     21.3605   4.4786015066e+01   6.3473526403e+01    0.1803709    0.1029465  29.82 0.0009413784    1.658    0.397
       197  -9.5883    191.3272     20.6790   1.5023219142e+01   3.4341159512e+01    0.1462065   0.09517058 -68.18 0.0005206277    1.686    0.407
       198  -9.8371     57.9627     20.1615   4.6542103555e+01   6.4566774730e+01    0.1692607    0.1493215  -2.71 0.0003014639    1.208    0.172
       199  -9.6033      1.6881     20.0606   7.2938043585e+01   7.0495092072e+01    0.1603346    0.1103185 -35.44   0.00114396    1.054    0.052
       200  -9.5632    138.6255     18.8335   2.2830193330e+01   4.7872707342e+01    0.1813938    0.1250185 -38.68 0.0003001798    1.625    0.384
       201 -10.8109     70.6686     18.6266   4.1049598964e+01   6.2660752603e+01    0.2203207     0.192177   1.23 0.0005475151    1.134    0.118
       202 -12.0805     24.4180     17.9434   6.0546377616e+01   6.9125063381e+01    0.2226752    0.1590705  -9.80 0.0003443866    1.154    0.134
       203  -9.6594    243.3035    244.3707   5.7239435100e+01  -1.1147210035e+01    0.1248352   0.07243059   6.09 0.0007032593    1.752    0.429
       204  -9.7223    225.7304     17.9750   1.0508576246e+01   2.6258474573e+01    0.1526729    0.1088994 -36.70 0.0003326247    1.435    0.303
       205 -10.6707    220.0495     17.6743   1.0998374748e+01   2.7632792853e+01      0.21741     0.145112 -84.02  0.001173186    1.453    0.312
       206 -10.3689     90.9112     18.2215   3.4223273404e+01   5.8849415854e+01    0.2541828    0.1513597  31.76 0.0006816974    1.580    0.367
       207  -9.9729    147.9093     16.7283   2.0403467188e+01   4.5776790591e+01     0.187746    0.1638518  65.20 0.0002573266    1.057    0.054
       208 -10.5344     52.6047    243.7803   9.2982639636e+01   1.7989103564e+01    0.1918431   0.09441688 -69.39  0.001131197    2.102    0.524
       209  -9.8559    240.0116     15.2688   8.5998491106e+00   2.3297899599e+01    0.1514777   0.09952073  78.52 0.0003778515    1.425    0.298
       210  -9.9434    147.4878    243.4844   7.5113548225e+01   3.9970425553e+00    0.1268874    0.1020372  41.05 0.0008103596    1.005    0.005
       211 -10.5004     37.8963    241.6261   9.5396361607e+01   2.0151542801e+01     0.375987   0.08182088  56.94  0.001311434    5.173    0.807
       212  -9.5428    230.1855    247.3727   6.0058504051e+01  -9.6294533444e+00    0.1547305   0.09266442  37.87 0.0004954523    1.536    0.349
       213 -10.4569     31.7443    233.0405   9.5922448367e+01   2.2440818489e+01    0.3121389    0.1070052  37.55   0.00155997    2.691    0.628
       214  -9.4230     55.2870    231.6378   9.1585105845e+01   1.9899903599e+01    0.1247063   0.06823808  68.45  0.000643187    1.689    0.408
       215  -9.5725    246.0169    230.5209   5.4419151627e+01  -9.8934730586e+00    0.1744466   0.09901728  31.42 0.0005952726    1.518    0.341
       216 -10.5255      7.6753    228.8773   9.9810069242e+01   2.5725909321e+01    0.1597398    0.1087564 -76.28  0.001189209    1.468    0.319
       217  -9.7859    140.0126    227.6235   7.4467653532e+01   7.8727705289e+00    0.2268361    0.1718185  78.82  0.001293589    1.686    0.407
       218 -10.0292    223.4842    226.0013   5.7725477164e+01  -5.9191045175e+00    0.1733977   0.09601697  -8.26 0.0005681497    2.459    0.593
       219 -11.6897      2.9692    220.8926   1.0021368393e+02   2.7680713220e+01    0.4188824    0.1429999  76.22  0.001706329    3.028    0.670
       220 -10.3399      7.7013    221.6066   9.9440331440e+01   2.7102200191e+01    0.2266473    0.1015018 -87.71  0.001345299    1.891    0.471
       221  -9.5000    210.3565    215.8083   5.8430987835e+01  -2.3419840453e+00    0.1733501     0.113661 -20.98 0.0005889259    1.650    0.394
       222  -9.7789     85.7330    215.0072   8.4046848162e+01   1.8977324758e+01    0.1637233    0.1414642  76.96 0.0001821332    1.082    0.075
       223  -9.8750    111.3252    214.3331   7.8621103403e+01   1.5122728479e+01    0.1241659    0.1041055  -2.65 0.0007051066    1.711    0.415
       224  -9.3626    229.7110    208.6662   5.3453328792e+01  -4.5084063137e+00    0.1341999   0.08748574   3.71 0.0005675753    1.629    0.386
       225  -9.9634     39.0890    207.3414   9.2729789360e+01   2.6678243415e+01    0.1636256    0.1232624  61.23 0.0004955222    1.142    0.124
       226  -9.4492     86.4412     10.4499   3.2284473725e+01   6.0584071453e+01    0.1285152    0.1106272  24.33 0.0001074676    1.065    0.061
       227 -10.7791      2.7434    205.0065   9.9437490588e+01   3.0815200472e+01    0.1874125   0.09499297  64.68 0.0005358335    1.624    0.384
       228  -9.9114    237.6589    186.4630   4.7695621875e+01  -2.5542431325e+00    0.2163377    0.1400482 -10.80  0.000665949    1.632    0.387
       229  -9.4304    229.5133    165.5371   4.4866346331e+01   2.2144560793e+00    0.1415642    0.1234839  -1.96  0.000414034    1.018    0.018
       230 -10.2970     13.4925    164.4976   9.4527235081e+01   3.8510675814e+01    0.1198243   0.09259724  88.64 0.0006082092    1.021    0.020
       231  -9.0705     39.3062    151.6892   8.7103960189e+01   3.9040531509e+01    0.1319715   0.08558407  72.56 0.0003815117    1.616    0.381
       232 -10.5475     22.3195    150.1114   9.1112928684e+01   4.1033039864e+01    0.1790375    0.1749694 -25.90 0.0009391965    1.340    0.254
       233 -10.7961      6.5529    145.6114   9.4463628034e+01   4.3311141221e+01     0.300398    0.1574762 -86.77 0.0009009391    1.647    0.393
       234 -10.6868     29.7354    139.4419   8.8014774806e+01   4.2863176020e+01    0.3635585    0.1704191  52.45  0.001469531    2.447    0.591
       235  -9.4612    235.5136    137.5269   3.7605336452e+01   5.7840079830e+00    0.1425809    0.1287508 -17.89  0.000809892    1.012    0.011
       236  -9.4707      1.9680    140.0524   9.5059324339e+01   4.4885081572e+01    0.1435808     0.104049 -80.66 0.0003683825    1.062    0.058
       237  -9.9737     95.9789    134.2179   6.9020820094e+01   3.5524880300e+01    0.2788979    0.1837658 -68.22  0.001259488    1.673    0.402
       238 -10.3543     28.0918    129.8413   8.7202198568e+01   4.5275399621e+01    0.1818855     0.146393  84.25 0.0002819545    1.205    0.170
       239  -9.3176     92.4423    129.4431   6.8995886754e+01   3.7256876282e+01    0.1463736    0.1380012 -78.01 -2.72923e-06    1.043    0.041
       240  -9.1651     70.6828    129.6941   7.5228409084e+01   4.0520921707e+01    0.1413146    0.1046144 -30.56 0.0007028348    1.629    0.386
       241 -10.0338     10.7776    128.8056   9.1708298978e+01   4.6869864499e+01    0.2009604    0.1362103 -16.32  0.001198467    2.129    0.530
       242 -10.0907     47.4976    128.4726   8.1606088267e+01   4.3693972171e+01    0.1336474    0.1158619 -73.48 5.768322e-06    1.020    0.020
       243  -9.7646    247.3382    126.7046   3.3182721235e+01   5.2868048064e+00    0.1351877    0.1068983 -66.05 0.0002579115    1.653    0.395
       244 -10.6041     25.2423    124.3666   8.7240561444e+01   4.6809187780e+01    0.3427964    0.1454483 -83.26  0.001391604    2.882    0.653
       245  -9.7677    208.5177    123.4695   3.9241117980e+01   1.3937629849e+01    0.1500963    0.1436902 -22.77 0.0002982155    1.024    0.023
       246 -11.3819     11.0654    120.9687   9.0718774028e+01   4.8663403180e+01    0.3375042    0.2526933 -16.72  0.001043534    1.776    0.437
       247  -9.5627     52.0155    121.0127   7.9019716708e+01   4.4976341677e+01    0.1560559    0.1402876 -66.05 0.0009513002    1.027    0.026
       248 -11.3014     69.4133    115.3395   7.2703297417e+01   4.4138836863e+01    0.2962409    0.2472641  33.95 0.0001609989    1.313    0.239
       249 -12.4715     23.3133    113.3026   8.6201997827e+01   4.9563945654e+01    0.2921558    0.2048658 -63.35 0.0002803059    1.156    0.135
       250 -10.0600      5.8789    113.0576   9.1197324377e+01   5.0813934782e+01    0.2332755    0.1347693 -59.84  0.001385325    1.378    0.274
       251 -10.0491      2.5511    111.5521   9.1953960125e+01   5.1349229791e+01    0.1667436    0.1224627  72.09 5.121517e-05    1.461    0.316
       252 -11.0530     13.9014    107.7925   8.8176710622e+01   5.1524312119e+01    0.3172719    0.1176351 -59.11  0.001240583    1.991    0.498
       253 -10.6865     17.9023    105.4019   8.6621601803e+01   5.1804799530e+01    0.2000158    0.1404089 -74.19 0.0003486102    1.230    0.187
       254  -9.7190     90.6829    105.6921   6.3969431748e+01   4.3135865689e+01    0.1508642    0.1134763 -17.27 0.0002005753    1.633    0.388
