#   1 NUMBER                 Running object number                                     
#   2 MAG_AUTO               Kron-like elliptical aperture magnitude                    [mag]
#   3 X_IMAGE                Object position along x                                    [pixel]
#   4 Y_IMAGE                Object position along y                                    [pixel]
#   5 X_WORLD                Barycenter position along world x axis                     [deg]
#   6 Y_WORLD                Barycenter position along world y axis                     [deg]
#   7 A_WORLD                Profile RMS along major axis (world units)                 [deg]
#   8 B_WORLD                Profile RMS along minor axis (world units)                 [deg]
#   9 THETA_WORLD            Position angle (CCW/world-x)                               [deg]
#  10 FWHM_WORLD             FWHM assuming a gaussian core                              [deg]
#  11 ELONGATION             A_IMAGE/B_IMAGE                                           
#  12 ELLIPTICITY            1 - B_IMAGE/A_IMAGE                                       
         1 -13.0990    189.8924     15.1850   5.9185282434e+01   3.6287217204e+01     1.990407    0.8254594 -76.48  0.006628486    4.852    0.794
         2 -14.1515    171.5387     47.7957   6.9670792885e+01   3.6588817409e+01     1.661433     1.145874  25.44  0.005667513    2.230    0.551
         3 -14.0853    185.4371     33.8883   6.4114826805e+01   3.5145651441e+01    0.8457244    0.7320558 -37.95  0.003810846    1.351    0.260
         4 -13.7942    189.8933     27.4592   6.2011447196e+01   3.4895965960e+01    0.6924983    0.5960062 -78.45  0.001139689    1.088    0.080
         5 -14.1409    206.4676      5.3160   5.5342135994e+01   3.3601818256e+01     1.078594    0.8021441  63.38  0.005814129    1.397    0.284
         6 -12.2139    185.0642    221.6794   1.0666821356e+02  -3.9077926696e-01    0.5708169    0.2014036  32.77  0.001981286    3.207    0.688
         7 -19.6755     35.0055    161.2309   1.3271429527e+02   3.7969123213e+01     20.79749     6.284354 -71.74   0.07126676    3.373    0.704
         8 -11.1978    104.9288    194.1611   1.2008685501e+02   1.9914833347e+01    0.3190019    0.2428672 -15.63  0.001068997    1.990    0.497
         9 -12.9209    114.0616    208.3322   1.2019048093e+02   1.5028701621e+01     0.568233    0.3673679  78.77  0.002494317    2.107    0.525
        10 -11.5397    154.6176    196.0293   1.0865398978e+02   1.0360937606e+01    0.4537181    0.2947254  72.81   0.00181482    2.489    0.598
        11 -11.2489     99.4900    192.0966   1.2107021169e+02   2.1335974073e+01    0.2750183    0.1989816  52.00 0.0005266539    1.348    0.258
        12 -11.8060     60.7298    189.9320   1.3013825768e+02   2.7784079624e+01    0.4751039    0.2656701 -68.84  0.001538714    1.649    0.394
        13 -12.4556    109.9749    188.7866   1.1795793778e+02   2.0321986782e+01     0.542769    0.3429179 -20.94  0.002003199    3.158    0.683
        14 -12.0898    110.1405    182.8920   1.1688566537e+02   2.1715066192e+01     0.315418    0.2710103 -43.31  0.001646111    1.271    0.213
        15 -13.4516    106.7527    209.2177   1.2201939706e+02   1.6080399990e+01    0.7958108    0.5985975 -83.78  0.003657405    1.436    0.303
        16 -10.0685    153.4818    186.5005   1.0709109332e+02   1.2693641395e+01    0.1496049    0.1466757  58.82 -3.79294e-05    1.011    0.011
        17 -10.4095    166.9545    187.9605   1.0429381745e+02   9.7515239891e+00     0.231293    0.2249368 -50.12 0.0008570365    1.051    0.048
        18 -12.1766     99.4570    180.3413   1.1911172717e+02   2.4203119757e+01    0.4059992    0.2914524 -51.62  0.001405434    1.411    0.291
        19 -10.3940    209.2266    177.1886   9.3119457317e+01   3.9064008793e+00    0.3356165    0.2210878 -13.59  0.001469611    2.120    0.528
        20 -11.6918    143.4471    178.8012   1.0794293009e+02   1.6415146547e+01    0.3887653    0.2022203  45.22  0.001537764    1.913    0.477
        21 -12.4875    104.2036    199.9615   1.2119079426e+02   1.8663606233e+01    0.4875609    0.4559074  71.22  0.002037488    1.039    0.037
        22 -11.6224      7.6748    214.9063   1.4412876916e+02   2.8041721578e+01    0.3386887    0.1980658  11.75  0.001743715    3.343    0.701
        23 -12.3874    137.2358    170.9455   1.0786848619e+02   1.9481531621e+01    0.7979393    0.2801303  37.92   0.00251875    3.040    0.671
        24  -9.9454    192.7011    163.3415   9.3559100893e+01   9.9350186801e+00    0.2977805    0.2026879 -45.01 0.0007164174    1.412    0.292
        25 -11.7928    195.7510    169.3313   9.4205417397e+01   8.0755345482e+00    0.4999912    0.4103221 -74.25 0.0007259998    1.500    0.333
        26 -10.2949     97.9041    213.7776   1.2471516862e+02   1.6511689584e+01    0.2519675    0.1918982  28.26  0.001323198    1.517    0.341
        27 -11.5479    146.1519    168.1257   1.0511090961e+02   1.8364367822e+01    0.3346954    0.2151463 -37.65  0.001415906    1.729    0.421
        28 -11.7217    116.9544    213.0635   1.2025898636e+02   1.3460099022e+01     0.218354    0.1979726  60.49 0.0004036776    1.014    0.014
        29 -10.8181    163.0303    210.5266   1.0941863985e+02   5.7110462619e+00    0.3152502    0.1890298 -55.15  0.001425878    1.871    0.466
        30 -13.8927    113.2919    196.8406   1.1851751089e+02   1.7822544103e+01    0.8222464    0.6206304 -28.57  0.003969144    1.771    0.435
        31 -12.1990    126.8143    208.6756   1.1729570606e+02   1.2702698236e+01    0.4219332    0.2850041  -7.71  0.001693523    2.852    0.649
        32 -11.0864    140.7101    157.3995   1.0415023333e+02   2.1993197561e+01    0.2918773    0.2614014 -86.83 0.0004909557    1.187    0.157
        33 -10.3177    188.9915    154.7306   9.2456235826e+01   1.2517574555e+01    0.2011614    0.1345057  44.97 0.0009026183    1.558    0.358
        34 -11.0581    165.1830    153.0170   9.7316889759e+01   1.7893884971e+01    0.3624976    0.2140424  62.50   0.00136922    2.306    0.566
        35 -12.3757    133.8532    144.9064   1.0308683794e+02   2.6362343987e+01     1.241003    0.3284563 -54.71  0.002948881    5.150    0.806
        36 -11.9419    148.1276    148.8980   1.0042940642e+02   2.2447291513e+01    0.5966456     0.354132  71.23  0.001845922    3.031    0.670
        37 -10.3044    112.6662    150.3097   1.0984151378e+02   2.9246588652e+01     0.161359    0.1208032  78.52 0.0003508588    1.675    0.403
        38 -10.4663    174.9065    149.1111   9.4238566508e+01   1.6697102242e+01    0.2416747    0.2132537 -85.91  0.000532666    1.258    0.205
        39 -12.5833    109.3091    140.0636   1.0849450155e+02   3.2380036631e+01    0.6745635    0.3749052 -34.44  0.002529625    2.356    0.576
        40 -12.4289     98.2331    140.0486   1.1156258191e+02   3.4404857139e+01    0.3551764    0.3222306  81.79 0.0004369404    1.157    0.136
        41 -11.4705    106.1071    130.8833   1.0726900371e+02   3.5193167029e+01    0.4152314     0.336163 -60.82  0.001293091    1.236    0.191
        42 -11.4670    104.0891    126.6223   1.0682712357e+02   3.6582981996e+01    0.3359674    0.2793535 -27.18  0.000743318    1.327    0.246
        43 -12.4178    136.4031    125.1676   9.7723267694e+01   3.0413962373e+01    0.8501889    0.3297323 -43.30  0.002814595    2.626    0.619
        44 -11.0509    160.5149    127.4751   9.2415828183e+01   2.4611362328e+01    0.4100153    0.2735369 -65.77  0.001302898    1.844    0.458
        45 -10.5198    111.1427    119.1040   1.0298563886e+02   3.6992331679e+01    0.2469736    0.2215818  39.53 0.0003811796    1.144    0.126
        46 -10.5516    168.2018    113.0693   8.7128727094e+01   2.5949608671e+01    0.3679388    0.2694509 -80.81   0.00119501    1.766    0.434
        47 -12.4574    117.4794    129.8622   1.0387953376e+02   3.3242133501e+01    0.5721475    0.3913749  30.98  0.002005161    1.647    0.393
        48 -10.8858     93.4321    205.6367   1.2458357238e+02   1.9119361995e+01    0.3361369    0.2543466 -39.58  0.001430477    1.660    0.398
        49 -10.2657    205.6689    110.1260   7.9032013236e+01   1.8079698622e+01    0.2637224     0.215959  51.38 0.0006403079    1.315    0.240
        50 -11.3719     88.3669    203.3801   1.2544228203e+02   2.0462035028e+01    0.4258445    0.2700175  55.09  0.002066418    1.550    0.355
        51  -9.9804    163.2973    203.9779   1.0817147368e+02   7.0228868365e+00    0.1982861    0.1868073 -41.98 0.0003849324    1.101    0.092
        52 -10.4804    157.8970    203.6176   1.0931436138e+02   8.1043363546e+00    0.3537754    0.2251841  74.17  0.001363444    2.832    0.647
        53  -9.2976    127.6745     94.7148   9.1990664051e+01   3.8842169148e+01    0.1510668    0.1196274   9.65 0.0004716977    1.604    0.376
        54 -12.4381    193.3921    192.6886   9.9483682541e+01   3.7455314658e+00    0.8942465    0.4772204 -53.45  0.003237953    2.170    0.539
        55  -9.3734    152.3150     79.7083   8.1903421211e+01   3.6102053139e+01    0.1493416    0.1143085 -83.54 0.0002889404    1.595    0.373
        56 -12.5565    171.2988     70.5576   7.5608358371e+01   3.3187209167e+01    0.4987475    0.3213976 -86.63   0.00128671    2.129    0.530
        57 -11.1206     95.5277    200.7935   1.2337722978e+02   1.9917869647e+01    0.3890441    0.2348431  85.10  0.001623353    2.301    0.565
        58  -9.9316    108.0554     62.7433   8.7864139250e+01   4.8818699695e+01    0.1925531     0.167436  37.65 0.0003107183    1.083    0.077
        59  -9.9673    168.4722    248.4455   1.1453408053e+02  -2.4240425133e+00    0.1310813    0.1138949  33.51 3.953103e-05    1.039    0.037
        60 -10.2864    209.7786    198.8341   9.7342880608e+01  -3.7925556805e-01    0.1823839    0.1649011 -65.46 0.0005635209    1.363    0.266
        61 -11.4994    159.7002    236.0274   1.1443238646e+02   1.2786366899e+00    0.1826776    0.1797767  -3.63 0.0005112803    1.112    0.101
        62 -10.5194    198.7898    222.7933   1.0403701253e+02  -2.9136706103e+00    0.1993854    0.1693975   4.47 0.0005452986    1.119    0.106
