#   1 NUMBER                 Running object number                                     
#   2 MAG_AUTO               Kron-like elliptical aperture magnitude                    [mag]
#   3 X_IMAGE                Object position along x                                    [pixel]
#   4 Y_IMAGE                Object position along y                                    [pixel]
#   5 X_WORLD                Barycenter position along world x axis                     [deg]
#   6 Y_WORLD                Barycenter position along world y axis                     [deg]
#   7 A_WORLD                Profile RMS along major axis (world units)                 [deg]
#   8 B_WORLD                Profile RMS along minor axis (world units)                 [deg]
#   9 THETA_WORLD            Position angle (CCW/world-x)                               [deg]
#  10 FWHM_WORLD             FWHM assuming a gaussian core                              [deg]
#  11 ELONGATION             A_IMAGE/B_IMAGE                                           
#  12 ELLIPTICITY            1 - B_IMAGE/A_IMAGE                                       
         1 -13.3852     68.3718    144.1605   8.7036550417e+01   3.7576964878e+01     3.590795     1.732494  81.77  0.002979334    5.142    0.806
         2 -12.9394    214.2487     51.1803   3.1970699472e+01   2.6349504272e+01     1.073331    0.9779709  16.12  0.006769467    1.276    0.216
         3 -13.5151    232.9254     37.8448   2.6924482813e+01   2.4151313024e+01      1.25744      0.89898  39.29  0.007614744    1.817    0.450
         4 -11.7831      2.1595     78.1687   1.0158198677e+02   6.1031926926e+01     0.945368    0.1490528 -71.77  0.002887962    4.087    0.755
         5 -12.0499      2.0000      8.5141   8.2748859867e+01   7.8121554923e+01    0.9959996     0.373227 -67.95  0.003707611    3.757    0.734
         6  -8.3836    198.6143    222.8229   7.0277212246e+01   5.4725745264e+00     0.123998     0.095674 -30.95 0.0003604955    1.546    0.353
         7 -10.1315    134.7037    250.1574   8.4980207846e+01   9.5786030474e+00    0.1914246    0.1117291  35.44 0.0008487163    1.371    0.270
         8  -9.4132     81.2204    250.0526   9.5025469885e+01   1.5550858442e+01    0.1660248    0.0968769  59.88  0.001074402    1.926    0.481
         9 -12.7470     42.8394    174.8076   9.7602577537e+01   3.3577632698e+01     1.270634    0.7629953 -10.45  0.001017332    3.059    0.673
        10 -11.6341     50.2906    169.0410   9.5128603717e+01   3.4050491937e+01    0.2950272    0.2623813 -16.82 0.0004327098    1.409    0.290
        11 -15.5950     14.0868    242.2400   1.0755352176e+02   2.3274943997e+01     7.969748     6.608506  62.16   0.06802715    1.186    0.157
        12 -11.8957     76.4042    139.1831   8.3910784249e+01   3.7633365527e+01    0.4255746    0.3123589 -67.62 0.0004646505    1.381    0.276
        13 -12.6219     72.1943    153.5455   8.7329816499e+01   3.4878395760e+01    0.8598599    0.6700503  44.38  0.001508281    1.210    0.173
        14 -13.6021     10.3540    206.7150   1.0718154438e+02   2.9960759017e+01     1.114361    0.6822253  19.33  0.004093004    1.798    0.444
        15 -10.9171     62.9916    159.9132   9.0703868355e+01   3.4613739524e+01    0.2825871    0.2504532  20.14 0.0004530729    1.241    0.194
        16 -13.1435     48.4074    155.5778   9.4236802128e+01   3.7344957726e+01    0.5370191     0.367052 -33.73  0.001944295    1.966    0.491
        17 -13.0349      8.4311    199.9717   1.0737077437e+02   3.1441070206e+01    0.4994952    0.3393413  21.47  0.000754075    1.591    0.371
        18  -9.5810    108.4784    220.0000   8.6905210847e+01   1.7086990865e+01    0.2642301   0.05528224  32.12 0.0009342415    3.931    0.746
        19 -10.5359     89.1303    141.3342   8.0659341513e+01   3.5235935603e+01     0.303701    0.2889696 -27.21 0.0008554911    1.134    0.118
        20  -9.3495     93.2235    137.9319   7.8895874162e+01   3.5370439480e+01    0.3002387    0.2095458  12.09  0.001148279    1.887    0.470
        21  -9.4034    141.2320    221.9892   8.0566644971e+01   1.2666282769e+01    0.1310514   0.09501683 -43.53 0.0007252882    1.634    0.388
        22 -10.3792    105.1766    130.4814   7.4115900666e+01   3.5066365864e+01    0.4087371    0.3049651  31.75  0.001316598    1.379    0.275
        23 -10.0906     74.1448    129.9219   8.2966594422e+01   4.0169263653e+01    0.2210574    0.1871424  76.58 0.0004758799    1.225    0.184
        24 -10.8664     66.5714    126.5373   8.4700142119e+01   4.2076426560e+01    0.3946427    0.2728173 -84.93  0.001918895    1.625    0.385
        25  -9.8252     90.4134    126.1726   7.7385558652e+01   3.8532020813e+01    0.2960603    0.2479334  -9.59 0.0008671881    1.454    0.312
        26  -9.7744     30.9409    124.2593   9.5980889110e+01   4.6871054304e+01    0.1841179    0.1680425  61.80 0.0003207565    1.090    0.083
        27  -8.4095    121.5067    122.0737   6.7915684631e+01   3.3954417171e+01    0.2126842    0.1418028 -47.91  0.000513659    1.490    0.329
        28  -9.4595    102.8775    118.9296   7.2215396072e+01   3.8057761024e+01    0.2104117    0.2054247 -40.62 0.0003284622    1.026    0.026
        29 -11.0049    243.6599    123.0196   4.5401230723e+01   1.1905891482e+01    0.1990582    0.1664392 -52.36  0.001348418    1.614    0.380
        30  -9.2099    204.5769    110.7376   4.8191791122e+01   2.0072689573e+01    0.2951483    0.1790975  23.07  0.001416443    2.171    0.539
        31 -10.5552     45.9345    108.8835   8.8495581828e+01   4.9213450810e+01    0.3703255    0.2367893  65.01  0.001217262    1.794    0.443
        32 -11.3935    244.2041    105.0061   4.1487254599e+01   1.4088131046e+01    0.3793218    0.1218768 -26.41  0.001530745    2.842    0.648
        33 -10.7306    243.4056     93.2307   3.8980046038e+01   1.5691114470e+01    0.2753071   0.09041054 -32.83  0.001199145    2.309    0.567
        34 -10.7750     52.1674     90.5874   8.2392763937e+01   5.3115125555e+01    0.3612368    0.3539172  35.13  0.001990485    1.108    0.097
        35  -9.4294     41.6247     92.1348   8.6904714674e+01   5.4053911788e+01    0.2245851     0.189436  52.90 0.0005165866    1.243    0.195
        36  -8.1881     71.6993     81.7609   7.2582945425e+01   5.2285941739e+01    0.1404354    0.1156376 -11.76 0.0006841303    1.481    0.325
        37  -8.7937    184.5219     77.4633   4.2875976411e+01   2.9058155252e+01    0.1409625    0.1268461 -25.14 7.355751e-06    1.036    0.035
        38  -9.8565    165.8150     85.6208   4.8347934969e+01   3.1809009101e+01    0.1904243     0.141788  68.21 0.0004759791    1.624    0.384
        39  -9.8826     13.4466     60.0005   9.2941948992e+01   6.5080610673e+01    0.2255793    0.2066935   8.36 0.0004715294    1.244    0.196
        40 -11.6682    101.8468    238.1302   9.0046007136e+01   1.5044723266e+01    0.2844371    0.2228518  79.49  0.002072406    1.687    0.407
        41 -15.6718     16.9226    193.4405   1.0516797905e+02   3.2060420366e+01      4.73124     1.838261 -87.90   0.01733656    2.646    0.622
        42  -9.3740    110.6542    167.3673   7.9478434174e+01   2.6350419917e+01    0.2124276    0.2003978 -80.17  0.000532172    1.170    0.146
        43  -8.4782     94.5134     46.4842   5.1909041428e+01   5.5101488715e+01    0.1497294    0.1423553 -57.58 0.0008090546    1.080    0.074
        44  -8.0698     48.3084     42.6847   6.8448220352e+01   6.5128314199e+01    0.1380802    0.1135491  89.31 0.0007029274    1.630    0.387
        45  -9.6432     11.5606     53.0400   9.2369542077e+01   6.6986119004e+01    0.2099327    0.1175873 -69.52 0.0007044662    1.572    0.364
        46 -10.4661    114.7555     22.9700   3.6675355028e+01   5.3622420684e+01    0.4558558    0.2566533 -57.69   0.00113942    2.200    0.545
