#   1 NUMBER                 Running object number                                     
#   2 MAG_AUTO               Kron-like elliptical aperture magnitude                    [mag]
#   3 X_IMAGE                Object position along x                                    [pixel]
#   4 Y_IMAGE                Object position along y                                    [pixel]
#   5 X_WORLD                Barycenter position along world x axis                     [deg]
#   6 Y_WORLD                Barycenter position along world y axis                     [deg]
#   7 A_WORLD                Profile RMS along major axis (world units)                 [deg]
#   8 B_WORLD                Profile RMS along minor axis (world units)                 [deg]
#   9 THETA_WORLD            Position angle (CCW/world-x)                               [deg]
#  10 FWHM_WORLD             FWHM assuming a gaussian core                              [deg]
#  11 ELONGATION             A_IMAGE/B_IMAGE                                           
#  12 ELLIPTICITY            1 - B_IMAGE/A_IMAGE                                       
         1 -10.6900     49.9868     29.2000   9.5189243514e+01   6.3774833441e+01    0.3508423    0.1886083 -19.25  0.001822125    2.002    0.500
         2 -12.0629     61.9217     24.1532   8.8876599786e+01   6.2580152104e+01     0.444089     0.358813 -80.97  0.002575261    2.649    0.622
         3 -11.2724      9.9437     16.5322   1.0735479811e+02   7.0009628768e+01     0.382405    0.1937892 -32.16  0.002080153    1.634    0.388
         4 -11.3730      4.0231     18.5066   1.1102284765e+02   7.0215292682e+01    0.3376112     0.215202  -3.26   0.00180972    1.333    0.250
         5 -11.1269    129.2948     19.3465   6.9531982115e+01   4.9713675041e+01    0.1827024    0.1514252  18.34 0.0005199443    1.381    0.276
         6 -11.5925     20.9047     17.8322   1.0274964274e+02   6.8801655389e+01    0.4465159    0.4026007  57.27  0.003280395    2.234    0.552
         7 -11.0059     34.7776     17.0077   9.6335338371e+01   6.7315186129e+01     0.439624    0.2106047 -30.87  0.002542541    1.994    0.498
         8 -11.5642    107.9587     17.1260   7.3261308175e+01   5.4597388618e+01    0.3068951    0.1795774  50.79  0.000371507    1.414    0.293
         9 -11.4709     74.5033      6.4755   7.7975260941e+01   6.2161865638e+01    0.3142784     0.196342  -1.41 0.0007630787    1.773    0.436
        10 -11.5217     75.9749     15.2518   8.0910196708e+01   6.1103412417e+01    0.4969482    0.3249322  14.39  0.001635575    1.583    0.368
        11 -11.6547     70.4484     14.9527   8.2479192585e+01   6.2120979550e+01    0.3496169    0.2018528 -12.84   0.00150703    1.921    0.479
        12 -10.6346     89.0315      7.1609   7.4325118800e+01   5.9344948315e+01    0.3536968    0.2152794  72.88  0.001150571    2.263    0.558
        13  -9.8681     85.6999     10.4458   7.6380092619e+01   5.9717428463e+01    0.2807083    0.1372543  52.16  0.000657352    1.730    0.422
        14 -12.1775     81.1365      6.6288   7.6185940223e+01   6.0914200494e+01     0.382212    0.2896746  -6.54 0.0004171465    1.412    0.292
        15 -10.3278     64.6751     13.2251   8.3640660274e+01   6.3285281001e+01    0.2723867    0.1842146  27.63  0.001753943    1.242    0.195
        16 -11.1300     54.0146     13.3192   8.7320792749e+01   6.5008832638e+01    0.5492471    0.2479221  28.94  0.001714243    2.195    0.544
        17 -10.4147     30.5191     13.3180   9.6574686298e+01   6.8272178040e+01    0.2069985   0.09444539 -30.59  0.001182208    2.079    0.519
        18 -10.2185    100.0066     12.8665   7.3661243322e+01   5.6648191312e+01    0.1948204    0.1691152  13.36 0.0009780554    1.196    0.164
        19 -10.4352    118.4634     11.5279   6.9231016364e+01   5.2842932635e+01    0.2312132    0.2053739  73.98 0.0008613308    1.176    0.149
        20 -10.2104    117.3177      8.2935   6.8439022613e+01   5.3368634642e+01    0.1890117    0.1509781  46.93 0.0004950064    1.088    0.081
        21 -10.8494    115.6966      4.0126   6.7402944026e+01   5.4064686582e+01    0.2972691    0.2051964  -8.77 0.0007089037    1.784    0.440
        22  -9.6889    185.9598     10.7532   5.8909282127e+01   3.7502144514e+01    0.1711533    0.1316426  82.09 0.0003211754    1.059    0.055
        23  -9.7698    108.2032     10.2372   7.0930519551e+01   5.5163965078e+01    0.1566835    0.1377261  85.50 0.0007208403    1.332    0.249
        24 -10.8449      4.8908      7.9774   1.0623795231e+02   7.1547272448e+01    0.5798286    0.1401544  31.21  0.002671981    4.176    0.761
        25 -12.7761     13.3633      2.7375   9.9687485637e+01   7.1379648353e+01     1.078474    0.4803346  42.30  0.005576201    3.786    0.736
        26 -13.1117     31.7137      2.1341   9.1110898282e+01   6.9306558848e+01    0.2882444    0.1738856  30.20 0.0006191187    1.408    0.290
        27 -11.6442     26.5464      3.5439   9.3972019979e+01   6.9818667787e+01    0.2155817    0.1513098   5.43 0.0007692747    1.084    0.078
        28  -9.8290    155.5975      6.9519   6.1760368981e+01   4.4858011133e+01    0.2247762     0.155439  11.54  0.001274639    2.164    0.538
        29 -10.1636    146.4457      7.3655   6.3186362878e+01   4.6921238803e+01    0.2729235     0.153427 -78.08    0.0010185    2.452    0.592
        30 -10.4370     59.5036     10.3502   8.4195689005e+01   6.4422960806e+01    0.2830269    0.1702539  54.18   0.00110036    1.991    0.498
        31 -10.4385    229.0206      5.8121   5.3817013331e+01   2.8508908866e+01    0.1826537    0.1361114 -68.57 0.0003075812    1.131    0.116
        32 -10.0205    101.4286      5.1744   7.0710820330e+01   5.6997699405e+01    0.1487512    0.1351443  28.78 0.0004505257    1.146    0.128
        33  -9.9469     59.5509      5.4715   8.2178225843e+01   6.4858430691e+01    0.2349817   0.09384477  47.10  0.001204423    2.150    0.535
        34  -9.4541    166.5052      1.4432   5.8962184746e+01   4.2838879376e+01    0.1233409   0.09820505  78.83 3.449347e-05    1.012    0.012
        35  -9.9687    178.6229      8.7106   5.9273984048e+01   3.9389173983e+01    0.1266975   0.07991271  49.15 0.0007019202    1.732    0.423
        36 -10.6785      3.8974      1.3847   1.0379029250e+02   7.2427620713e+01    0.1978118   0.08153233  25.02 0.0007288957    2.248    0.555
        37 -10.3895    141.8469    220.8271   1.1629906983e+02   7.4287695304e+00    0.2982616    0.1904913  27.98  0.001339616    1.731    0.422
        38 -10.3251    247.2466    249.9700   1.0001884003e+02  -1.4400654733e+01    0.2313835     0.155006  -0.62   0.00145421    1.385    0.278
        39 -10.7939    250.4707    245.5765   9.8696155124e+01  -1.4209783665e+01    0.4766622    0.1344563 -36.83  0.001977492    3.369    0.703
        40 -10.0647     72.5811    250.1316   1.3477388993e+02   1.2677511615e+01    0.1884725    0.1751458   1.05  0.001252393    1.611    0.379
        41  -9.3960     46.3147    250.3398   1.3980890489e+02   1.6233545096e+01    0.1057191    0.0923913 -48.13 0.0007047558    1.701    0.412
        42 -10.2318      5.1918    235.6885   1.4625000022e+02   2.3999719687e+01    0.2204576    0.1909189 -64.68  0.001393292    1.566    0.362
        43 -12.3062     16.1376    238.3092   1.4445969039e+02   2.2308524691e+01     1.021454    0.3239557  34.27  0.004653297    3.359    0.702
        44 -13.1520     18.8641    247.7294   1.4459045367e+02   2.0074502682e+01     1.281992    0.3343094  49.19  0.005811959    2.904    0.656
        45 -11.9209      5.7919    244.8626   1.4668628343e+02   2.2060490740e+01    0.5844861    0.2741058  80.44  0.003099537    1.848    0.459
        46 -10.8317      1.4519    245.0319   1.4743521309e+02   2.2468838700e+01    0.2168137   0.08683098 -79.44 0.0005524473    2.084    0.520
        47  -9.5591    250.5509    219.2520   9.4013543096e+01  -1.0354890691e+01    0.1687465    0.1017686 -25.25 0.0004263172    1.535    0.348
        48  -9.9055    174.2086    219.6507   1.0905198707e+02   1.8653886233e+00    0.2028383    0.1229821  30.06 0.0007397364    1.678    0.404
        49 -10.7934      5.0796    226.3782   1.4569073522e+02   2.5968499664e+01    0.3431869   0.08183671  52.80  0.001397048    3.636    0.725
        50 -10.9460      9.8442    217.0907   1.4416813933e+02   2.7505565082e+01    0.2905307    0.1683638  64.89 0.0008585409    1.494    0.331
        51 -11.4108    236.0363    213.5223   9.5566864271e+01  -7.3338856799e+00    0.2982211    0.1604194  41.69  0.001336731    2.039    0.509
        52  -9.6505     38.0108    217.5055   1.3859236716e+02   2.4319565747e+01    0.1749367     0.115158  42.85 0.0004790086    1.536    0.349
        53  -9.6179    201.2666    215.9028   1.0273877430e+02  -2.1492587446e+00    0.2268245    0.1484053 -11.53  0.001064677    1.996    0.499
        54 -10.2725     31.1289    215.7063   1.3983971595e+02   2.5535471366e+01    0.2451758    0.1620768  50.93  0.001471687    1.421    0.296
        55  -9.3375    136.9707    216.0000   1.1659833093e+02   9.3192254911e+00    0.2370837   0.07701981  39.38 0.0007930005    2.877    0.652
        56  -9.6625    170.3023    213.3282   1.0876668738e+02   3.8070421267e+00     0.144123    0.1098141  -4.11 0.0004298248    1.645    0.392
        57 -11.0486     20.9247    212.1111   1.4160281342e+02   2.7474005018e+01    0.3542173    0.1709815  66.18  0.001782735    2.048    0.512
        58 -10.1870    208.9676    212.0825   1.0048154508e+02  -2.7606027171e+00    0.2065532    0.1832341  -1.10 0.0004621409    1.031    0.030
        59  -9.6994      2.2940    212.3268   1.4528334839e+02   2.9276115215e+01    0.1564887      0.13285 -45.82 0.0005194329    1.697    0.411
        60 -11.8483      4.5393    206.9910   1.4447235935e+02   3.0249606924e+01    0.5581262    0.2489199  84.96   0.00278518    2.130    0.531
        61  -9.4354    184.4644    208.5382   1.0485264430e+02   2.1847063119e+00    0.1422343    0.1307314   7.02  0.000150957    1.047    0.045
        62 -10.2809    191.5134    217.0063   1.0493875142e+02  -6.7654650027e-01    0.2310004    0.1868829   8.25  0.001135718    1.275    0.216
        63 -11.2064     18.7446    202.7862   1.4126316004e+02   2.9819987847e+01    0.3595486    0.2266733 -75.54 0.0007815335    1.327    0.246
        64 -10.3234    175.3019    202.6909   1.0571976340e+02   5.0330955578e+00     0.238242    0.2165169  68.19  0.000569262    1.249    0.200
        65  -9.4812    223.5882    201.8110   9.5674285668e+01  -3.3555463550e+00    0.1820332    0.1222503 -50.12  0.000560799    1.674    0.403
        66  -9.8558      9.8316    202.3699   1.4306330641e+02   3.0793047997e+01    0.1387201    0.1176602  20.29  0.000880613    1.685    0.407
        67  -8.9248    218.2779    201.6597   9.6665434226e+01  -2.4437716217e+00    0.1272363    0.1096634 -74.35 0.0003363793    1.621    0.383
        68  -9.7083     34.6472    201.0415   1.3771303930e+02   2.8500661237e+01    0.1776494    0.1393718 -84.21 0.0004461348    1.079    0.073
        69  -9.6650    227.1513    196.8671   9.4040557431e+01  -3.0597342747e+00    0.1922516     0.147954  -7.08 0.0007012064    1.358    0.264
        70  -9.5003    203.0170    195.9876   9.8585728629e+01   1.2734459586e+00    0.1710151    0.1592704  -4.37 0.0005652449    1.008    0.008
        71 -10.2918    215.5448    194.3061   9.5760103381e+01  -6.2332127184e-01     0.196529     0.124289 -30.31 0.0009453403    1.596    0.374
        72  -9.8487    232.3136    191.2979   9.1989776727e+01  -2.9131666440e+00    0.1368871   0.09835836  -5.86 0.0003055601    1.604    0.377
        73  -8.7199    205.6746    190.6911   9.6997918917e+01   1.8175398447e+00    0.1463028    0.1079168  -3.21 0.0007037925    1.654    0.395
        74 -10.6398    187.3919    189.8154   1.0060837371e+02   5.3894429597e+00    0.2176219    0.1330683 -34.37 0.0009582894    1.746    0.427
        75  -9.3451      1.6017    188.1936   1.4363895666e+02   3.4765846943e+01     0.166296   0.08701645 -68.34 0.0005054594    1.570    0.363
        76  -9.5385     61.6298    184.8006   1.2955619041e+02   2.9015538130e+01    0.2028301    0.1204577 -78.58 0.0009474981    1.689    0.408
        77 -11.3883     15.8536    182.5841   1.4004427612e+02   3.4810950334e+01    0.4097176    0.2114927  86.99  0.002048634    1.911    0.477
        78  -9.3266      8.6202    184.2676   1.4180214222e+02   3.5071994778e+01    0.1278869    0.0741032  66.19  0.000519319    1.687    0.407
        79 -10.1093    166.8232    183.5895   1.0386503916e+02   1.0701646379e+01    0.2165705    0.1403223  51.77 0.0009478751    1.652    0.395
        80  -9.9509      1.9764    180.2869   1.4290575560e+02   3.6559613766e+01    0.1645862    0.1338949  84.87 0.0006213833    1.096    0.088
        81 -10.1887    244.4166    178.2650   8.7250877168e+01  -2.5643207742e+00    0.2576534    0.1146264 -36.52 0.0009546247    2.060    0.515
        82 -10.8818    224.3759    178.3397   9.0865861458e+01   8.2924347875e-01    0.2743393    0.2471186  48.19   0.00059011    1.269    0.212
        83  -9.7109     70.0688    177.6787   1.2643361256e+02   2.9584358718e+01    0.1842872    0.1743904  61.11 0.0004546662    1.146    0.127
        84  -9.1390     36.4077    178.4936   1.3483233333e+02   3.3690999074e+01    0.1334449    0.1096293 -82.33 0.0002459814    1.021    0.021
        85 -10.0998    200.1747    176.8161   9.5283344488e+01   5.5976086856e+00    0.2041924    0.1685199 -12.19 0.0005078621    1.326    0.246
        86  -9.5393     74.8958    171.0914   1.2415970920e+02   3.0513185779e+01    0.2247323    0.1693884 -32.20  0.001110278    1.707    0.414
        87 -10.8499     12.8274    170.6956   1.3955455621e+02   3.7904401397e+01    0.2661324    0.1326946  79.75  0.001249665    2.262    0.558
        88 -10.1212      4.6252    168.8219   1.4127698214e+02   3.9027815375e+01    0.1839967   0.09415878 -85.44  0.000777256    1.717    0.418
        89  -9.4574    209.8473    166.3826   9.1156876272e+01   5.8419324315e+00    0.1986758    0.1364219  30.74 0.0007951718    1.660    0.398
        90 -10.6704     41.0609    165.2914   1.3198941524e+02   3.6405981575e+01     0.249105    0.1651807  83.89 0.0006550502    1.587    0.370
        91 -11.1521     36.9800    158.0095   1.3203284854e+02   3.8650974332e+01    0.2440499    0.1661948 -69.53 0.0003160825    1.250    0.200
        92 -10.3260     36.4977    166.4380   1.3329908199e+02   3.6629326675e+01    0.2276292    0.1788679  28.95 0.0009036795    1.531    0.347
        93 -10.8348     36.1295    162.8398   1.3291514295e+02   3.7553364369e+01    0.3166851    0.2118284 -54.48 0.0009631224    1.423    0.297
        94  -9.7604     67.1670    165.1609   1.2519974038e+02   3.3120173134e+01    0.2049327      0.15892  76.98  0.001027751    1.350    0.259
        95 -10.8377     51.5055    164.1770   1.2914045181e+02   3.5444004313e+01    0.3760195    0.1889308 -44.72  0.001607529    2.303    0.566
        96 -11.3740     44.5011    162.2701   1.3068032314e+02   3.6758745891e+01    0.3665663    0.2334809 -55.81  0.001517325    1.448    0.309
        97 -10.1074     48.4829    159.5103   1.2923147637e+02   3.6973335028e+01    0.2460489    0.2225234  73.99  0.001495593    1.130    0.115
        98  -9.3870    200.4746    162.5628   9.2201604047e+01   8.4551922638e+00    0.1470012    0.1406852 -45.74   0.00016391    1.040    0.038
        99 -11.1782     22.2631    156.0320   1.3557569499e+02   4.0592295514e+01    0.4034098    0.3740734 -39.73  0.002721895    1.296    0.228
       100  -9.1571    147.5130    156.5044   1.0265933052e+02   2.0785592043e+01    0.1577644    0.1519337 -86.20 0.0001222093    1.036    0.034
       101  -9.0370    216.9108    155.0000   8.7377172422e+01   6.7442200849e+00    0.2282541   0.08396728  46.26 0.0008036502    2.951    0.661
       102  -8.9658    151.6877    153.3318   1.0094315983e+02   2.0645070271e+01    0.1627149    0.1253042  88.87 0.0005748023    1.677    0.404
       103 -10.3250     11.5098    153.2961   1.3797865598e+02   4.2168800738e+01    0.2711161    0.1499329  29.01  0.001479491    2.153    0.536
       104 -10.2542    178.2062    151.5220   9.4444659555e+01   1.5403902598e+01     0.275473    0.2132023 -47.67 0.0005135187    1.257    0.205
       105  -9.2229      5.2688    149.9918   1.3917698299e+02   4.3429803905e+01    0.1513605   0.08741172 -72.96 0.0002414028    1.365    0.267
       106 -11.7477     18.7983    146.7769   1.3529024787e+02   4.3134946816e+01    0.3475934    0.2219912  31.32  0.001981476    1.842    0.457
       107 -10.1112    206.9995    146.0361   8.7299353542e+01   1.0522315634e+01    0.2263949    0.2153556 -39.90 0.0006746132    1.031    0.030
       108 -10.2669      2.8324    143.9418   1.3911458457e+02   4.5029782139e+01    0.1990428    0.1336404 -56.28  0.001223488    1.322    0.243
       109 -11.2002     21.3362    136.2924   1.3314944122e+02   4.5441884686e+01    0.4249388     0.279801 -56.51  0.002411242    1.286    0.222
       110  -9.8876    236.7672    138.6015   8.0398047844e+01   6.1071286529e+00     0.172491    0.1354509  66.69 0.0004638529    1.521    0.343
       111  -9.6935     55.2073    136.1978   1.2343088008e+02   4.1925043543e+01    0.1869866    0.1538828  85.39 0.0002271761    1.321    0.243
       112 -11.0309      2.9874    136.4198   1.3818619861e+02   4.6787024211e+01    0.4258187    0.1777959 -64.47  0.002122626    1.783    0.439
       113 -10.9790      9.1794    136.7421   1.3655969744e+02   4.6285282193e+01    0.2181173    0.1623788 -60.30 0.0002501147    1.136    0.120
       114  -9.4220    138.3428    135.3130   1.0004939975e+02   2.7654691369e+01     0.161343     0.128179  -2.94 0.0007046845    1.705    0.413
       115  -9.3281    122.6965    135.3203   1.0411099432e+02   3.0908137965e+01    0.1598453    0.1241202  86.86 0.0003630711    1.631    0.387
       116 -10.3319    106.9885    133.2307   1.0789121714e+02   3.4478888209e+01    0.2706265    0.2239355 -50.37 0.0009709564    1.168    0.144
       117 -11.2144     36.9226    129.9932   1.2766289187e+02   4.5509316272e+01    0.4951485    0.2479919 -54.43  0.002362082    1.670    0.401
       118 -10.6800     74.4130    129.6406   1.1645473955e+02   4.0883090796e+01     0.300332    0.2603162  29.83  0.001647997    1.261    0.207
       119  -9.2533    243.4071    128.4861   7.7222448126e+01   6.7391382433e+00    0.1391045    0.1178494 -49.66 0.0001081495    1.023    0.022
       120 -10.1858     82.0802    125.3282   1.1322015256e+02   4.0730116138e+01    0.2396313    0.1864198 -43.77 0.0007771053    1.238    0.192
       121 -11.0420      2.2100    124.5083   1.3687743222e+02   4.9611371418e+01    0.4140562    0.1417912 -62.00  0.001513424    2.073    0.518
       122 -10.1774     30.8916    125.1131   1.2860301716e+02   4.7266801200e+01     0.338351    0.1647459  40.30  0.001592589    2.371    0.578
       123 -10.0384    226.2148    124.3834   7.9083955512e+01   1.0865856715e+01    0.1880997    0.1360966  68.23 0.0007033462    1.618    0.382
       124  -9.5911    219.5310    124.5063   8.0236632641e+01   1.2211828216e+01    0.1457074    0.1319976 -53.45 0.0008098151    1.011    0.011
       125 -11.1898     10.5110    122.6839   1.3423592017e+02   4.9493874118e+01    0.2523167    0.1906794  69.02  0.001409232    1.546    0.353
       126 -11.1349     21.8012    121.1660   1.3065517935e+02   4.8996714726e+01    0.2471383    0.1937611  -3.30  0.001524458    1.570    0.363
       127  -9.6333     33.4169    118.7766   1.2669683871e+02   4.8528083656e+01    0.1870275      0.10157 -52.62 0.0003814777    1.534    0.348
       128 -10.4531      2.6651    105.4117   1.3394300543e+02   5.3932954817e+01    0.2232025    0.1333262 -62.34 0.0005839919    1.298    0.229
       129 -10.9646      6.3576    107.1711   1.3307392915e+02   5.3320167850e+01    0.2688293    0.1963786 -34.57   0.00151561    1.373    0.272
       130 -12.0728     17.8585    116.0844   1.3099910183e+02   5.0493602184e+01    0.5571857    0.2835633 -53.02  0.002906869    1.578    0.366
       131 -11.9560     16.6257    109.1496   1.3018601532e+02   5.2179743873e+01    0.4444762    0.3479038  47.55  0.002404602    1.570    0.363
       132  -9.8458     10.6945    109.4046   1.3209004681e+02   5.2537727294e+01    0.2473466    0.1768406 -26.19 0.0007316225    1.535    0.348
       133 -10.0007    249.8212    118.6011   7.4225005659e+01   7.3314123615e+00     0.175275    0.1269798  75.48 0.0009445319    1.690    0.408
       134 -10.6328     86.0285    116.4479   1.0993400899e+02   4.2174682425e+01    0.2734237    0.2062594 -50.27 0.0003026739    1.253    0.202
       135 -11.3652     51.0895    116.7166   1.2078460221e+02   4.7116041124e+01    0.2736628    0.1845995 -55.22  0.001432304    1.300    0.231
       136  -9.1372    166.3343    115.7114   8.8546510953e+01   2.5757328736e+01    0.1590471    0.1217322 -87.29 0.0002775601    1.629    0.386
       137 -11.6272     35.8001    110.1647   1.2426925081e+02   5.0302865783e+01    0.5352117    0.2893165 -61.59  0.002649241    1.640    0.390
       138 -10.6855    248.9843    111.9756   7.2980709671e+01   8.6709050895e+00    0.2130976    0.1765691 -55.33 0.0005703939    1.028    0.027
       139  -8.9205    212.6846    112.6572   7.8750869425e+01   1.5938822496e+01    0.1429669    0.1175773  -0.48 0.0007048038    1.711    0.415
       140 -10.5285     55.3997    109.9373   1.1792415541e+02   4.8166014280e+01    0.3560997    0.2188825 -21.14  0.001612296    2.211    0.548
       141 -11.6674     23.5298    107.7619   1.2773457922e+02   5.1958835496e+01     0.355001    0.2858215 -84.61   0.00126509    1.376    0.273
       142 -10.0150     91.3475    107.9832   1.0619145886e+02   4.3190015703e+01     0.207873     0.180379 -44.50 0.0005681739    1.103    0.094
       143 -11.2616    243.5493    104.6468   7.2220851770e+01   1.1021426773e+01     0.228082    0.1846029 -30.62 0.0006636297    1.397    0.284
       144 -10.2686    223.2700    103.9781   7.5071249360e+01   1.5293421025e+01    0.2250141     0.200379  84.22 0.0004499331    1.144    0.126
       145 -10.8760     74.1796    102.3489   1.1005035646e+02   4.7264636898e+01     0.317804    0.2615135  80.64  0.001102107    1.619    0.382
       146 -10.9823    247.6577    102.1396   7.1138030920e+01   1.0657615402e+01    0.2234971    0.1779081  90.00 0.0008520541    1.341    0.255
       147 -10.0583    119.6370    101.6691   9.6350899037e+01   3.9095164029e+01    0.2374161    0.1837197  -1.37  0.001092161    1.708    0.414
       148 -10.1822     35.9991    101.5542   1.2238589961e+02   5.2239853300e+01    0.3103513    0.1794651  32.36  0.001615713    1.959    0.490
       149 -11.5788     29.3436     99.0634   1.2407136107e+02   5.3419811832e+01    0.4682824    0.1841393 -38.20  0.001492305    2.733    0.634
       150 -11.4061      3.3827    100.3980   1.3289023992e+02   5.5006214182e+01    0.2514318    0.2437156 -60.47 0.0005868702    1.229    0.186
       151 -10.7691     63.3528     99.0236   1.1269659082e+02   4.9573018285e+01    0.4595607    0.2583851  21.36  0.002079465    2.158    0.537
       152  -9.5443     50.5063     98.9920   1.1694841408e+02   5.1232801522e+01     0.185667    0.1177812 -80.98 0.0008103644    2.562    0.610
       153 -11.3956     20.3388     97.1094   1.2669038629e+02   5.4601297743e+01    0.2770527    0.1942242 -56.86  0.001143715    1.187    0.158
       154 -10.4939      1.5218     94.3528   1.3245457799e+02   5.6432622857e+01    0.2832841   0.08147901 -61.30 0.0009031697    2.438    0.590
       155  -9.3263     98.7451     93.3580   9.9992936335e+01   4.4980607736e+01    0.1426282    0.1158988 -78.19 0.0006963126    1.614    0.380
       156 -10.1072    160.6631     99.6827   8.5709685242e+01   3.0327990772e+01    0.1546506    0.1234794  12.57 0.0007048561    1.700    0.412
       157 -10.2037    105.3773     91.8126   9.7605521565e+01   4.4018685808e+01     0.212541    0.1340672 -32.69 0.0009391184    1.721    0.419
       158 -10.8125     95.2265     90.9772   1.0037279141e+02   4.6122259901e+01    0.4101976     0.251888  10.89  0.001449169    2.757    0.637
       159  -9.9886     31.5241     91.9363   1.2174316600e+02   5.4783655775e+01    0.2017183    0.1077268 -54.64  0.001027437    1.582    0.368
       160 -11.6013     25.6698     91.7134   1.2372172831e+02   5.5349386825e+01    0.2442666    0.1986302 -31.74 0.0003496011    1.135    0.119
       161 -10.6290     22.9079     87.0618   1.2364317477e+02   5.6573951687e+01    0.2781719    0.1506416 -52.88 0.0004373096    1.496    0.332
       162 -10.2448    157.8688     90.1104   8.3803044674e+01   3.2824886613e+01    0.2706074    0.2147735 -34.89  0.001342581    1.346    0.257
       163 -12.0900     11.2604     90.9415   1.2853174102e+02   5.6592053065e+01    0.3675148    0.2245141  14.44  0.002177417    1.941    0.485
       164  -9.1912    123.7169     90.2946   9.2089692399e+01   4.0533629626e+01    0.1449753    0.1187841 -85.43 0.0002486651    1.539    0.350
       165 -11.4520     48.1936     86.1421   1.1448237073e+02   5.4265563804e+01    0.5194486    0.4131477  80.74   0.00215377    1.910    0.477
       166 -10.5758     39.6879     80.9848   1.1613697266e+02   5.6279926966e+01    0.2286287     0.200595  42.63 0.0009943329    1.420    0.296
       167 -10.6928      4.4623     85.8832   1.2987998363e+02   5.8085960125e+01    0.3009019    0.2111465 -53.94  0.001974268    1.115    0.103
       168 -10.9183    112.4822     85.6466   9.3808429867e+01   4.3802744847e+01    0.3241781    0.2687593 -59.12  0.001688529    1.356    0.263
       169 -10.6492     67.2964     84.7842   1.0753512486e+02   5.2017504963e+01    0.2970119    0.1836428 -24.62  0.001399008    1.885    0.470
       170 -10.3401     16.0231     83.8544   1.2537070907e+02   5.7774927188e+01    0.2390133    0.1482957  26.65  0.001074981    1.886    0.470
       171  -9.9224    117.8679     83.5513   9.1719122768e+01   4.3076508741e+01    0.2206603    0.1410247  45.49  0.001007305    1.532    0.347
       172  -9.5483     88.0414     83.5253   1.0042053043e+02   4.8905562364e+01    0.1982299    0.1369103  40.66 0.0005966622    1.477    0.323
       173  -9.4548    183.9986     82.0558   7.6517101599e+01   2.8117169507e+01    0.1733861    0.1591555 -72.27 0.0005162623    1.037    0.036
       174 -10.6436     74.5292     81.1964   1.0408080122e+02   5.1628270643e+01    0.2365747    0.2084885  10.27 0.0004074911    1.115    0.103
       175  -9.8270     70.8264     79.3815   1.0477792116e+02   5.2560308527e+01    0.2564027     0.170222  39.23 0.0006978534    1.597    0.374
       176  -9.3164     29.9660     81.6909   1.1983441896e+02   5.7092893986e+01    0.1697832    0.1476428 -19.52  0.001127992    1.118    0.105
       177 -11.6003     22.9287     79.9167   1.2195865065e+02   5.8066257108e+01    0.4920534     0.286437   8.12  0.001813565    2.017    0.504
       178 -10.3897     21.3324     76.7345   1.2176777049e+02   5.8844958391e+01    0.2032776    0.1708329  -8.99 0.0005713696    1.216    0.178
       179 -11.0058     11.7087     79.7046   1.2600300046e+02   5.8935343845e+01    0.3443807    0.2144473 -29.85  0.000697659    1.509    0.337
       180 -11.3765      3.0495     78.5660   1.2889922978e+02   5.9691774518e+01    0.3185313    0.2589231  -2.12  0.001308493    1.384    0.278
       181 -11.4049      7.1760     74.0309   1.2639619723e+02   6.0379958645e+01    0.4437811    0.2234866  11.91  0.002477101    2.317    0.568
       182 -10.4140     91.9020     78.1966   9.7629424500e+01   4.9229702588e+01     0.338794    0.2161865   7.86  0.001437093    2.399    0.583
       183  -9.1456     81.3049     79.2722   1.0129468506e+02   5.0892638583e+01    0.1378888    0.1033095  -3.36 0.0002718771    1.539    0.350
       184 -10.4753    150.4038     77.5663   8.2041122966e+01   3.6851684914e+01    0.2552935    0.2328046 -50.19 0.0006949662    1.129    0.114
       185 -11.6558     58.2549     74.5146   1.0766058507e+02   5.5320568873e+01    0.4260652    0.3272551  66.82 0.0005799534    2.108    0.526
       186 -11.3095     62.3166     72.2608   1.0555325504e+02   5.5182390487e+01    0.3403124    0.2905533 -65.19  0.001347574    1.524    0.344
       187 -11.1659     27.3724     70.3037   1.1782897097e+02   5.9615352411e+01    0.2700208    0.1814209 -45.51 0.0002535066    1.258    0.205
       188 -10.8053     31.0197     66.0600   1.1524442404e+02   6.0092622897e+01     0.304015    0.1709708 -50.84 0.0009768656    1.632    0.387
       189 -11.7926     44.8096     75.2441   1.1270253232e+02   5.6865407888e+01    0.2182568    0.1972244 -15.27 0.0002590787    1.093    0.085
       190 -11.0798     38.1535     69.9416   1.1364856460e+02   5.8631065976e+01    0.5434573    0.3980269  59.98   0.00301138    2.282    0.562
       191 -11.7164    102.4812     72.4499   9.2708442090e+01   4.8255879416e+01     0.397354    0.2532326 -37.57 0.0005458682    1.600    0.375
       192 -10.1396     16.7855     72.5480   1.2243307758e+02   6.0035354569e+01    0.2169557    0.1392371 -52.02 0.0006163144    1.314    0.239
       193  -9.3005    174.6400     72.2507   7.5739597111e+01   3.2010539346e+01    0.1479673    0.1067748 -86.41 0.0006953061    1.610    0.379
       194 -10.0552    108.9854     76.3941   9.2050525036e+01   4.6243829659e+01    0.4529037    0.1929922 -34.44  0.001684791    2.667    0.625
       195  -9.1395    137.3213     72.3225   8.3537080341e+01   4.0786607928e+01    0.1486787    0.1131746  18.44  0.000344296    1.676    0.403
       196 -11.7559     76.4515     71.1112   1.0038182447e+02   5.3223940845e+01    0.5044507    0.3157579  49.63  0.001861975    1.928    0.481
       197 -11.3802     49.9515     69.0239   1.0899693897e+02   5.7443565015e+01    0.3843326    0.2346065 -23.94  0.001998624    1.732    0.423
       198 -10.1681    160.1416     69.5737   7.7815086973e+01   3.5905187970e+01    0.2969017    0.1805235  73.82  0.001072187    1.981    0.495
       199 -10.3576    144.5073     70.0259   8.1239660806e+01   3.9513138824e+01    0.2171787    0.1873403  56.26 0.0003469995    1.099    0.090
       200 -11.2078     68.7161     67.8369   1.0195975764e+02   5.5045635643e+01     0.395243    0.1986956 -41.97  0.001093456    1.915    0.478
       201 -11.1398     94.5800     67.2768   9.3432791635e+01   5.0686287245e+01    0.3946263    0.2886449 -37.68  0.002106855    1.393    0.282
       202 -10.5284     99.3545     65.2674   9.1379261194e+01   5.0104395944e+01    0.2905788    0.2032419 -22.72  0.001084274    1.573    0.364
       203  -9.7096    121.9942     76.4700   8.8546344585e+01   4.3487666514e+01    0.2221921    0.1394042  50.03 0.0007579071    1.555    0.357
       204 -10.8437     18.6655     61.0273   1.1865649101e+02   6.2120218621e+01    0.3846526    0.2805015  68.64  0.001783923    2.685    0.628
       205 -10.9556     16.6327     67.8879   1.2130780084e+02   6.0965442791e+01    0.1968938    0.1570801  -7.87 0.0003729091    1.253    0.202
       206 -11.0728     20.7109     65.5354   1.1909729978e+02   6.1104026382e+01    0.4289182    0.1951104  19.52   0.00221163    2.434    0.589
       207  -9.9174      6.4856     67.9550   1.2524132059e+02   6.1632110369e+01    0.1839176    0.1325466 -23.63 0.0005835573    1.275    0.216
       208 -11.5552      3.4230     64.0467   1.2548803152e+02   6.2571879063e+01    0.2942923    0.2395519 -62.04  0.001158233    1.336    0.251
       209  -9.4216    146.4244     66.1844   7.9734014660e+01   3.9693068791e+01    0.1875196    0.1337254 -51.68 0.0002436429    1.520    0.342
       210 -11.6803     57.9826     61.8749   1.0383163381e+02   5.7677285849e+01    0.5324295    0.2203568 -32.22  0.002169801    2.777    0.640
       211 -11.7366     63.8467     60.1335   1.0117009351e+02   5.7130668589e+01    0.7539669    0.2422214  32.13  0.002732066    3.573    0.720
       212  -9.9811    138.9704     65.7462   8.1261452250e+01   4.1494713694e+01    0.1860844    0.1170299  53.12 0.0003663738    1.493    0.330
       213  -9.8973    120.4736     65.0279   8.5514113931e+01   4.5763492598e+01     0.203252    0.1406347 -35.15 0.0004347362    1.525    0.344
       214 -10.6474     77.1631     63.8575   9.7838793314e+01   5.4385711443e+01    0.3474391    0.2283105 -39.92  0.000762868    1.523    0.343
       215  -9.0398    209.7378     63.3416   6.7947555943e+01   2.5221978801e+01    0.1425339   0.09240264 -67.78 0.0002046066    1.593    0.372
       216 -10.0764     51.2343     62.9333   1.0663720292e+02   5.8395903832e+01    0.2499498     0.154101 -26.92   0.00126126    1.596    0.373
       217 -11.5738     11.9701     44.0149   1.1636040540e+02   6.5664917938e+01    0.4109387     0.230572 -13.50  0.002198505    1.799    0.444
       218 -10.4361      7.0369     41.1349   1.1760378485e+02   6.6501798242e+01    0.2279392    0.1183218 -43.27 0.0007095822    1.523    0.343
       219 -10.3859      1.4392     44.8099   1.2117632411e+02   6.6224983671e+01    0.1812674   0.08239445 -48.19  0.000432863    1.696    0.410
       220 -11.7454     10.3773     62.0239   1.2222969293e+02   6.2533588442e+01    0.3535542    0.2537255  54.11  0.001278836    2.274    0.560
       221 -12.0497      5.2244     52.2665   1.2169181548e+02   6.4673739575e+01    0.6066636    0.2491499 -54.71  0.002782801    2.080    0.519
       222 -11.6072     87.0424     51.9712   9.0736980012e+01   5.4553941197e+01    0.4028991    0.2899247  63.55  0.001537884    1.931    0.482
       223 -10.7245     83.9378     61.8015   9.4972458298e+01   5.3563168854e+01    0.3260895    0.2070342  37.67  0.001676854    1.523    0.343
       224 -10.8305     86.3764     57.1441   9.2672418965e+01   5.3879095756e+01    0.3488713    0.2278614 -16.83  0.001303515    1.786    0.440
       225 -11.5458     30.0169     60.7288   1.1406911764e+02   6.1182333878e+01    0.5978284    0.2298806  17.03  0.002509455    3.424    0.708
       226 -10.9168     45.8379     57.0667   1.0677614580e+02   6.0104581295e+01    0.3539987    0.2932373  21.51  0.001500173    1.267    0.211
       227 -12.4716     37.9340     51.2049   1.0791597151e+02   6.2030452033e+01    0.7345531    0.4671123 -15.55  0.004272245    1.576    0.366
       228 -10.5228     44.9233     51.4079   1.0524614532e+02   6.1172748895e+01    0.3293736    0.1802374 -27.20 0.0005222489    1.823    0.451
       229 -11.2467    123.3069     56.2079   8.2115468958e+01   4.6514362962e+01    0.2956133    0.2465035 -42.18  0.001035772    1.300    0.231
       230 -10.3770    114.7911     57.1823   8.4562442498e+01   4.8220830179e+01    0.2486788    0.1751761  48.27 0.0003775934    1.325    0.246
       231 -10.8017    118.1209     54.4582   8.2860765547e+01   4.7910276963e+01    0.4425825    0.2432116  26.29  0.001768511    2.734    0.634
       232 -10.7852    101.3364     55.9118   8.7811072099e+01   5.1204232926e+01    0.4665639    0.1813532  48.62  0.001788466    2.459    0.593
       233 -10.9006     75.1911     56.0487   9.5916014466e+01   5.6008649917e+01    0.2013276    0.1729147  21.18 0.0003145347    1.094    0.086
       234 -12.1541    128.3334     50.6883   7.9242410252e+01   4.6192524222e+01    0.4779955    0.3201703  -4.32  0.001355475    2.171    0.539
       235 -11.0632     12.4903     51.5290   1.1844109070e+02   6.4320690911e+01    0.2545171    0.1780599 -46.34 0.0007287669    1.280    0.219
       236 -10.3470    156.1762     50.9300   7.3510283939e+01   3.9692451711e+01    0.4185042    0.2399287 -65.89  0.001432135    2.549    0.608
       237 -10.7956    152.4767     47.4773   7.3255600191e+01   4.1047157589e+01    0.2289767    0.2032756  75.58 0.0009218766    1.056    0.053
       238 -10.1313     77.0702     50.8408   9.3525519206e+01   5.6501254821e+01    0.1818205    0.1714258  30.28 0.0004417987    1.219    0.180
       239 -10.7111     70.6497     50.8631   9.5679522407e+01   5.7571553273e+01    0.3263544    0.2455507  51.89  0.001117912    1.671    0.401
       240 -10.1003     51.7049     50.3183   1.0228676615e+02   6.0475720219e+01    0.2520335    0.1761511  -6.60  0.001482059    1.432    0.302
       241 -10.1576    113.9281     48.3158   8.1986289633e+01   4.9693445547e+01    0.2314267    0.1934767 -73.21 0.0008889049    1.546    0.353
       242 -10.5433     95.4297     48.5104   8.7065581015e+01   5.3465036929e+01    0.3159241    0.1874912  14.96  0.001385243    2.494    0.599
       243  -9.2131     25.6887     48.2739   1.1191707263e+02   6.3788575433e+01   0.09690313   0.09323485  44.53 0.0004113764    1.554    0.356
       244 -10.4460     61.5975     46.4234   9.7289161402e+01   5.9667835958e+01    0.2358671    0.2106019 -59.46 0.0008602223    1.622    0.383
       245 -10.6952    142.7895     45.7404   7.4658764437e+01   4.3555170923e+01    0.2754084    0.2138822 -82.03 0.0007886989    1.517    0.341
       246 -10.2218    103.8903     46.1491   8.3913286794e+01   5.2098829404e+01    0.1964028    0.1794077  58.14 0.0005906027    1.196    0.164
       247  -9.1814    233.2831     45.3192   6.1199863661e+01   2.2682565397e+01    0.1090634    0.1007169  38.24 0.0003624433    1.587    0.370
       248 -10.3562    163.8049     45.2318   7.0599526341e+01   3.8664712105e+01    0.1827068    0.1520242  41.35 0.0002584386    1.330    0.248
       249 -10.0588     86.1470     44.9464   8.8615698357e+01   5.5736170488e+01    0.2330415    0.1693262  -2.83   0.00079814    1.515    0.340
       250  -9.9711     51.2995     44.9527   1.0055930006e+02   6.1371347928e+01    0.1732659    0.1522012  -8.31 0.0003842228    1.135    0.119
       251 -11.3020     52.5599     39.8796   9.8248952335e+01   6.1950934545e+01    0.4132664    0.2029439 -34.45  0.002148678    1.964    0.491
       252 -10.4440    121.7599     42.8558   7.8359966813e+01   4.8721150495e+01    0.3650889     0.135891 -41.66  0.001418429    3.056    0.673
       253 -10.7897     66.9249     41.1986   9.3543950492e+01   5.9595185080e+01    0.3809147    0.2239844  -2.79  0.001836259    2.335    0.572
       254 -10.2662    110.8067     41.8972   8.0715292196e+01   5.1221200303e+01     0.217512    0.1825443  64.95 0.0005339148    1.285    0.222
       255 -11.3211     18.0555     32.6977   1.0982656803e+02   6.6987992958e+01    0.3800813    0.2210558 -33.17  0.002435778    1.419    0.295
       256 -10.7002     23.4131     41.1637   1.1048667900e+02   6.5174618439e+01    0.2321841    0.1883021  17.67 0.0007066482    1.362    0.266
       257 -11.4380     20.9023     37.6515   1.1034533512e+02   6.5965152767e+01    0.2620858    0.1784274 -20.52 0.0005897187    1.203    0.168
       258 -12.2112     25.7602     36.3547   1.0778191722e+02   6.5701246791e+01    0.3784257    0.3476981  84.10  0.002646981    2.016    0.504
       259 -11.4291    101.0716     28.5965   7.8778900409e+01   5.4856671103e+01    0.4478306    0.3063728  25.16  0.001935119    1.525    0.344
       260 -11.0838     97.8434     40.8428   8.3799951399e+01   5.4032925610e+01    0.4573802    0.2433667  48.66  0.001659217    1.716    0.417
       261 -10.9705    105.1473     34.1601   7.9609382247e+01   5.3373593247e+01    0.3365422    0.2363531 -35.02   0.00146423    1.591    0.372
       262 -12.1081     97.0749     36.9654   8.2694895450e+01   5.4680319476e+01    0.3969255    0.2713209 -35.00 0.0003514246    1.614    0.380
       263 -10.8773     89.3414     39.1626   8.5652535500e+01   5.5912860829e+01    0.2768981    0.2086711 -38.94 0.0008291705    1.518    0.341
       264 -11.6183     80.4968     36.6928   8.7458091099e+01   5.7875647970e+01    0.4195829    0.3050207 -42.43  0.002466145    1.666    0.400
       265 -11.1206     77.7799     32.8950   8.6936557307e+01   5.8841592707e+01    0.4006681    0.2299114  -1.28   0.00190146    2.489    0.598
       266  -9.9600     73.8129     31.5577   8.7709629700e+01   5.9705683626e+01    0.1901277    0.1727187 -16.56 0.0003340462    1.246    0.198
       267  -9.8689     75.7476     40.3953   9.0296262899e+01   5.8229028892e+01     0.169831    0.1065095  32.27 0.0003321466    1.477    0.323
       268  -9.6250     43.9996     39.5903   1.0144268751e+02   6.3140200916e+01    0.2511397    0.1021106 -31.64 0.0008506829    2.499    0.600
       269  -9.4066    149.3969     38.7321   7.1391286667e+01   4.2916830756e+01    0.1764797    0.1331739 -12.58 0.0006685674    1.711    0.416
       270 -10.8706    163.9461     37.0411   6.8408141759e+01   3.9693157254e+01    0.4702263    0.1906107  62.40  0.001973909    2.173    0.540
       271  -9.9312    127.8613     36.3327   7.4978911292e+01   4.8177073053e+01    0.1894431     0.151928  50.98 0.0006277761    1.103    0.093
       272  -9.7342      3.5107     35.5287   1.1737797564e+02   6.7663318309e+01    0.2428318    0.1322467 -45.15  0.001555278    1.521    0.342
       273 -10.7787     10.7946     34.0694   1.1357755934e+02   6.7380290774e+01    0.3069013    0.1935281   2.19   0.00169624    1.500    0.333
       274 -10.5123      7.1092     30.2665   1.1393159760e+02   6.8250398723e+01    0.3523403    0.1338225 -39.68  0.001539197    2.061    0.515
       275 -10.9502     10.1124     25.3355   1.1073079614e+02   6.8761198535e+01    0.2786696      0.15976  -6.06 0.0008606698    1.663    0.399
       276 -10.4346     70.4704     34.5439   8.9908859847e+01   5.9904155947e+01    0.2149336    0.1646206 -31.12  0.000706199    1.409    0.290
       277 -10.3296    151.5758     33.6829   6.9593616156e+01   4.3022031460e+01    0.3358694     0.154584  37.90  0.001300534    3.127    0.680
       278 -10.2064    139.9705     34.0620   7.1835618119e+01   4.5682432143e+01     0.197955    0.1744417  64.28 0.0003288068    1.024    0.024
       279  -9.4643    206.3129     33.3761   6.1667601239e+01   3.0247624896e+01    0.1227669   0.09688503  37.69 0.0007029757    1.792    0.442
       280  -9.7961    129.7747     32.9555   7.3547626540e+01   4.8145500156e+01    0.1609812    0.1112334 -27.28 0.0008738758    1.655    0.396
       281  -9.9933    124.0584     32.8883   7.4741898603e+01   4.9437419226e+01     0.250313    0.1532763  52.93  0.001160412    1.415    0.293
       282  -9.9839    226.0820     40.4551   6.0970388560e+01   2.4907996222e+01     0.191276      0.15203 -60.30 0.0006504823    1.155    0.134
       283  -9.7625    178.8599     31.8893   6.4835149206e+01   3.6801470159e+01    0.1844051    0.1368479 -82.32 0.0003795026    1.320    0.242
       284  -9.9156    118.0073     32.1637   7.5860228369e+01   5.0858023374e+01    0.1812443    0.1620212  84.52 0.0002991846    1.273    0.214
       285 -10.9109     56.2362     30.8381   9.3488370682e+01   6.2650912303e+01    0.2707296    0.1680759 -12.65  0.001505801    1.687    0.407
       286  -9.5547     90.0676     31.5619   8.2780673470e+01   5.6712996419e+01    0.1840949    0.1107322  46.72  0.000391231    1.483    0.326
       287 -12.3756    226.4912    246.2501   1.0318911562e+02  -1.1066497336e+01    0.5694632    0.3815042  -5.60  0.003333907    1.548    0.354
       288  -9.8784    140.1896     28.4359   7.0163885487e+01   4.6277568802e+01    0.2978262    0.1595368  -8.47  0.001247857    3.282    0.695
       289 -10.4776     82.7999     29.9807   8.4337047086e+01   5.8276850770e+01    0.2856243    0.1977487 -66.17  0.001400636    2.954    0.662
       290  -9.8498    162.8682     28.8172   6.6417280841e+01   4.0934038520e+01    0.1783963    0.1386552 -82.98 0.0002610791    1.304    0.233
       291  -9.9910    124.7025     28.0896   7.3119318513e+01   4.9835083330e+01    0.2479489    0.1623173  29.19  0.001108539    1.760    0.432
       292 -11.5931     70.8629     26.0563   8.6607842033e+01   6.0869289971e+01    0.4372392    0.2713603  31.05  0.001695908    1.438    0.304
       293 -12.3090    232.8739    246.6255   1.0206356603e+02  -1.2015246825e+01    0.4723648    0.3423007 -21.74  0.002881171    1.285    0.222
       294 -10.7681    214.7092     27.4112   5.9452128592e+01   2.9108031505e+01    0.2023649    0.1729967 -73.71 0.0001922494    1.122    0.109
       295 -10.5293     88.2657     25.6606   8.1194619976e+01   5.7730462567e+01    0.2786295    0.2246961 -59.85  0.001700249    1.809    0.447
       296 -11.0927     84.5117     21.1150   8.0612913908e+01   5.8931263603e+01    0.2846326    0.2184835  59.55  0.001234209    1.477    0.323
       297  -9.7027     24.7872     26.8246   1.0462523302e+02   6.7194207405e+01    0.1368844    0.1199463  -7.38 0.0005830262    1.318    0.241
       298 -10.6801      2.0360     24.3088   1.1418358645e+02   6.9515061454e+01    0.3529666    0.1385256 -36.37  0.001700499    1.990    0.497
       299 -10.4676    181.0167    248.5171   1.1245578286e+02  -4.4778324165e+00    0.2990237    0.1246385 -33.82  0.001182871    3.329    0.700
       300  -9.8522    136.9837    247.5102   1.2136140375e+02   3.0022314078e+00    0.2025743    0.1161534  39.86 0.0003734379    1.521    0.342
       301  -9.5263    152.6282     26.3156   6.7388468558e+01   4.3620488977e+01    0.1376084   0.09253391 -78.01 0.0007033895    1.788    0.441
       302 -12.3577    129.4593     24.2205   7.0969431965e+01   4.9181742836e+01    0.3403705    0.2693098 -83.00 0.0005682131    1.498    0.332
       303 -10.4286    147.6201    245.1978   1.1881665365e+02   1.6454494597e+00    0.1808105     0.123279 -38.45 0.0009566843    1.758    0.431
       304 -10.1276    112.0364     24.7343   7.4833074622e+01   5.2969688419e+01    0.1803501    0.1500735  49.30 0.0004219231    1.045    0.043
       305 -10.8825     94.7287     24.3603   7.8970547702e+01   5.6601094375e+01    0.3615802    0.1895694  45.59   0.00117816    1.619    0.382
       306 -10.1868    173.9576     24.3433   6.3652177454e+01   3.8835002205e+01    0.1885796    0.1386342  71.64 0.0003638217    1.163    0.140
       307 -10.4699    120.4274     22.1860   7.2178678729e+01   5.1406152174e+01    0.3473206    0.2000022 -26.25   0.00154563    2.007    0.502
       308 -10.6524    134.8732     22.4249   6.9397992551e+01   4.8140292632e+01      0.21832    0.1905725   5.94 0.0007436568    1.356    0.262
       309  -9.0757     42.5300     31.5430   9.9005674121e+01   6.4474763317e+01    0.1190901   0.09404518  -0.90 0.0008083102    1.012    0.012
       310  -9.5002    115.5152    244.5067   1.2542814283e+02   7.1452721045e+00    0.1330959    0.1160003  53.29 0.0008102612    1.031    0.030
       311  -9.7229     15.1828     14.1900   1.0387922237e+02   6.9837626255e+01    0.1315435      0.11068  -8.35 0.0004855091    1.328    0.247
       312  -9.2938    197.9703     22.0072   6.0102110322e+01   3.3531276578e+01    0.1509538    0.1232155 -89.24 0.0003588224    1.003    0.003
       313 -10.2126    109.7177    243.0420   1.2644954970e+02   8.3846294531e+00    0.2615024    0.1934473  58.79  0.000847531    1.233    0.189
       314  -9.4851    162.0138     20.0267   6.4251779825e+01   4.2101331435e+01    0.1526701    0.1286234  74.82 0.0003236778    1.001    0.001
       315 -10.2058     46.4345     20.3418   9.3026530795e+01   6.5366994169e+01    0.3537505    0.1225904  43.18  0.001610545    2.996    0.666
       316 -12.0828     74.2793    238.3456   1.3323012824e+02   1.4865359869e+01    0.6415607    0.3844474 -63.29  0.003478304    1.731    0.422
       317 -12.0047     35.8443    241.4985   1.4106187896e+02   1.9370017523e+01     0.396872    0.2675118  56.78  0.002537616    1.255    0.203
       318 -10.3324     88.8840    241.2094   1.3055110685e+02   1.2067007201e+01     0.231848     0.162963 -38.67  0.001226863    2.111    0.526
       319 -10.7490    156.5024    241.0840   1.1634262031e+02   8.9996594522e-01    0.1883765    0.1347289 -49.07    0.0010278    1.575    0.365
       320  -9.5487     46.8654    241.4019   1.3896133814e+02   1.8005134474e+01    0.1469967    0.1127933  34.70 0.0003550628    1.585    0.369
       321  -9.3855     50.3138    240.3241   1.3820102851e+02   1.7781973097e+01    0.1095827   0.09545806 -45.78 0.0004876708    1.662    0.398
       322 -10.3054    195.6859    238.3546   1.0783548425e+02  -5.1472895951e+00    0.2595777    0.2039408   9.96  0.001375887    1.242    0.195
       323 -10.3495    216.3936     16.7473   5.7067244166e+01   3.0005537813e+01    0.4152397   0.08679259  60.31  0.001512653    3.980    0.749
       324 -10.9946     31.6169    237.4870   1.4154468160e+02   2.0721468504e+01    0.2789721    0.1982664 -84.28  0.001315733    1.231    0.187
       325 -10.6039     29.1857    232.8905   1.4164884306e+02   2.1984577066e+01     0.267344    0.2041661  85.57  0.001179721    1.075    0.070
       326 -11.3087    101.3463     36.9636   8.1538658281e+01   5.3817420528e+01    0.2531875    0.2248117  27.89 0.0005642357    1.029    0.028
       327  -9.4340    243.4727    237.4847   9.8545345804e+01  -1.2135199860e+01    0.1227282   0.09944496  -3.32 0.0001108011    1.002    0.002
       328 -10.1664     26.3525     13.8922   9.8638786756e+01   6.8696443502e+01    0.1805161    0.1129131   1.34 0.0003576735    1.433    0.302
       329 -10.2375    159.8905    235.8834   1.1481743710e+02   1.2854752591e+00    0.2101175    0.1776052  13.03 0.0007118942    1.253    0.202
       330  -9.7157    231.4590    235.4678   1.0039596244e+02  -1.0155210916e+01    0.1264529     0.103754  -0.69  0.000137852    1.027    0.027
       331 -10.4581    177.7413    234.7970   1.1090186441e+02  -1.5648929537e+00    0.2493076    0.1933776  -5.00 0.0009325506    1.483    0.326
       332 -11.1325    153.4626    234.0503   1.1589111572e+02   2.7427940525e+00     0.285486    0.2190052 -36.26  0.001575771    1.489    0.328
       333  -9.4239      4.6681     12.3175   1.0820002873e+02   7.1008196679e+01   0.08652843    0.0797981   7.15 0.0007047572    1.689    0.408
       334 -10.0723    167.0002    233.9544   1.1300764665e+02   4.2119337557e-01     0.210131    0.1926502  25.28  0.001131084    1.025    0.025
       335  -9.7314     24.1816    232.3448   1.4255521504e+02   2.2675256737e+01    0.1632546    0.1211323 -87.19 0.0006091854    1.154    0.134
       336  -9.9533     79.8911    231.4857   1.3130776183e+02   1.5498379055e+01    0.1950932    0.1163997  44.27 0.0004619872    1.522    0.343
       337  -9.3257     58.3247    230.3095   1.3565950815e+02   1.8856022529e+01    0.1148253    0.1002636 -38.46 0.0005151944    1.654    0.395
       338 -10.1896    190.5245    227.2699   1.0697636050e+02  -2.3774739682e+00    0.3970305    0.1317559 -44.87  0.001472952    3.184    0.686
       339  -9.5283    249.2973    227.3292   9.5699645181e+01  -1.1417363215e+01     0.127488   0.08191872  -6.84 0.0005760511    1.637    0.389
       340 -10.1460    129.8278    226.9617   1.1990812021e+02   8.2782183495e+00    0.3545535    0.1625742  53.18  0.001391959    2.451    0.592
       341 -10.1847     87.8233    227.1893   1.2910564972e+02   1.5216485309e+01    0.1710541    0.1666947 -29.33  0.001077712    1.338    0.253
       342 -10.3824     66.5618    226.4238   1.3354559058e+02   1.8561057785e+01    0.3023994    0.1673818  48.82  0.001063597    1.620    0.383
       343 -10.7571    115.9779    225.7570   1.2277262074e+02   1.0919132753e+01    0.2063185    0.1480362  81.82 0.0006804501    1.650    0.394
       344  -9.8979    181.0000    224.8947   1.0853585440e+02  -3.1724684035e-01    0.2141685   0.07816772 -46.19 0.0007993428    2.921    0.658
       345  -9.2466     80.6671    223.3583   1.3018180350e+02   1.7164722205e+01     0.148876   0.09010732  70.17 0.0007041827    1.799    0.444
       346 -10.8177    123.0724    221.4347   1.2056429101e+02   1.0620943149e+01    0.3666817    0.2572508  53.81  0.001784876    1.364    0.267
       347  -9.7973     13.2212    221.7666   1.4385738460e+02   2.6141745367e+01    0.1524048     0.117617 -73.71 0.0006093431    1.318    0.242
