#   1 NUMBER                 Running object number                                     
#   2 MAG_AUTO               Kron-like elliptical aperture magnitude                    [mag]
#   3 X_IMAGE                Object position along x                                    [pixel]
#   4 Y_IMAGE                Object position along y                                    [pixel]
#   5 X_WORLD                Barycenter position along world x axis                     [deg]
#   6 Y_WORLD                Barycenter position along world y axis                     [deg]
#   7 A_WORLD                Profile RMS along major axis (world units)                 [deg]
#   8 B_WORLD                Profile RMS along minor axis (world units)                 [deg]
#   9 THETA_WORLD            Position angle (CCW/world-x)                               [deg]
#  10 FWHM_WORLD             FWHM assuming a gaussian core                              [deg]
#  11 ELONGATION             A_IMAGE/B_IMAGE                                           
#  12 ELLIPTICITY            1 - B_IMAGE/A_IMAGE                                       
         1 -14.8502      3.0358     92.0273   1.3833404922e+02   5.6189988306e+01     4.791967    0.9573023 -74.64   0.01340789    6.416    0.844
         2 -13.7434    200.1755     27.3353   6.6377555497e+01   3.1699163318e+01      1.59961      1.37113  33.95   0.00622013    1.375    0.273
         3 -13.7366    216.3519      8.2756   5.9723905106e+01   2.9874669310e+01    0.9386547    0.7940901  73.42  0.002550795    1.177    0.150
         4  -8.9925     95.2302    172.4725   1.2575588040e+02   2.7180025020e+01    0.1852155    0.1168334  54.17 0.0005728542    1.556    0.357
         5 -12.5154    227.2023    249.7009   1.1153865137e+02  -7.6264953339e+00    0.6827456    0.1612482  39.49  0.002778671    3.484    0.713
         6 -11.9432     98.8729    248.3701   1.3417054419e+02   1.1966466044e+01    0.3620566     0.291192   8.96  0.002399749    2.023    0.506
         7 -12.7365      9.5238    207.1650   1.4715874290e+02   3.0469691750e+01    0.6760884    0.5818796  16.67  0.003665619    1.858    0.462
         8 -13.5279     33.1549    247.1479   1.4534771419e+02   2.0616000259e+01     1.386252    0.6817763  37.23  0.008713718    2.074    0.518
         9 -13.8159      7.6126    245.1475   1.4932186826e+02   2.3642851592e+01     1.713234    0.9640567 -84.42   0.01272363    1.556    0.357
        10 -14.9101     32.4672    229.2293   1.4440602573e+02   2.3895466545e+01     0.940505    0.8480049 -65.98    0.0075724    1.594    0.373
        11 -13.0161     44.4303    215.6382   1.4130349955e+02   2.5110844070e+01    0.7824538     0.460582  65.94  0.002579537    1.440    0.306
        12 -11.4007    147.1853    248.5952   1.2548925132e+02   4.6584553758e+00    0.2522713    0.2039875  84.98  0.001725013    1.590    0.371
        13 -10.0398    129.3369    245.3132   1.2835041101e+02   7.9175986690e+00    0.1119558   0.08719215  16.03 0.0007046296    1.691    0.409
        14 -11.9335    172.2591    248.2512   1.2092218018e+02   7.9838271138e-01     0.348123    0.1940111  38.49  0.002033368    1.430    0.301
        15  -9.6959     66.5216    250.4719   1.3999255925e+02   1.6028341064e+01    0.1110668   0.08231259  62.31 0.0002577923    1.006    0.006
        16 -10.1612    183.4815    238.5046   1.1754322224e+02   3.6588808414e-01     0.121581   0.09825537  31.02 0.0008103877    1.001    0.001
        17 -11.2049    139.4104    246.2128   1.2661660372e+02   6.2216548392e+00    0.2015036    0.1577022  88.78   0.00133907    1.633    0.388
        18 -11.7052     50.0207    235.4596   1.4175653827e+02   2.0716047860e+01    0.2529096    0.1994742 -85.69  0.001663119    1.287    0.223
        19 -12.6322    114.1687    231.9918   1.2965594658e+02   1.2440237107e+01    0.9888525    0.1006048  42.68  0.002702004    6.289    0.841
        20 -11.0748    121.9868    250.0000   1.3019749400e+02   8.3058281086e+00    0.2895323   0.09103855  43.13  0.001301193    2.455    0.593
        21 -11.2065    156.8154    249.6112   1.2387512942e+02   3.0146931382e+00    0.2695573   0.09512328  41.58  0.001249423    2.234    0.552
        22 -11.3098     88.2172    226.7263   1.3401800097e+02   1.7247643101e+01    0.3810992    0.1104171  49.31   0.00154811    3.012    0.668
        23  -8.8722    152.5046    213.0772   1.1967385558e+02   9.4320380411e+00    0.1636696     0.130327 -50.50  0.000353687    1.448    0.309
        24 -10.6174     57.7508    212.8556   1.3854085795e+02   2.4027556625e+01    0.2457374    0.1115068  59.12  0.001246009    2.084    0.520
        25 -11.3586     53.1704    204.1678   1.3865973996e+02   2.6341192810e+01    0.4922744    0.1827891  56.85  0.002192149    2.733    0.634
        26 -12.1986     56.7305    199.7876   1.3753625856e+02   2.6793959999e+01     0.269694    0.2266392 -87.75 0.0005051591    1.150    0.130
        27 -11.1683      7.0543    192.9382   1.4679099766e+02   3.3547573237e+01    0.2845259    0.1476903  63.77 0.0009692268    1.619    0.382
        28 -12.3992     63.5882    191.1360   1.3522885389e+02   2.7721815571e+01    0.2553191    0.2241521  83.52 0.0004342119    1.110    0.099
        29 -11.1172     74.6985    177.8365   1.3121491625e+02   2.9084212930e+01    0.2379771    0.2048685 -81.17 0.0003511967    1.106    0.096
        30 -13.3020     60.7704    176.3070   1.3415918316e+02   3.1306894719e+01    0.4834133    0.2659574 -48.44  0.001763934    2.242    0.554
        31 -12.5327      4.3313    171.3702   1.4594511828e+02   3.8298851599e+01    0.7046838    0.3172279 -86.37  0.003895569    1.841    0.457
        32 -13.1067    246.2818    248.0111   1.0811742930e+02  -1.0079642043e+01     1.000243     0.613887 -17.16  0.006726603    1.626    0.385
        33 -12.4572     82.9189    168.1799   1.2798148516e+02   3.0037983895e+01    0.7878534    0.6523693 -40.65  0.004587212    1.490    0.329
        34 -11.1484     95.4339    153.1292   1.2251630684e+02   3.1499127457e+01    0.3480571    0.3360209 -35.23 0.0008421243    1.204    0.170
        35 -10.0117     98.8540    148.8259   1.2088258884e+02   3.1918791442e+01    0.2547939     0.214744 -62.50 0.0005223774    1.148    0.129
        36 -12.0733     84.0503    151.9403   1.2514628749e+02   3.3574575457e+01    0.2942197    0.2418878 -49.60 0.0005298686    1.301    0.232
        37 -12.2602     67.5355    143.4245   1.2793944548e+02   3.7950058139e+01    0.6484838    0.4007134  64.01  0.002197461    1.872    0.466
        38 -10.5158    108.4799    137.6661   1.1623268037e+02   3.2803238600e+01    0.4694714    0.3226072 -16.38  0.001763837    2.467    0.595
        39 -10.8151     95.1215    135.0336   1.1916717479e+02   3.5736261011e+01    0.2417685    0.2190416 -47.01 0.0003168861    1.152    0.132
        40  -9.4237    114.7897    129.9795   1.1293553329e+02   3.3389787142e+01    0.2467791    0.1729687 -21.69  0.001069838    2.056    0.514
        41  -9.3387    105.8197    124.0778   1.1395841579e+02   3.6401205282e+01    0.2059447    0.1867379 -83.56 0.0002838136    1.125    0.111
        42  -8.4799     68.4797    114.5751   1.2234322448e+02   4.4638933205e+01     0.137956    0.1246385 -70.89 0.0002844685    1.035    0.034
        43 -11.0475    158.7961     76.7202   8.7770002058e+01   3.4784299460e+01    0.2886223    0.2589518 -46.57  0.000697797    1.116    0.104
        44 -14.1851      6.7748    150.7496   1.4383972641e+02   4.2621762397e+01     1.952165    0.7917637 -83.50  0.009681953    2.139    0.532
        45 -10.2388     81.4133    249.2406   1.3732666868e+02   1.4262879215e+01    0.1472519   0.09420662  88.37 0.0009545105    1.664    0.399
        46 -13.1198      2.4570    129.0395   1.4290902363e+02   4.7819722883e+01      1.34379    0.4385802 -76.85  0.006046825    2.482    0.597
        47 -11.6637    198.2733    246.7592   1.1608772807e+02  -3.0205240582e+00    0.2547066    0.1870528   9.58  0.001216442    1.381    0.276
