#   1 NUMBER                 Running object number                                     
#   2 MAG_AUTO               Kron-like elliptical aperture magnitude                    [mag]
#   3 X_IMAGE                Object position along x                                    [pixel]
#   4 Y_IMAGE                Object position along y                                    [pixel]
#   5 X_WORLD                Barycenter position along world x axis                     [deg]
#   6 Y_WORLD                Barycenter position along world y axis                     [deg]
#   7 A_WORLD                Profile RMS along major axis (world units)                 [deg]
#   8 B_WORLD                Profile RMS along minor axis (world units)                 [deg]
#   9 THETA_WORLD            Position angle (CCW/world-x)                               [deg]
#  10 FWHM_WORLD             FWHM assuming a gaussian core                              [deg]
#  11 ELONGATION             A_IMAGE/B_IMAGE                                           
#  12 ELLIPTICITY            1 - B_IMAGE/A_IMAGE                                       
         1 -12.9263     68.0638    145.2851   1.2124442935e+02   3.7431947514e+01     2.188299     1.189855 -88.41  0.003008102    4.722    0.788
         2 -12.6367    218.6443      6.9269   5.5504183562e+01   2.9885803861e+01    0.7715521    0.6110035  79.55  0.002716891    1.131    0.116
         3 -12.8542    194.0041     32.4823   6.3554148380e+01   3.2466663490e+01      1.24045    0.9562228  22.52  0.004702588    1.842    0.457
         4 -13.0795    202.4390     25.9822   6.1082995621e+01   3.1341119464e+01     1.565385     1.110498 -14.93  0.009132967    1.998    0.500
         5 -11.7645    209.0678     18.7864   5.8821804717e+01   3.0688770921e+01    0.4517386    0.4039621  34.39  0.001159536    1.482    0.325
         6  -8.7130    164.6806     11.6990   6.2414927335e+01   4.1235676193e+01     0.124631   0.08133727  43.02 0.0003845415    1.623    0.384
         7 -11.3945    134.7869    249.1026   1.2247546773e+02   4.2465133103e+00    0.6185927    0.3370431  32.62  0.003083779    1.757    0.431
         8  -9.9621    121.5563    248.7446   1.2510518759e+02   6.4089814763e+00    0.3050489    0.1997878  78.93  0.001461287    2.291    0.564
         9  -9.2066     74.2097    250.4381   1.3464751507e+02   1.3119018237e+01    0.2394073    0.1674348 -80.61   0.00126721    1.473    0.321
        10 -10.6732     69.6954    250.2007   1.3548313671e+02   1.3781231292e+01    0.3871603    0.3506567 -29.64   0.00064784    1.557    0.358
        11 -15.0505      7.8614    199.3524   1.4284356327e+02   3.1471884621e+01     7.874752      1.38686 -70.88   0.02006322    4.365    0.771
        12 -13.1822      6.2294    248.7961   1.4667650420e+02   2.1497342518e+01     2.602804     0.779353  30.26   0.01140082    4.570    0.781
        13  -8.8868    102.1019    235.6385   1.2737099967e+02   1.1950216223e+01    0.2067328    0.1691433 -86.26 0.0004800633    1.302    0.232
        14 -10.4002     53.5859    231.1671   1.3670307344e+02   1.9704780887e+01    0.3924974    0.2446093 -74.07  0.001218879    1.534    0.348
        15 -10.3805    145.8513    230.1405   1.1735636661e+02   5.9240906450e+00    0.2605645    0.1788692  32.95  0.001377535    1.364    0.267
        16  -9.0784     70.8224    229.2560   1.3304120806e+02   1.7827276363e+01    0.2114114    0.1779618  74.29 0.0005807753    1.057    0.054
        17 -10.2178    149.0860    223.3550   1.1556591738e+02   6.6718704812e+00    0.2225891    0.2160778 -23.19  0.000179814    1.101    0.092
        18 -10.3340     48.6575    238.3103   1.3834168928e+02   1.8859020875e+01    0.3580016    0.1583881  61.62  0.001672243    2.539    0.606
        19 -11.7048     17.4772    241.1800   1.4426777649e+02   2.1831752281e+01     0.443395    0.3750035  62.06  0.000372457    1.227    0.185
        20 -10.7522     26.0224    214.7832   1.4058353615e+02   2.6369989140e+01    0.3278618    0.1958272 -57.46  0.001578646    1.728    0.421
        21  -9.4143     29.7250    211.9818   1.3958974487e+02   2.6579260963e+01    0.1847274     0.153672  78.89 0.0005299374    1.050    0.048
        22  -9.6533     82.8679    246.1886   1.3252024176e+02   1.2725930232e+01    0.1927547     0.148146  66.89 0.0005778877    1.201    0.168
        23  -9.6223     87.9225    242.6631   1.3112111376e+02   1.2685464225e+01    0.2158637    0.1526997  74.53 0.0005066518    1.502    0.334
        24  -9.8143     55.6676    240.6352   1.3722357362e+02   1.7510657104e+01    0.3448686    0.2211267 -52.13  0.001560412    1.872    0.466
        25  -8.6541    189.3684    188.2704   1.0040288187e+02   6.3050232921e+00    0.2587722    0.1835757 -49.23  0.001277569    1.522    0.343
        26 -10.9661     66.4586    186.8437   1.2857991713e+02   2.7818187627e+01    0.4369194    0.2642936 -40.36  0.001179119    2.031    0.508
        27 -10.8749     71.3771    180.6706   1.2648326109e+02   2.8585568592e+01    0.3215083     0.242045 -44.10 0.0007158804    1.423    0.297
        28 -10.0869    105.6207    173.2884   1.1677261199e+02   2.5015251599e+01    0.7934358    0.2812967  46.56  0.002327325    3.163    0.684
        29 -12.1148     87.0874    163.6690   1.1966498019e+02   3.0290369604e+01      1.53898    0.8019406  56.33  0.001287152    2.644    0.622
        30 -10.9177     38.1721    226.6908   1.3928709315e+02   2.2502945707e+01    0.4687918    0.2183635  60.75  0.002318883    2.270    0.559
        31 -11.2086     45.1820    234.0186   1.3860931719e+02   2.0156608204e+01    0.5820714    0.2831383  68.16  0.001419211    2.391    0.582
        32 -10.1298    243.0431    169.0190   8.6198378837e+01   3.6121186613e-01    0.2921738    0.2129832  46.82   0.00108227    1.624    0.384
        33 -10.3147    243.3315    164.3194   8.5191167912e+01   1.1291376901e+00    0.2578776     0.217651 -19.79 0.0002407916    1.079    0.074
        34 -12.4440     67.9747    166.4568   1.2505098920e+02   3.2412630600e+01    0.5444092    0.2970012 -43.54  0.001633715    1.974    0.494
        35  -9.1598     98.4993    164.3115   1.1685793455e+02   2.8307896362e+01    0.2311839    0.2176147  19.92 0.0002466921    1.134    0.118
        36  -8.3209    164.8336    161.2322   1.0002931070e+02   1.6553401621e+01    0.2012183    0.1712889  -2.38 0.0003075787    1.291    0.226
        37  -9.9959    243.9348    159.0604   8.4012420334e+01   1.9436910766e+00     0.208777    0.1800583 -23.43 0.0006604158    1.041    0.039
        38 -10.2208    211.5287    157.2394   8.9405358314e+01   8.1257243839e+00    0.2373504    0.2354569 -24.89 0.0002823536    1.126    0.112
        39  -9.3333     97.3068    148.9965   1.1408412438e+02   3.2102365407e+01    0.2433809    0.2136549 -60.28 0.0003209462    1.126    0.112
        40  -9.9728    100.3840    146.8329   1.1280540366e+02   3.2087161623e+01     0.595993    0.2585486 -40.33  0.002131083    2.603    0.616
        41 -10.1594     39.2980    147.4271   1.2940283290e+02   4.0386433551e+01    0.3504813    0.1795286  49.69  0.001615616    2.416    0.586
        42 -11.4232     88.6892    145.8409   1.1573686847e+02   3.4249592478e+01    0.2940882    0.2523864 -35.57 0.0005443821    1.169    0.144
        43 -11.6314     29.2128    144.0441   1.3155507933e+02   4.2176928450e+01    0.5370712    0.2736855 -72.59  0.002570993    1.918    0.479
        44 -12.1973     41.1560    217.1333   1.3778423523e+02   2.4184114398e+01    0.4609157    0.3742583 -54.76  0.001060752    1.418    0.295
        45  -8.7518    230.9056    139.7740   8.2149562827e+01   7.6959373339e+00    0.1955924     0.174915 -12.56 0.0004223032    1.152    0.132
        46  -8.7615    110.7993    133.9844   1.0712840433e+02   3.3190350853e+01    0.2400973    0.1941268 -16.45 0.0009813635    1.403    0.287
        47  -9.7921     98.0831    130.6929   1.0981880095e+02   3.6199658400e+01    0.2812545    0.2253878 -18.34 0.0004015435    1.397    0.284
        48  -9.0227     43.9505    130.4925   1.2519093188e+02   4.3856986997e+01    0.1823159    0.1336336  25.89  0.001022904    1.561    0.359
        49 -14.5545     50.7379    205.7986   1.3457264095e+02   2.5520203504e+01     5.903543     1.579736  48.34   0.02048893    4.113    0.757
        50  -8.5092    107.3302    121.9937   1.0517461568e+02   3.6498297992e+01    0.2009603    0.1778606 -38.88 0.0003695795    1.086    0.080
        51  -9.0641    167.6552    113.1180   8.8032077737e+01   2.5866828454e+01    0.3311446    0.2440462 -70.27  0.001000717    1.782    0.439
        52  -8.6597    247.6628    113.7014   7.4033409838e+01   9.1202223711e+00    0.1265149    0.1021018   0.10 0.0002814353    1.657    0.397
        53  -8.6363    228.6585    173.3292   8.9615765634e+01   2.0387923390e+00    0.1328545    0.1102286 -74.30 0.0007051398    1.743    0.426
        54 -10.0619    243.1582     92.8647   7.0329510919e+01   1.3407452581e+01    0.2306501    0.1590732  72.55  0.001267631    1.669    0.401
        55  -8.6837    172.0377     92.6581   8.1948374364e+01   2.8680338469e+01    0.1955178    0.1783106  49.83 0.0003898791    1.095    0.087
        56  -9.6115    228.2458     84.4203   7.0566329169e+01   1.7747297403e+01    0.2271662    0.2012175 -53.72 0.0003184141    1.049    0.047
        57  -9.0625    232.9652     80.5051   6.9087066591e+01   1.7395341336e+01    0.1866817    0.1266176  63.18 0.0005218504    1.553    0.356
        58  -8.4569    157.2965     79.3553   8.1482972587e+01   3.4296848144e+01    0.1476721    0.1123671  12.92 0.0007034009    1.695    0.410
        59  -7.9091    115.1288     74.5939   9.0047453899e+01   4.4275071624e+01    0.1753067    0.1266953  31.31 0.0003002903    1.382    0.276
        60 -10.6212     80.3256    169.8380   1.2249574787e+02   2.9854754431e+01    0.3005508    0.2631722 -71.03 0.0004355047    1.093    0.085
        61 -10.3051    127.9446     52.3567   8.0249555545e+01   4.4943528997e+01    0.2204464    0.2010274 -17.72 0.0003152113    1.161    0.139
        62 -10.9998    166.9268    248.8534   1.1593190360e+02  -8.7349948859e-01    0.4080325     0.209462  28.44  0.001929367    1.961    0.490
        63 -12.0090    236.9349    246.4021   1.0197857681e+02  -1.1024449612e+01     0.232474    0.1973487  -4.27 0.0003001404    1.170    0.146
        64 -10.7664    150.2968    247.6143   1.1911108413e+02   2.0154425010e+00    0.2695087    0.2176159  32.35  0.001486848    1.093    0.085
        65  -8.3338     35.5074     37.3366   1.0334575404e+02   6.3055756822e+01    0.2050534   0.09065267  42.62 0.0009390303    3.306    0.697
        66  -8.3249     29.1568     35.3324   1.0512761120e+02   6.4061081089e+01    0.1487718   0.09566814  31.28 0.0004373725    1.720    0.418
        67  -8.6699     44.2903    247.0664   1.3992858639e+02   1.7652003073e+01      0.16034    0.1229905  81.49 0.0003441391    1.111    0.100
        68  -9.5727    223.4976     35.5406   6.0792562438e+01   2.5671545942e+01    0.2955332    0.1946886 -38.13  0.001754177    1.578    0.366
