#   1 NUMBER                 Running object number                                     
#   2 MAG_AUTO               Kron-like elliptical aperture magnitude                    [mag]
#   3 X_IMAGE                Object position along x                                    [pixel]
#   4 Y_IMAGE                Object position along y                                    [pixel]
#   5 X_WORLD                Barycenter position along world x axis                     [deg]
#   6 Y_WORLD                Barycenter position along world y axis                     [deg]
#   7 A_WORLD                Profile RMS along major axis (world units)                 [deg]
#   8 B_WORLD                Profile RMS along minor axis (world units)                 [deg]
#   9 THETA_WORLD            Position angle (CCW/world-x)                               [deg]
#  10 FWHM_WORLD             FWHM assuming a gaussian core                              [deg]
#  11 ELONGATION             A_IMAGE/B_IMAGE                                           
#  12 ELLIPTICITY            1 - B_IMAGE/A_IMAGE                                       
         1 -12.5114      1.8446     79.8732   1.0880548499e+02   5.9640111297e+01      1.69909          nan -65.88  0.003589234   10.028    0.900
         2 -13.1086    230.0009     31.4081   3.4230597935e+01   2.5488868388e+01    0.8308617     0.718291  55.71  0.005729381    1.468    0.319
         3 -11.7765      2.2806     21.9915   9.2780932863e+01   7.1328280328e+01    0.4607299    0.1662399 -48.12  0.002347003    2.264    0.558
         4 -12.3213      8.1206      5.5290   8.1805310444e+01   7.3401280199e+01    0.8283888    0.3322712 -29.08  0.004312026    2.334    0.572
         5 -11.0259      2.7804      3.1033   8.3918061849e+01   7.4212158228e+01     0.362899    0.2314003 -31.01  0.002525792    1.353    0.261
         6 -11.2255     86.2153    223.0851   1.0465028669e+02   1.6054568354e+01    0.4373903    0.3171399  71.44  0.001051106    1.487    0.328
         7 -14.4846     73.2265    246.8247   1.0996291091e+02   1.2960931700e+01     6.571362     2.218055  25.06   0.02117399    5.172    0.807
         8 -11.2631     45.3371    179.8106   1.0946635406e+02   3.1431990671e+01    0.3535656    0.2766592 -28.80 0.0009923516    1.647    0.393
         9 -11.1636     52.7583    173.4872   1.0674138465e+02   3.2136879577e+01    0.2833574    0.2540035 -39.47 0.0004981224    1.266    0.210
        10  -8.0821    110.6814    167.3428   9.0065552093e+01   2.5098997285e+01    0.1582338    0.1183441  74.48 0.0007049354    1.718    0.418
        11 -10.4122     65.2411    163.5326   1.0190890023e+02   3.3068360489e+01    0.2623557    0.2428812 -41.07 0.0003992758    1.163    0.140
        12 -12.6840     50.7063    159.9373   1.0545637657e+02   3.5799896290e+01    0.5609913    0.3327858 -37.28  0.001622856    2.093    0.522
        13 -11.7024     74.2264    156.6958   9.8241041026e+01   3.3564665422e+01    0.5699148    0.5633017 -67.34  0.003306584    1.059    0.056
        14 -14.1126     31.9445    248.6126   1.1838125286e+02   1.7577128150e+01     5.157296    0.8616307  45.63   0.01928493    3.703    0.730
        15  -9.6493     81.7013    154.9736   9.5788337717e+01   3.2900337695e+01    0.2133424    0.1883432 -65.67 0.0004639319    1.095    0.087
        16 -12.3481     67.8637    143.6920   9.7795542090e+01   3.7774592271e+01    0.8030776    0.5130101  61.96    0.0027696    1.992    0.498
        17  -9.7832     90.3583    143.6711   9.1072456232e+01   3.4389391776e+01    0.2893815    0.2653053 -20.43 0.0008569639    1.160    0.138
        18 -11.5136     77.8390    141.4877   9.4363907836e+01   3.6902744978e+01    0.3271987     0.275952 -47.58 0.0005330605    1.149    0.130
        19 -13.9064     11.7022    206.7809   1.1981453516e+02   2.8452131129e+01     1.190079    0.9121903 -47.01 0.0009058391    1.672    0.402
        20  -8.8642     93.8391    140.2300   8.9324310339e+01   3.4673071771e+01    0.2125476    0.1769658 -21.70 0.0005082167    1.347    0.258
        21 -15.2745     16.9777    165.5932   1.1529619762e+02   3.7736859159e+01     6.728969     2.531644 -89.99   0.02439393    3.440    0.709
        22 -10.0047    105.5935    131.4116   8.3890242009e+01   3.4777346014e+01    0.3565759    0.3053463  -5.47  0.001158749    1.318    0.241
        23 -10.0774     91.1620    127.7479   8.7360461606e+01   3.8219540358e+01    0.2991745    0.2540288  -2.92 0.0004356361    1.331    0.249
        24 -11.1206     54.2987    122.6983   9.8054366381e+01   4.4875657209e+01    0.4773951    0.1787054 -68.36  0.001544437    3.364    0.703
        25 -14.2981     20.0904    200.0656   1.1749532520e+02   2.9204126640e+01     1.941683     1.534203  76.95  0.009752242    1.063    0.059
        26  -8.9445    103.2773    119.9261   8.1799547546e+01   3.7961268957e+01    0.2114902    0.1904656 -42.58 0.0003264242    1.079    0.073
        27  -9.3802     52.3181    107.3250   9.5469194800e+01   4.8931162900e+01    0.1522752   0.09934909 -30.07 0.0007045036    1.674    0.403
        28 -10.1789    242.3851     91.8360   4.5586674508e+01   1.4372413319e+01    0.1889237    0.1112165 -30.91 0.0009135117    1.762    0.432
        29 -11.2811    139.8893    248.8792   9.6106231462e+01   3.1461332525e+00    0.3172403     0.222045  36.19  0.001863369    1.221    0.181
        30 -12.2404    213.2618     45.1758   3.8912992499e+01   2.7247047785e+01    0.5382252    0.3909101 -83.42   0.00316704    1.339    0.253
        31 -10.0446     13.0105     60.2832   9.9653340090e+01   6.3337714450e+01    0.1781622    0.1412034 -26.97 0.0007426363    1.094    0.086
        32 -10.5114     76.3187    220.8471   1.0664853581e+02   1.7913574530e+01    0.4505634    0.1275946  48.31  0.001498928    3.761    0.734
        33 -10.5805     50.0649    199.9740   1.1051654374e+02   2.6022958385e+01    0.4276133    0.2130395  58.90  0.001494077    2.177    0.541
        34 -12.6457     85.3292    234.2099   1.0610934598e+02   1.3852710885e+01    0.6968324    0.6287912  33.77  0.004548548    1.158    0.136
