#   1 NUMBER                 Running object number                                     
#   2 MAG_AUTO               Kron-like elliptical aperture magnitude                    [mag]
#   3 X_IMAGE                Object position along x                                    [pixel]
#   4 Y_IMAGE                Object position along y                                    [pixel]
#   5 X_WORLD                Barycenter position along world x axis                     [deg]
#   6 Y_WORLD                Barycenter position along world y axis                     [deg]
#   7 A_WORLD                Profile RMS along major axis (world units)                 [deg]
#   8 B_WORLD                Profile RMS along minor axis (world units)                 [deg]
#   9 THETA_WORLD            Position angle (CCW/world-x)                               [deg]
#  10 FWHM_WORLD             FWHM assuming a gaussian core                              [deg]
#  11 ELONGATION             A_IMAGE/B_IMAGE                                           
#  12 ELLIPTICITY            1 - B_IMAGE/A_IMAGE                                       
         1 -13.8819    226.1091     24.8017   6.4554835582e+00   2.5902126938e+01    0.9871425    0.8293631 -30.11  0.004134419    1.215    0.177
         2 -12.7277     30.8175     15.9288   5.0653143054e+01   7.1869134437e+01    0.5103565    0.2660867  23.35  0.002536766    2.089    0.521
         3  -9.2849    250.2871     10.6710   1.4676012868e+00   2.2338473666e+01    0.1295194   0.06713624 -53.86 0.0003649804    1.615    0.381
         4 -10.5270    164.5984    248.9266   6.4601231425e+01   2.9197291411e+00    0.2035271    0.1735639   0.63 0.0004790341    1.237    0.192
         5 -19.4802     14.8343    150.3201   8.7995878626e+01   4.1540034825e+01     17.62839     4.992528 -82.15   0.06490359    3.415    0.707
         6  -8.8891    198.0199    213.9708   5.3359218785e+01   2.9530818696e+00    0.1423292    0.1161795   1.31 0.0003623121    1.093    0.085
         7  -8.8101    165.0000    210.8896   5.9284590765e+01   8.3430642332e+00    0.1771397    0.0721513 -44.85 0.0007836837    2.814    0.645
         8  -9.3641     51.1474    200.5135   8.2999630385e+01   2.6573497620e+01    0.2698266     0.127977 -70.36  0.001328008    2.148    0.535
         9  -9.7762    211.0220    198.7104   4.8403815668e+01   3.1642484251e+00    0.1960547     0.157031 -10.14 0.0005071205    1.135    0.119
        10 -10.0166    143.3154    196.6760   6.1640443269e+01   1.4155647596e+01    0.1304434   0.09973063  63.56 0.0004846445    1.665    0.399
        11 -11.1920     56.4361    193.9236   8.1226677752e+01   2.7336850454e+01    0.4411677    0.2056811  55.08  0.002117178    2.047    0.512
        12 -11.5352     53.4138    188.5067   8.1443899438e+01   2.8863304581e+01    0.2623913    0.1928522  65.34 0.0002169759    1.212    0.175
        13 -11.5691     17.9343    248.9608   9.2356604915e+01   2.0928454322e+01      0.14856    0.1421102  86.48  0.001256569    1.489    0.328
        14  -9.8063     69.2550    195.6314   7.8410874137e+01   2.5378301032e+01    0.3817283    0.1416172 -66.26  0.001646418    2.814    0.645
        15  -9.1537     34.9972    244.5578   8.9070609819e+01   1.9975843244e+01    0.1529347    0.1082628 -30.22 0.0009646849    2.731    0.634
        16 -11.6176    140.8463    182.7288   5.9926281559e+01   1.7149462290e+01    0.4086344    0.1918228  50.41  0.001643019    2.517    0.603
        17  -8.9824     78.3587    183.7399   7.4929762639e+01   2.6707952996e+01     0.140471   0.08660833  57.98 0.0003669915    1.625    0.384
        18 -11.3053    173.7120    177.7341   5.1864254765e+01   1.2426600113e+01    0.7203252    0.3517421 -47.49  0.003171739    2.359    0.576
        19 -11.5862    179.6494    169.2570   4.9007219035e+01   1.2864604140e+01    0.5739278     0.442153 -38.29  0.003196197    1.356    0.263
        20 -11.1130     96.6817    179.3544   6.9866290170e+01   2.5001704950e+01    0.3647107    0.2600541  89.54  0.000915228    1.699    0.411
        21 -10.9458     96.6486    176.1559   6.9416685907e+01   2.5699912571e+01     0.305218    0.2397695 -38.40 0.0006831583    1.516    0.340
        22 -11.5922     36.2770    240.2207   8.8618744394e+01   2.0597131211e+01     0.185457    0.1372884  80.90  0.001058348    1.295    0.228
        23 -11.9077    249.0071    236.7412   4.8201958942e+01  -6.3616906283e+00     0.454699    0.1313629 -35.43  0.002174338    3.736    0.732
        24 -11.4169    152.4431    237.3171   6.5462612559e+01   6.1923292326e+00    0.2393866    0.1897158  18.37 0.0006997715    1.137    0.120
        25  -8.9833     97.4459    238.4772   7.6503323226e+01   1.3594464971e+01    0.1178656   0.09300903  43.86 0.0008077367    1.005    0.005
        26 -11.2816    140.1920    172.4879   5.8291603467e+01   1.9255069051e+01    0.3698843    0.2813345 -80.79  0.001297715    1.884    0.469
        27 -11.9640    114.7504    173.2346   6.4497312921e+01   2.3443893999e+01    0.4362701    0.2511321  52.96  0.001970912    1.892    0.471
        28  -9.7267     76.1283    171.1917   7.3916520141e+01   2.9813358852e+01    0.2503569    0.1569441  77.14 0.0007840439    1.927    0.481
        29 -11.2677    110.7959    167.1801   6.4477866885e+01   2.5400302801e+01    0.3683283    0.2898671  89.09  0.001052687    1.526    0.345
        30  -9.4733     91.9342    237.8923   7.7553129374e+01   1.4414904407e+01    0.1555791    0.1283269  33.45            0    1.175    0.149
        31 -10.0547    238.6731    161.0139   3.6520225495e+01   4.2749041293e+00    0.1993926    0.0862575 -48.55 0.0007051399    4.385    0.772
        32  -9.0587     97.5534    157.4966   6.6267280652e+01   2.9739313037e+01    0.1436345    0.1319345  65.97 0.0001703241    1.054    0.051
        33 -11.0597     91.8672    155.0405   6.7375740645e+01   3.1214335935e+01    0.2785393    0.2297555  83.61  0.001502049    1.291    0.225
        34 -11.5543    133.7036    145.4319   5.4585221639e+01   2.6048986014e+01     1.282222    0.2782439 -53.30  0.002762337    7.487    0.866
        35  -9.8825    113.5427    152.0633   6.1081385902e+01   2.8281637629e+01    0.4035471    0.2308111 -76.03  0.001487286    2.945    0.660
        36 -12.6429     92.5774    144.3759   6.5321959988e+01   3.3616189900e+01    0.6609436    0.5998774 -50.77  0.002273633    1.147    0.128
        37 -11.3610    109.0781    145.1613   6.0936049093e+01   3.0636825425e+01    0.3667726    0.3235237 -13.10  0.001369683    1.311    0.237
        38  -9.9504    147.9922    144.5160   5.0900287199e+01   2.3485569448e+01    0.2210969    0.1428172  40.29 0.0004162347    1.512    0.339
        39 -12.1462    105.2189    131.2196   5.9139624733e+01   3.4575330051e+01    0.5924581    0.4796627 -59.63  0.002536884    1.251    0.200
        40 -11.5477     93.3202    131.7967   6.2684730035e+01   3.6512769156e+01    0.3100334     0.275104 -72.41 0.0003958123    1.129    0.114
        41 -11.2241    135.4673    125.0393   4.9530773834e+01   3.0122571243e+01    0.6994153     0.175885 -50.20   0.00179048    4.725    0.788
        42 -10.1774    161.1839    125.7454   4.3493659489e+01   2.4620635795e+01    0.4383624     0.170085 -40.96   0.00152813    2.553    0.608
        43 -10.6328    113.3952    125.8325   5.5636831183e+01   3.4319616425e+01    0.2860491    0.2456191   9.93 0.0006631429    1.333    0.250
        44 -10.3713    105.2434    123.8493   5.7500028303e+01   3.6311004568e+01    0.2594364    0.2356508  71.81 0.0004335486    1.159    0.137
        45  -9.1975    144.2101    123.0082   4.6837832277e+01   2.8745992892e+01    0.2071375     0.197032 -23.63 0.0003397537    1.041    0.039
        46 -10.6526    101.1407    120.8414   5.8009427182e+01   3.7775992279e+01    0.3092428    0.2498212  15.81 0.0009273761    1.455    0.313
        47 -10.9233     56.4618    235.5578   8.4442874489e+01   1.9196611676e+01    0.1496385    0.1117243  53.09 0.0004941145    1.027    0.026
        48 -10.2346    108.9249    116.2540   5.4638412076e+01   3.7403237126e+01    0.2787654    0.2189424 -43.65 0.0002520299    1.276    0.217
        49  -9.0357     85.3313    116.2765   6.1791658945e+01   4.1635641055e+01    0.1484042    0.1174269 -16.79 0.0004791732    1.599    0.374
        50  -9.3383     89.2974    250.8210   7.9174123082e+01   1.2641113861e+01    0.1090108   0.05993765  47.07 0.0006531255    1.435    0.303
        51 -11.8121    114.3182    107.1514   5.0758082341e+01   3.8439130741e+01    0.6563109    0.3938366 -72.23  0.002318727    2.865    0.651
        52  -9.4893     80.3353    109.2656   6.1791706745e+01   4.4182429579e+01    0.1474399    0.1164376 -16.52 0.0002432169    1.586    0.370
        53 -10.4391    134.0760    104.8859   4.4714220039e+01   3.4770342227e+01    0.3754781    0.2303374 -48.42 0.0008555416    1.654    0.396
        54 -11.0389     46.2096    229.1167   8.6068595204e+01   2.1524701614e+01    0.3006277    0.1380703  35.49  0.001683144    1.815    0.449
        55 -12.3346     66.8028    102.3537   6.4756569094e+01   4.7984369472e+01    0.6090364    0.3677525 -60.41  0.002764039    1.571    0.364
        56 -11.1151    118.4438    103.0141   4.8462469211e+01   3.8522723371e+01    0.3035196     0.223726  60.86  0.001114898    1.576    0.365
        57 -10.1978     76.5615     99.1871   6.0615871613e+01   4.7272168361e+01    0.2829773    0.2222489  68.35 0.0007586868    1.513    0.339
        58 -10.9431    120.3709     98.0904   4.6544300313e+01   3.9204598005e+01    0.3050493    0.2380994  52.88   0.00108625    1.347    0.257
        59  -9.0013    135.2825     96.3102   4.2001367848e+01   3.6311649009e+01    0.1559133    0.1241977  -0.33 0.0001974757    1.568    0.362
        60 -12.0327     57.3621     95.9408   6.6650240469e+01   5.0901779870e+01    0.4690002    0.3171301  64.29  0.001589227    1.884    0.469
        61 -11.9680     40.1257     88.9841   7.1628628824e+01   5.4701130985e+01    0.4066383    0.2973502  58.55   0.00124094    1.592    0.372
        62 -11.8102     45.6775     92.0659   7.0150334034e+01   5.3316410907e+01    0.3496487    0.2945126 -37.49 0.0001985239    1.214    0.176
        63 -11.1032    158.5457    228.0068   6.3046774021e+01   6.6862294864e+00    0.2838677    0.1430019  34.21  0.001512164    1.621    0.383
        64 -10.3005     59.1324     85.8378   6.3505191000e+01   5.3166856677e+01    0.2198983    0.1958411  80.05  0.001072784    1.256    0.204
        65  -9.4777    124.2663     86.2820   4.1976895552e+01   4.0875136401e+01    0.2092829    0.1822837 -82.77 0.0006005888    1.347    0.258
        66  -8.9626    119.6549     82.3196   4.2039539690e+01   4.2730783838e+01    0.1609526    0.1260288 -85.47 0.0007049407    1.727    0.421
        67  -9.4222     93.3376     80.8052   4.9684176073e+01   4.8599999721e+01    0.2284645    0.1830256 -61.67  0.000446763    1.360    0.264
        68 -10.1331     83.2439     73.5537   5.0850118416e+01   5.2133549698e+01    0.3291813     0.247873 -20.82  0.001564344    1.535    0.348
        69  -9.7536     91.8837     70.0972   4.6668207687e+01   5.1215566219e+01    0.2236931    0.2050724 -78.13 0.0004730054    1.248    0.199
        70 -12.2114    180.2020     64.7281   2.2992948831e+01   3.1362048598e+01    0.4438564     0.412962 -32.54 0.0008124038    1.059    0.055
        71 -11.1357    158.6137    223.0892   6.2354248646e+01   7.4152391604e+00    0.2608244    0.1428024  21.58  0.001113573    1.929    0.482
        72 -13.5696    197.1395     52.2268   1.6832081515e+01   2.9125974080e+01     1.266998    0.9278004  36.41  0.004111563    1.653    0.395
        73 -12.2562    202.8257     46.9000   1.4618333935e+01   2.8506732402e+01    0.5220513    0.4131959  54.88  0.001447029    1.370    0.270
        74 -10.0276     64.2214     58.2235   5.2890636699e+01   5.8796408671e+01    0.1861807    0.1718896  80.96 0.0004551189    1.330    0.248
        75 -10.8003     69.8279     56.8999   5.0110615672e+01   5.8132392279e+01    0.2998271    0.2072875  42.70  0.000853602    1.547    0.354
        76 -10.5571     89.4235    221.8031   7.6554680262e+01   1.7568951008e+01    0.2750531    0.1866533  49.21 0.0007979014    1.244    0.196
        77 -10.9537     53.6517     44.2368   5.2112150561e+01   6.3372620827e+01    0.5481865    0.2326721  46.50  0.002080328    3.098    0.677
        78 -11.3990    242.0365    246.1187   5.0717836412e+01  -6.5182537817e+00    0.2132129    0.1349217 -25.13  0.001549309    1.634    0.388
        79  -9.4343     40.9715     32.4606   5.3257796153e+01   6.7517936488e+01    0.1903163    0.1271925  30.64  0.001019844    1.574    0.365
        80  -9.2037     71.7413    222.9823   8.0388575828e+01   1.9646365152e+01    0.1199325   0.09803399 -86.94  0.000637126    1.318    0.241
        81 -10.6244     60.5939     21.4310   3.8231555552e+01   6.6232403785e+01    0.2438854    0.2133622   0.76 0.0007034662    1.016    0.016
        82  99.0000     53.0775    243.6159   8.5609893444e+01   1.8175031405e+01    0.2622551    0.1545173  30.97   0.00166875    1.616    0.381
        83 -11.4858    221.8709     28.1484   7.6558651122e+00   2.6459821381e+01      0.36022      0.25617 -75.60  0.001787774    1.416    0.294
