#   1 NUMBER                 Running object number                                     
#   2 MAG_AUTO               Kron-like elliptical aperture magnitude                    [mag]
#   3 X_IMAGE                Object position along x                                    [pixel]
#   4 Y_IMAGE                Object position along y                                    [pixel]
#   5 X_WORLD                Barycenter position along world x axis                     [deg]
#   6 Y_WORLD                Barycenter position along world y axis                     [deg]
#   7 A_WORLD                Profile RMS along major axis (world units)                 [deg]
#   8 B_WORLD                Profile RMS along minor axis (world units)                 [deg]
#   9 THETA_WORLD            Position angle (CCW/world-x)                               [deg]
#  10 FWHM_WORLD             FWHM assuming a gaussian core                              [deg]
#  11 ELONGATION             A_IMAGE/B_IMAGE                                           
#  12 ELLIPTICITY            1 - B_IMAGE/A_IMAGE                                       
         1 -10.7598     83.9975     40.4844   8.4645840234e+01   5.7509596796e+01    0.1985089    0.1097319  21.83 0.0006842414    2.510    0.602
         2 -12.1081    160.6279    239.4579   1.1059808437e+02   4.7824407542e+00    0.2539029    0.1638569  60.20   0.00134131    1.937    0.484
         3 -11.3332    147.3790    239.2077   1.1298886625e+02   6.8747385360e+00    0.1426128    0.1125506 -73.39 0.0009489519    1.698    0.411
         4 -10.6749     92.6541    238.3274   1.2290075728e+02   1.5105403749e+01    0.1226883   0.06922735  63.30 0.0007050245    1.749    0.428
         5 -10.7741    114.4851    233.9994   1.1846443021e+02   1.2687872515e+01    0.1565276   0.09356496  83.51 0.0007939694    2.555    0.609
         6 -11.1305    145.0083    232.9727   1.1264969436e+02   8.1788391765e+00    0.1920446    0.1311971  63.82   0.00113655    1.734    0.423
         7 -10.9632     92.3326    230.6634   1.2223708570e+02   1.6445531868e+01    0.1245035   0.07223658  64.75 0.0007052085    1.739    0.425
         8 -11.2553     73.0743    227.7222   1.2552624701e+02   1.9566170103e+01    0.2606947    0.1395808  72.10  0.001456667    2.038    0.509
         9 -10.6062    120.3331    227.6723   1.1665586879e+02   1.2851562026e+01    0.1254507   0.08010968  64.49 0.0004917424    1.717    0.418
        10 -11.3223     84.3931    227.2286   1.2338666692e+02   1.8141845293e+01    0.1543291    0.1000405 -87.62 0.0009560692    1.679    0.404
        11 -11.2064    162.7890    225.0448   1.0824492804e+02   6.5425116338e+00    0.2692311    0.1836309 -41.74  0.001630079    1.759    0.431
        12 -11.5874    149.1140    223.4382   1.1062322865e+02   9.0071489063e+00    0.2230332    0.1664085 -82.83  0.001319264    1.942    0.485
        13 -10.7383    183.1831    223.3672   1.0417522731e+02   3.4708904884e+00    0.1814439   0.09798731  46.05 0.0009484786    1.730    0.422
        14 -10.7083    114.5016    223.5132   1.1728796220e+02   1.4441278487e+01    0.1224433   0.09956314  54.40 0.0003209606    1.029    0.028
        15 -10.9165    193.5229    221.5087   1.0197728977e+02   2.0536533393e+00    0.1239383    0.1018938  27.16 0.0008100113    1.029    0.028
        16 -10.9398     73.9992    219.4971   1.2462655750e+02   2.0932076166e+01    0.1769691   0.06806015  55.30 0.0008103633    2.529    0.605
        17 -11.2248    143.8947    216.3298   1.1065680566e+02   1.1007276045e+01    0.1982737    0.1751049 -82.47  0.001313023    1.349    0.259
        18 -10.6628    112.3097    216.6752   1.1691020877e+02   1.5968687457e+01    0.1267795   0.08299916  66.63 0.0004495073    1.654    0.395
        19 -10.8503    199.4734    215.4767   9.9915309519e+01   1.9201496195e+00    0.1251549    0.1038978  24.51 0.0001529516    1.032    0.031
        20 -11.0851    186.1261    214.8502   1.0229852455e+02   4.2135425379e+00    0.1883703     0.161537  47.75  0.000847541    1.280    0.219
        21 -10.8940    154.5950    214.8253   1.0834993162e+02   9.4864345430e+00    0.1590229    0.1222853 -67.23 0.0009471675    1.705    0.413
        22 -10.6250    131.7647    213.0038   1.1259468580e+02   1.3547800126e+01    0.1508153     0.106667 -56.05 0.0008841252    1.638    0.390
        23 -10.9491     76.3991    213.1916   1.2357216000e+02   2.1786319461e+01    0.1647393    0.1009691 -87.66 0.0009538386    1.754    0.430
        24 -10.9269    218.4942    211.5001   9.5799941937e+01  -6.2314832046e-01    0.1242748    0.1021034  17.60 0.0008103921    1.037    0.035
        25 -11.5739    116.3868    209.9347   1.1526708454e+02   1.6546860820e+01    0.2974618    0.2199142  82.86  0.001660968    1.569    0.363
        26 -11.2752    177.1915    210.1931   1.0325397512e+02   6.4138834250e+00     0.171697    0.1483135  59.41  0.001084292    1.370    0.270
        27 -10.9957    148.2738    209.4455   1.0880729019e+02   1.1432762497e+01    0.2082481    0.1596452 -86.80   0.00119199    1.808    0.447
        28 -10.6268    139.3183    207.6433   1.1033724855e+02   1.3239437964e+01    0.1312925   0.09325234  70.08 0.0007045206    1.754    0.430
        29 -12.7553    186.1905    204.0046   1.0050415323e+02   5.8262548524e+00     0.304247    0.2641293 -53.15  0.001389417    1.470    0.320
        30 -11.1840    198.8578    204.1744   9.8128455440e+01   3.6345358025e+00    0.1894055    0.1702176  45.26   0.00104318    1.299    0.230
        31 -13.7517    164.8934    201.8450   1.0431625441e+02   9.8635059137e+00    0.7812087    0.4077438 -35.32  0.003690939    2.377    0.579
        32 -12.6338    162.4582    193.5303   1.0342949512e+02   1.1701607245e+01    0.4386021    0.3588381  82.16  0.002489182    1.641    0.391
        33 -10.7926    130.6234    202.8170   1.1141126975e+02   1.5542248530e+01    0.1724354    0.1218127 -71.18 0.0009534961    1.741    0.426
        34 -11.7819    148.9072    197.3787   1.0683454019e+02   1.3412884552e+01     0.354466    0.1913496 -62.92  0.001572495    2.734    0.634
        35 -11.5185     88.4255    198.1665   1.1954405807e+02   2.3014533499e+01    0.2795684    0.1182471 -74.22  0.001141099    3.287    0.696
        36 -11.5475    177.6901    198.0724   1.0114913857e+02   8.2409075440e+00    0.1930829    0.1714119 -69.72  0.001185014    1.478    0.323
        37 -12.1262    123.9312    197.1384   1.1198279317e+02   1.7699266664e+01    0.3024303    0.1876547 -70.59  0.001533546    2.053    0.513
        38 -10.4342    203.3420    197.6569   9.6140002964e+01   3.8271670167e+00    0.1215389    0.1043616  75.85 0.0007047821    1.782    0.439
        39 -11.1579    112.3448    196.8638   1.1437398994e+02   1.9631690843e+01    0.2427005    0.1205845 -67.81  0.001089457    2.578    0.612
        40 -10.7120    193.4335    196.2279   9.7763772349e+01   5.7641498002e+00    0.1684411    0.1261203 -49.31 0.0009489693    1.675    0.403
        41 -11.8515    186.4455    193.3830   9.8610076513e+01   7.4449994323e+00    0.2937754    0.1910962 -50.22  0.001528443    1.917    0.478
        42 -11.6017    206.0026    191.2977   9.4481570677e+01   4.3135640689e+00    0.1884605    0.1585911  24.18 0.0007850079    1.058    0.054
        43 -10.9328    199.6377    191.2344   9.5673358284e+01   5.4417572473e+00    0.1805436    0.1186278 -24.47 0.0009507983    1.659    0.397
        44 -12.0282    172.6012    190.6577   1.0087640680e+02   1.0375295770e+01    0.2510977    0.2155131 -67.19  0.001165985    1.493    0.330
        45 -10.2988    179.4869    190.5160   9.9471092471e+01   9.1577981349e+00    0.1343114    0.1193511  28.14 7.716884e-05    1.022    0.021
        46 -11.6891    138.9067    188.6101   1.0751886253e+02   1.6759274338e+01    0.3269989    0.1902485 -54.98  0.001605612    1.941    0.485
        47 -10.9938    192.5060    187.5667   9.6369219001e+01   7.2899013910e+00     0.218615    0.1269688 -50.51  0.001029451    2.238    0.553
        48 -11.2930    129.2772    187.8000   1.0944659568e+02   1.8580922829e+01     0.257679    0.2000781  83.26  0.001412977    1.544    0.352
        49 -10.7055    217.5277    187.5022   9.1634333149e+01   2.8709298250e+00    0.1311516    0.1127818  11.77 0.0001778149    1.028    0.027
        50 -11.4155    165.2785    186.2240   1.0158556422e+02   1.2469254409e+01    0.3169188    0.2438637 -70.43  0.001438317    1.784    0.439
        51 -11.1962    155.9950    186.0312   1.0348025913e+02   1.4190998403e+01    0.3285777    0.1858517 -60.06  0.001469921    2.427    0.588
        52 -12.2615    120.1621    183.7847   1.1079660950e+02   2.0916137760e+01    0.5981154    0.2170932 -61.97  0.002082712    3.898    0.743
        53 -11.6582     95.0304    184.7255   1.1644158171e+02   2.4752841013e+01    0.4760807    0.1915813 -64.91  0.001982006    2.797    0.642
        54 -10.8233    183.0256    183.8025   9.7539476856e+01   9.6326544496e+00    0.2363078    0.1784688 -55.56  0.001275693    1.682    0.405
        55 -12.2997    174.3442    182.9388   9.9132267468e+01   1.1379357874e+01    0.3468486    0.2584872 -54.29   0.00150926    1.624    0.384
        56 -12.4243    147.5134    179.4982   1.0413913620e+02   1.6944921771e+01    0.4243058    0.2465276 -54.50  0.002005339    1.967    0.492
        57 -11.7590    137.9629    178.3211   1.0600672684e+02   1.8898887835e+01     0.303817    0.2077624 -51.75  0.001453458    1.579    0.367
        58 -11.3626    192.1240    177.3904   9.4510286734e+01   9.0186347435e+00    0.2624663    0.2023565 -43.21  0.001452233    1.448    0.309
        59 -11.5929    183.0157    175.5447   9.5970793313e+01   1.1038412404e+01    0.2734016    0.2144146 -38.12  0.001379062    1.358    0.264
        60 -11.4301    204.0252    184.2477   9.3529008562e+01   5.7405248580e+00    0.2825192    0.1847868 -45.06  0.001472868    1.800    0.445
        61 -11.7616     77.4972    175.7515   1.1915383238e+02   2.9201422906e+01    0.3889303    0.1467641  54.54  0.001484955    3.186    0.686
        62 -10.4347    159.4849    174.9845   1.0075498010e+02   1.5578329297e+01    0.1884436    0.1247436 -73.64 0.0008102675    2.541    0.606
        63 -10.6755    105.3399    174.6568   1.1269154068e+02   2.5234318610e+01    0.1443655   0.09687585  72.25 0.0007048701    1.776    0.437
        64 -11.5796    177.3296    170.7204   9.6188138212e+01   1.2965303042e+01    0.3401564    0.2480916 -61.40  0.001703455    1.832    0.454
        65 -10.8320    134.4928    170.5246   1.0540910534e+02   2.1071591899e+01    0.2819132    0.1387154 -51.50  0.001209796    2.163    0.538
        66 -10.7537    205.9565    168.9987   9.0147781220e+01   7.8061796475e+00    0.2037126    0.1771327 -81.18  0.001133254    1.703    0.413
        67 -11.0371    167.9809    168.2979   9.7665970426e+01   1.5203092906e+01    0.3125889    0.1988606 -52.45  0.001481885    1.825    0.452
        68 -11.3007    149.4922    168.9431   1.0178507005e+02   1.8609720171e+01    0.2093942    0.1406131 -49.23 0.0008383024    1.594    0.373
        69 -11.9640    121.0041    167.8334   1.0799797292e+02   2.4028192691e+01    0.3862986    0.2013361 -60.27  0.001685057    2.160    0.537
        70 -10.7878    185.4764    166.9333   9.3760809475e+01   1.2065002345e+01    0.2083646    0.1377525 -39.72 0.0009767087    1.581    0.368
        71 -10.5321     88.3102    167.6569   1.1555883773e+02   2.9391642219e+01    0.1409933   0.09429362  73.77 0.0005120639    1.699    0.411
        72 -11.4138    192.2324    164.3311   9.1866811235e+01   1.1207709738e+01    0.4965879    0.1721445 -42.03  0.001789556    3.018    0.669
        73 -12.2606    139.0131    163.4153   1.0308060596e+02   2.1677857405e+01    0.5278346    0.2406255 -57.10  0.002031667    2.692    0.628
        74 -11.5416    212.9998    163.3451   8.7647250356e+01   7.3918006754e+00    0.2351914    0.2010448 -57.93  0.001326663    1.552    0.356
        75 -10.9102    159.5340    162.8375   9.8398266809e+01   1.7869778421e+01    0.3429757    0.1418629 -47.58  0.001303132    2.602    0.616
        76 -12.0730    205.2650    161.8228   8.8791902665e+01   9.1122397820e+00    0.3577062     0.214943 -35.72   0.00172392    1.673    0.402
        77 -11.0306     79.0323    162.5474   1.1700003491e+02   3.1873365501e+01     0.284656    0.1458642  78.23   0.00103858    3.588    0.721
        78 -11.4780    177.6167    159.4405   9.3836141301e+01   1.4949033346e+01    0.3904641    0.2129368 -47.31  0.001697945    2.017    0.504
        79 -10.8452    151.5603    160.2433   9.9638760315e+01   1.9924704741e+01    0.2696165    0.1413648 -51.61  0.001133711    2.103    0.524
        80 -10.9146     92.2476    159.2676   1.1333729657e+02   3.0638564331e+01    0.2163174    0.1109777 -72.38 0.0008970869    2.409    0.585
        81 -12.1106    196.4135    156.6101   8.9407996972e+01   1.1721005243e+01    0.4131558    0.2655449 -44.12  0.001533072    1.673    0.402
        82 -11.0327    104.9933    157.0275   1.0988963410e+02   2.9084117747e+01    0.3222682    0.1801692 -73.04  0.001354442    2.365    0.577
        83 -10.7119    218.3681    156.7894   8.5263791710e+01   7.4240376533e+00    0.1993388    0.1226209 -23.52  0.000950812    1.678    0.404
        84 -10.7512    188.4431    157.0256   9.1094083037e+01   1.3231004102e+01    0.2189877    0.1385965 -38.52  0.001033866    1.615    0.381
        85 -11.5507    167.6478    155.8890   9.5210391892e+01   1.7600479405e+01    0.4445058    0.1737955 -44.94  0.001630835    2.680    0.627
        86 -10.6961    157.4975    155.0462   9.7257540273e+01   1.9787066023e+01    0.2226393     0.144034 -45.06  0.001038625    1.608    0.378
        87 -11.3107    118.9876    153.9832   1.0596835905e+02   2.7330108785e+01    0.3654731    0.1946241 -65.84  0.001474052    2.428    0.588
        88 -11.5248    204.5211    154.0378   8.7270046877e+01   1.0558453381e+01    0.2166863    0.1353215 -34.71  0.001032518    1.591    0.372
        89 -10.8410    144.5824    153.7861   9.9913813062e+01   2.2579362641e+01    0.2045915    0.1397045 -59.35 0.0009567521    1.674    0.403
        90 -10.9022     49.3111    154.6458   1.2306724830e+02   3.7466199311e+01     0.135556   0.08317731  72.74 0.0007044233    1.728    0.421
        91 -11.1703    132.8594    151.5144   1.0218276013e+02   2.5302735959e+01    0.4037331    0.1954575 -59.56  0.001532958    2.607    0.616
        92 -10.9524     81.0000    153.0229   1.1508802973e+02   3.3729258635e+01    0.2255212   0.07236366 -60.68 0.0008090385    2.988    0.665
        93 -12.1260    190.1845    148.8055   8.8952651818e+01   1.4347243750e+01    0.4121979    0.3195676 -38.87  0.002145841    1.317    0.240
        94 -12.2158    200.1972    147.3778   8.6642421943e+01   1.2562856149e+01    0.4576635    0.2083216 -35.53  0.001835162    2.210    0.547
        95 -10.0229    215.3450    147.6712   8.3830264526e+01   9.4856595747e+00    0.1366688    0.1146363 -75.59 0.0006019803    1.751    0.429
        96 -11.9431    148.3082    142.5724   9.6675959837e+01   2.4142956970e+01    0.6452232     0.264175 -49.98  0.002318416    2.639    0.621
        97 -11.5043    106.2752    143.5065   1.0709064132e+02   3.1871852379e+01    0.5052374    0.2243699 -65.79  0.001761571    3.169    0.684
        98 -11.2960     54.9245    143.7714   1.2025082566e+02   3.9302598281e+01    0.4049439    0.1605337 -74.69  0.001580663    2.883    0.653
        99 -11.0268    165.5630    142.7105   9.2798734031e+01   2.0574784590e+01    0.2912218    0.1441421 -38.20  0.001149597    2.122    0.529
       100 -11.5902    124.0260    140.8669   1.0212731616e+02   2.9258368001e+01    0.5092363    0.2104715 -59.72  0.001686059    3.294    0.696
       101 -11.1260     87.4491    142.7460   1.1174232761e+02   3.5110422176e+01    0.2748069    0.1322825 -64.41  0.001145732    2.166    0.538
       102 -10.8761    182.0689    140.6637   8.8786718699e+01   1.7515784488e+01    0.2630977     0.203448 -47.10  0.001318161    1.378    0.274
       103 -10.6265    234.0000    147.0024   8.0366652145e+01   6.0044426584e+00    0.2293662   0.07231361 -34.41 0.0008076109    2.978    0.664
       104 -10.6502    219.6637    137.1441   8.0669506279e+01   1.0356197479e+01    0.2890923    0.1164775 -41.59  0.001092007    2.515    0.602
       105 -11.2354    197.7802    135.2871   8.4352674258e+01   1.5185770097e+01    0.5513988    0.1927261 -35.18  0.001861813    2.946    0.661
       106 -10.8657    171.9977    137.0188   9.0089015143e+01   2.0332253537e+01    0.3504894    0.1847176 -53.57  0.001344713    2.393    0.582
       107 -10.9489     22.3110    136.9654   1.2767527864e+02   4.4183424936e+01     0.205327   0.07852088  85.36 0.0007045705    4.294    0.767
       108 -10.4693    187.6880    134.5215   8.6196762774e+01   1.7463656975e+01    0.2666809    0.1333691 -38.61   0.00107083    1.986    0.496
       109 -10.6627    162.3927    135.2165   9.1788824840e+01   2.2718891223e+01    0.2159697    0.1411368 -52.04 0.0009537189    1.682    0.405
       110 -11.0020    179.4730    132.4815   8.7421729558e+01   1.9603026430e+01     0.318332    0.1458763 -39.67   0.00121321    2.179    0.541
       111 -10.7450    112.3196    132.6557   1.0333716368e+02   3.3240365772e+01    0.1521927    0.1136465  83.11   0.00064743    1.725    0.420
       112 -11.9014     82.9361    129.9937   1.1057479869e+02   3.8744829973e+01    0.6360918    0.1742518 -59.00  0.002009435    3.635    0.725
       113 -11.6251    131.4527    129.0588   9.7679160416e+01   3.0388361074e+01    0.4952503    0.1805263 -47.70  0.001687921    2.739    0.635
       114 -10.6919    204.5978    129.7728   8.1733278629e+01   1.4714221891e+01    0.2091021    0.1323993 -44.31 0.0009479287    1.643    0.392
       115 -10.7471    192.8426    128.9034   8.3817120178e+01   1.7383058879e+01     0.236661    0.1990847  -1.91 0.0009060774    1.256    0.204
       116 -10.9654    168.4910    127.9714   8.8708962369e+01   2.2843790143e+01    0.4073816     0.148377 -41.02  0.001367997    2.748    0.636
       117 -11.2750    152.5404    127.3358   9.2177845018e+01   2.6400654211e+01    0.4648852    0.1475445 -45.09  0.001450042    3.184    0.686
       118 -11.8468     98.0112    125.3110   1.0553941771e+02   3.7416679519e+01    0.6284331    0.2022645 -58.79  0.001929951    3.699    0.730
       119 -10.7675     72.6810    128.3544   1.1305848699e+02   4.0614333658e+01    0.1446909    0.1003522  78.15 0.0007046417    1.750    0.428
       120 -11.2991    179.9364    122.7349   8.4957944594e+01   2.1343693663e+01    0.4315743    0.2206436 -27.33   0.00159758    2.420    0.587
       121 -11.1837    116.8924    123.4043   1.0008446411e+02   3.4461057649e+01      0.38588    0.1706179 -53.33  0.001436255    2.330    0.571
       122 -10.5078    188.4949    122.9477   8.3242685608e+01   1.9416517094e+01    0.2357928    0.1452008 -37.34 0.0009476725    1.593    0.372
       123 -11.3915     58.4102    122.6373   1.1599419510e+02   4.3823779734e+01    0.2720374    0.1190354 -77.36 0.0009592709    3.394    0.705
       124 -11.7736     42.6071    120.5436   1.2010009993e+02   4.6099043259e+01    0.6119926    0.2144088 -77.51  0.001910509    4.627    0.784
       125 -11.2358     28.6656    122.9922   1.2433004833e+02   4.6858756575e+01     0.210687   0.08675244  87.55 0.0007051561    4.362    0.771
       126 -10.6783    172.4674    119.9742   8.5864764689e+01   2.3525482115e+01    0.2408102    0.1485559 -38.84  0.001036756    1.608    0.378
       127 -10.9038    158.4025    119.3189   8.8841737480e+01   2.6762968134e+01     0.308253    0.1470174 -36.74  0.001142331    2.205    0.546
       128 -11.7272    140.9224    116.1504   9.2199352943e+01   3.1193994869e+01    0.6504653    0.2020746 -47.09   0.00197344    3.316    0.698
       129 -10.6011    185.7073    114.4823   8.1687287577e+01   2.1595272732e+01    0.2834794    0.1338925 -37.03   0.00107595    2.078    0.519
       130 -10.6589    193.0000    114.0359   8.0114007721e+01   2.0035937506e+01     0.255014   0.08373769 -36.87 0.0008052976    2.962    0.662
       131 -11.7253    108.5269    111.3299   9.9437681025e+01   3.8725667790e+01    0.6827229    0.2261522 -52.71  0.002180585    3.160    0.684
       132 -11.7447     91.8982    109.3111   1.0363044651e+02   4.2112149774e+01    0.7848028    0.2024979 -55.00  0.002247397    4.100    0.756
       133 -11.4921     78.2947    111.2280   1.0801931366e+02   4.3812922002e+01    0.5097458    0.2534231 -75.23  0.001713997    3.683    0.728
       134 -11.3145    121.7556    110.3775   9.5623586783e+01   3.6386415014e+01    0.4009826    0.1763227 -36.33  0.001368342    2.784    0.641
       135 -10.7296    159.0000    109.9915   8.6299987313e+01   2.8493447880e+01     0.263029   0.08709254 -40.52 0.0008094367    2.991    0.666
       136 -11.1644     13.7334    109.5232   1.2675703715e+02   5.1152489826e+01    0.2706101    0.1277234 -86.47  0.001304901    2.195    0.544
       137 -10.3544    182.7546    108.0043   8.0617751546e+01   2.3460857643e+01    0.2103841     0.127337 -36.73 0.0008912061    1.616    0.381
       138 -10.4438    189.0000    106.9674   7.9087511816e+01   2.2218040858e+01    0.2573338   0.08462856 -36.66 0.0008049894    2.960    0.662
       139 -10.9405    139.4170    101.8559   8.8801329703e+01   3.4490930326e+01    0.3840336    0.1441246 -34.32   0.00115225    3.390    0.705
       140 -11.2718    149.6261    100.6063   8.5962423434e+01   3.2474008961e+01     0.401677    0.1383085 -45.04  0.001260202    2.970    0.663
       141 -12.0485     44.0510    100.3526   1.1614528753e+02   5.0686701278e+01    0.4199511    0.2231178  80.05  0.001570209    3.807    0.737
       142 -10.7607    174.4819    109.9821   8.2867390614e+01   2.4983967711e+01    0.2442332    0.1495257 -37.10    0.0010394    1.612    0.380
       143 -10.2399    175.6681    100.6541   8.0132446961e+01   2.6460597736e+01    0.1631129    0.1206314   9.83 0.0007049844    1.762    0.432
       144 -11.1081    142.6359    129.9814   9.5156876535e+01   2.7924482324e+01    0.3553936    0.1423921 -45.29  0.001254574    2.504    0.601
       145 -12.4000    107.7147     96.0604   9.5681776363e+01   4.2246738672e+01    0.6453289    0.1945206 -50.30  0.001946878    3.483    0.713
       146 -11.4047     94.6710     94.4836   9.9056348128e+01   4.4978643789e+01    0.4998365    0.1572846 -44.82  0.001625914    3.057    0.673
       147 -11.6097    124.2896     87.5124   8.8636931731e+01   4.0695215581e+01    0.6317609       0.2574 -30.58  0.001867753    3.758    0.734
       148 -11.5846     62.7915     94.7015   1.0899357527e+02   4.9804645467e+01    0.3997444    0.1914943 -73.77  0.001377676    3.655    0.726
       149 -11.8436     21.7350    101.1051   1.2320019224e+02   5.2517011462e+01    0.5093139    0.2297104  84.98  0.001920771    3.906    0.744
       150 -11.7197    103.9281     81.1993   9.2488351080e+01   4.6125972320e+01    0.5134661    0.1813736 -49.21  0.001691281    2.992    0.666
       151 -11.2323     24.0000     80.0018   1.1873632877e+02   5.7185803938e+01    0.2147627   0.05879963 -64.16 0.0008054765    2.964    0.663
       152 -11.2801     34.4440     86.9896   1.1658826768e+02   5.4716597882e+01    0.6525992    0.1065349 -62.65  0.001859209    5.091    0.804
       153 -11.5292     81.8496     67.3051   9.5049461371e+01   5.2953622029e+01    0.4186827    0.1528668 -33.33  0.001244334    4.197    0.762
       154 -12.1122     62.8814     68.3955   1.0192212944e+02   5.5622378618e+01    0.5743887   0.05411611 -49.17  0.001281402    7.327    0.864
       155 -11.2964     50.4996     67.5001   1.0612865676e+02   5.7394493596e+01    0.2878743    0.1220659 -68.35 0.0008106881    5.800    0.828
       156 -10.7058    100.4395     54.7184   8.4772912472e+01   5.1920479380e+01    0.2055984    0.1330062 -25.22 0.0009485076    1.618    0.382
       157 -11.2413    224.0225     44.0000   5.6626200256e+01   2.3811251471e+01    0.2236117    0.0779614  65.61 0.0008078601    2.980    0.664
