#   1 NUMBER                 Running object number                                     
#   2 MAG_AUTO               Kron-like elliptical aperture magnitude                    [mag]
#   3 X_IMAGE                Object position along x                                    [pixel]
#   4 Y_IMAGE                Object position along y                                    [pixel]
#   5 X_WORLD                Barycenter position along world x axis                     [deg]
#   6 Y_WORLD                Barycenter position along world y axis                     [deg]
#   7 A_WORLD                Profile RMS along major axis (world units)                 [deg]
#   8 B_WORLD                Profile RMS along minor axis (world units)                 [deg]
#   9 THETA_WORLD            Position angle (CCW/world-x)                               [deg]
#  10 FWHM_WORLD             FWHM assuming a gaussian core                              [deg]
#  11 ELONGATION             A_IMAGE/B_IMAGE                                           
#  12 ELLIPTICITY            1 - B_IMAGE/A_IMAGE                                       
         1 -14.8086     66.1670     51.3956   9.7251406657e+01   5.8239545763e+01     2.919919     1.111956 -28.30    0.0105293    3.802    0.737
         2 -14.4484     87.5240     65.6762   9.4874734462e+01   5.2303236734e+01     1.467925    0.8088669 -20.20   0.00423266    2.605    0.616
         3 -15.6654      7.0610     69.8895   1.2541080702e+02   6.1180270211e+01      1.42487    0.7391778 -57.37  0.004711402    1.605    0.377
         4 -14.1864      8.6261     44.4819   1.1795489902e+02   6.5820233849e+01     1.191329    0.7978536 -59.33  0.007741247    1.771    0.435
         5 -13.8703     46.6901     27.7219   9.5801375657e+01   6.4476878892e+01     1.391016    0.4152015 -33.50   0.00583284    3.415    0.707
         6 -14.4997     26.8277     32.1549   1.0575274734e+02   6.6249618954e+01    0.9618172    0.7063128 -37.90  0.006650025    1.422    0.297
         7 -15.0862      8.5060     29.3738   1.1301036672e+02   6.8297375549e+01    0.9176673    0.6652395  28.98  0.006613533    1.751    0.429
         8 -14.9775     14.1678     19.9156   1.0676787308e+02   6.9211906508e+01    0.8237129    0.4913171  -8.00  0.002940924    1.516    0.340
         9 -14.8184     21.8733     13.4675   1.0049867101e+02   6.9294345132e+01    0.9589055    0.4332522  34.92  0.004429518    2.312    0.568
        10 -13.0388    119.4549     27.6754   7.3873701040e+01   5.1134101778e+01    0.8249041    0.5025812  36.60  0.004329247    1.678    0.404
        11 -15.2723    119.5536     54.6967   8.2320403102e+01   4.7630445879e+01     1.569783       0.8622  34.95  0.001930225    2.068    0.516
        12 -15.1334    122.2366     36.9964   7.6174232176e+01   4.9438384808e+01     1.548582    0.5456922  43.40   0.00544843    2.896    0.655
        13 -13.3767     55.8697     27.4746   9.2216360498e+01   6.3187377277e+01    0.4673114    0.3009768  40.34   0.00135169    1.560    0.359
        14 -14.7541    166.6371     30.3293   6.5944704693e+01   3.9990875935e+01     1.038854    0.7847608  61.46  0.003269679    1.190    0.160
        15 -14.8619    147.0276     30.4591   6.9226041496e+01   4.4569048502e+01     1.426816    0.6704541  63.29  0.004934561    1.896    0.472
        16 -15.2840    218.1605     16.9246   5.6634311007e+01   2.9769963446e+01     1.786165    0.9607458 -35.88  0.009439427    2.063    0.515
        17 -12.8275    231.4683      2.6986   5.2741619190e+01   2.8518725618e+01     0.560412    0.2566269  67.24  0.002649394    1.967    0.492
        18 -14.9141    212.7553     41.2022   6.2317883778e+01   2.7917982795e+01     2.048491    0.6841559  73.42  0.007312773    3.625    0.724
        19 -14.6469    191.2237     25.7977   6.1460730870e+01   3.4786010916e+01     1.943122    0.8609148 -49.73  0.007986581    2.307    0.567
        20 -15.1136     42.0409      6.9090   8.9021902213e+01   6.7506541531e+01     1.543158    0.8551714   5.97  0.008492511    1.990    0.498
        21 -13.8050    242.4346     35.9651   5.8122652449e+01   2.2228888472e+01    0.9647143      0.50112 -83.39  0.004185828    2.079    0.519
        22 -13.4608      9.0179      3.2737   1.0217657051e+02   7.1795662024e+01    0.6646187    0.3899815  34.86  0.003710857    2.143    0.533
        23 -15.7794     99.4928     12.7239   7.3525030688e+01   5.6861038312e+01     1.423357    0.6620725  53.41   0.00297884    1.764    0.433
        24 -12.1050     61.1212     17.4886   8.6408842593e+01   6.3517250077e+01    0.3272428    0.2356514 -43.37            0    1.949    0.487
        25 -11.4538    202.8953     11.2661   5.6935974308e+01   3.3769303845e+01    0.3203909    0.2077032 -73.62  0.001919223    1.417    0.294
        26 -11.6303    153.5598      8.2199   6.2106487109e+01   4.5338895140e+01     0.230232    0.1827796  68.09 0.0003611976    1.046    0.044
        27 -11.4409    125.8903      8.6836   6.6702981338e+01   5.1560464773e+01    0.1998267    0.1654908  21.69  0.001316526    1.362    0.266
        28 -12.1810    120.1647      3.6376   6.6211438648e+01   5.3233354726e+01     0.333697    0.2145784  86.52  0.001354838    1.899    0.473
        29 -11.3403    117.8018      1.3445   6.5936561941e+01   5.3923761440e+01    0.1762756    0.1274212  64.16 0.0002608181    1.180    0.153
        30 -11.6509     67.6563      3.7037   7.8766924559e+01   6.3710151759e+01    0.2549989    0.1699901  30.90  0.001676578    1.227    0.185
        31 -11.7855     26.5556      3.7759   9.4096200402e+01   6.9860539128e+01    0.2117525    0.1497569   9.33 0.0007064452    1.072    0.067
        32 -10.8552    250.4727      2.4847   5.1355747611e+01   2.4693783574e+01    0.1999208   0.06953844 -49.33  0.001035749    2.309    0.567
        33 -10.8060    192.8568      2.8630   5.6123538922e+01   3.6873151391e+01    0.1716073    0.1402327  76.06 0.0004057953    1.149    0.130
        34 -12.4569     80.5247      1.8985   7.4402338758e+01   6.1501705168e+01    0.5642034    0.1264215  51.97  0.002279545    3.142    0.682
        35 -10.9127     62.4846      1.5135   7.9487039694e+01   6.4784932486e+01    0.1852536    0.1356504  15.27  0.001291598    1.206    0.171
        36 -11.4646     59.4855      1.4956   8.0443391737e+01   6.5292959987e+01    0.2332565    0.1349109  38.17 0.0008561451    1.382    0.276
        37 -12.2521    198.6709    182.4277   9.6325518588e+01   4.8282024529e+00    0.2913411    0.2684946 -22.88  0.001366133    1.036    0.035
        38 -13.3031     54.9789    247.2002   1.3754249980e+02   1.5591580690e+01    0.8719002    0.5132288  26.12  0.004517711    2.432    0.589
        39 -14.0509     27.3237    245.1272   1.4256340805e+02   1.9476931780e+01     1.052576    0.6307249  89.17  0.006513506    1.428    0.300
        40 -13.2476      9.4604    210.9394   1.4349520068e+02   2.8749486098e+01    0.7981243    0.5524682  38.43  0.005198396    1.638    0.389
        41 -12.3073     24.6429    217.4418   1.4097905125e+02   2.5729811238e+01    0.6604899    0.3758253  76.59  0.003681752    1.603    0.376
        42 -13.5989     25.7099    227.5634   1.4157298881e+02   2.3379260868e+01    0.6836575     0.350377 -60.11  0.003709574    2.061    0.515
        43 -13.4662     20.4429    224.6593   1.4236962040e+02   2.4592934872e+01    0.4537985    0.3687572  89.44  0.001704028    1.143    0.125
        44 -11.9592      2.6532    249.6862   1.4716359214e+02   2.1240696410e+01     0.318373    0.1819981  55.17  0.002126167    1.424    0.298
        45 -14.1834      8.9343    245.5826   1.4586273994e+02   2.1415241138e+01    0.8195505    0.4263084  61.10  0.003238264    1.543    0.352
        46 -12.0995     48.9210    181.0679   1.3183148883e+02   3.1485248911e+01    0.5532942    0.2773639 -59.76  0.002585795    1.795    0.443
        47 -12.7465    131.2302    173.4401   1.0985314554e+02   2.0063458258e+01    0.5373124    0.4014152 -65.96  0.002520804    1.425    0.298
        48 -10.7216    101.0001    176.0301   1.1796174283e+02   2.4999745216e+01    0.2131885     0.199887  87.85            0    1.005    0.005
        49 -13.6100    124.0673    166.1695   1.1018655002e+02   2.3197384244e+01    0.8654819    0.5337009 -60.58  0.003490125    1.701    0.412
        50 -11.1488    177.3788    167.2390   9.7688313464e+01   1.2200287302e+01    0.2171391    0.1423339 -54.67 0.0006544474    1.610    0.379
        51 -11.9758    116.5890    162.8077   1.1142139368e+02   2.5441228562e+01    0.4405219    0.3169204   6.63  0.001856423    2.131    0.531
        52 -11.9976     25.9743    157.1060   1.3450347443e+02   3.9882617764e+01    0.4807155    0.3617626  52.86  0.002886984    1.435    0.303
        53 -12.8158    122.3808    154.9276   1.0827256572e+02   2.6255042199e+01    0.7629901    0.4141668 -48.08  0.003048531    1.820    0.451
        54 -12.4516     77.5672    157.1987   1.2073215247e+02   3.3525439695e+01    0.4782109    0.3453959  34.30  0.001322372    1.508    0.337
        55 -13.1090     74.0232    153.3369   1.2099763844e+02   3.5026429340e+01    0.6988595    0.5763164  20.35  0.002787596    1.441    0.306
        56 -12.9414    208.6615    154.6279   8.8462711725e+01   8.5508184395e+00     0.714106    0.5188457  47.94  0.003558419    1.484    0.326
        57 -11.5836    112.8019    157.0129   1.1122138085e+02   2.7574899126e+01    0.2999835    0.2166568  64.85  0.001346007    1.612    0.380
        58 -11.2549    109.5060    153.4969   1.1136258881e+02   2.9053589003e+01    0.3408321    0.2303003 -70.83  0.001476872    1.691    0.409
        59 -12.1644     85.8819    152.9740   1.1766656126e+02   3.3283796078e+01    0.5703259    0.3200131 -45.39  0.002413606    1.847    0.459
        60 -11.2919     55.8739    155.6961   1.2637060347e+02   3.6929037905e+01    0.2995686    0.1904135 -43.24 0.0009885585    1.718    0.418
        61 -11.6269    154.9967    157.5110   1.0070264139e+02   1.9012468545e+01    0.3988513    0.2737583  71.22  0.001638466    2.010    0.502
        62 -11.7482    146.0947    152.1042   1.0165053966e+02   2.2126213645e+01    0.3488477    0.2473025  -5.60  0.001376402    2.318    0.569
        63 -12.2020    103.4491    150.1620   1.1229385054e+02   3.0982704003e+01    0.4597278    0.3409288 -28.08  0.001854301    1.685    0.407
        64 -12.3449    244.2573    146.9490   8.0524961739e+01   3.3365197974e+00    0.4244031    0.2120529 -45.44  0.001932135    1.757    0.431
        65 -11.5737      6.3939    147.5489   1.3838882122e+02   4.3817252105e+01    0.3762605     0.254532  66.59  0.002250504    1.596    0.373
        66 -12.0416     63.0543    146.5256   1.2281305624e+02   3.8283647548e+01    0.2354186    0.1802946 -63.67 0.0009702432    1.178    0.151
        67 -10.7758     44.8696    145.1322   1.2768467541e+02   4.0881043770e+01    0.2128783    0.1451094 -39.31 0.0006336493    1.622    0.383
        68 -11.5324    140.2119    143.3891   1.0112585158e+02   2.5398192195e+01    0.2355784    0.1469588  53.83 0.0009593187    1.742    0.426
        69 -10.8849    162.8163    141.8124   9.5299267785e+01   2.0921671105e+01    0.3614969    0.1140245 -40.94  0.001023078    3.515    0.716
        70 -11.3691    149.2393    140.8143   9.8292028337e+01   2.4079781135e+01    0.3795207    0.2957472  79.97  0.001715587    1.593    0.372
        71 -12.4145     42.7112    139.4906   1.2736380480e+02   4.2513115803e+01    0.4002358    0.3033574 -55.69  0.001364719    1.172    0.147
        72 -12.2356     45.6562    133.7440   1.2551687532e+02   4.3596431121e+01    0.6989347    0.5998049  -8.42  0.004141062    1.393    0.282
        73 -11.6681     62.4735    134.3907   1.2069019748e+02   4.1370596175e+01     0.430715    0.3363014  64.56  0.002278668    1.481    0.325
        74 -12.8872    246.3264    133.1246   7.7354818095e+01   5.5148594815e+00    0.5925062    0.3520934 -49.29   0.00295855    1.502    0.334
        75 -14.5841    229.7940    129.4575   7.9213397698e+01   9.3330447650e+00     1.305456     1.008039  68.92   0.00701077    1.513    0.339
        76 -13.2466     98.4061     93.4520   9.9856101058e+01   4.5040128638e+01     1.052887    0.7301143  75.50  0.004476532    2.441    0.590
        77 -14.0004    121.5945    102.2632   9.5680930044e+01   3.8587051761e+01     1.083641     0.911169 -30.18  0.005519514    1.249    0.199
        78 -12.8272    135.8727    103.2718   9.2208539887e+01   3.5299927983e+01    0.8233686    0.3860933  49.18  0.002586417    2.153    0.535
        79 -14.4764    107.1117    123.7422   1.0527299684e+02   3.6693249677e+01     1.823704     1.378504  12.70  0.008405499    1.708    0.415
        80 -15.1983    106.0313    109.1366   1.0187859919e+02   4.0232454690e+01     2.426212     1.328538 -31.52  0.009284227    2.366    0.577
        81 -14.5273     90.1019    111.5166   1.0720099008e+02   4.2603596578e+01     1.998503      1.33934   3.81  0.008041405    2.293    0.564
        82 -11.5034    138.0895    132.5439   9.9098864894e+01   2.8368039395e+01    0.2896321    0.2220245 -29.35 0.0008191505    1.497    0.332
        83 -12.4458    132.8902    128.4819   9.9445198302e+01   3.0404419525e+01    0.9219954    0.3836287 -41.57  0.003110309    2.564    0.610
        84 -10.2582     11.4168    134.4707   1.3543638497e+02   4.6565718656e+01    0.1269599    0.1008166 -70.24 0.0001420433    1.018    0.018
        85 -11.6263     59.7385    125.9023   1.1979756930e+02   4.3800972238e+01    0.5295169    0.2925856 -24.38  0.002035427    3.025    0.669
        86 -12.3059      4.1375    119.9271   1.3551259556e+02   5.0463046097e+01    0.5086128    0.4038071  26.61  0.002449339    1.563    0.360
        87 -13.1901     62.1466    102.7691   1.1380992993e+02   4.8887117801e+01     1.298083    0.4990954 -56.67  0.004916807    2.593    0.614
        88 -14.2386     48.5658     96.0641   1.1669273369e+02   5.2078182918e+01     1.676871     1.223324  15.23  0.009428088    1.528    0.346
        89 -13.0539     28.1570    123.8820   1.2899621627e+02   4.7738826093e+01      2.36905    0.3728098 -49.44  0.006935177    4.864    0.794
        90 -14.8961     18.0516    110.6701   1.2982894778e+02   5.1659236245e+01     1.184959    0.9544754 -11.03  0.005985326    1.439    0.305
        91 -14.2909      2.5367     97.2350   1.3249204824e+02   5.5681774633e+01     1.173725    0.4657135 -69.02  0.003984952    2.225    0.551
        92 -15.6576     25.3434     94.6665   1.2432549765e+02   5.4690299564e+01     2.082272     1.330698 -11.08   0.01151876    1.880    0.468
        93 -10.9126    184.8241    124.0616   8.6285435148e+01   1.9910214356e+01    0.2765256    0.2124696  84.21 0.0007852642    1.595    0.373
        94 -11.9415    181.0137    120.9974   8.6340269499e+01   2.1398548244e+01    0.3491806    0.2592734  51.95 0.0009175398    1.385    0.278
        95 -10.2662    126.6397    124.6883   1.0014902543e+02   3.2584100149e+01     0.161488    0.1261156  -2.61 0.0007041948    1.746    0.427
        96 -11.5155     51.8573    117.0369   1.2038058932e+02   4.6903375647e+01    0.4909994    0.2275143 -72.01  0.001793434    3.110    0.678
        97 -10.6557    192.7707    117.1834   8.3070433784e+01   1.9546049293e+01    0.2632776    0.1618976 -78.66 0.0009550092    2.821    0.645
        98 -12.3929    176.8634    110.9272   8.4752175744e+01   2.4406723819e+01    0.4907771    0.4083566 -20.04  0.002125693    1.449    0.310
        99 -12.5297     45.3288    110.0143   1.2096410120e+02   4.9295995941e+01    0.5369927    0.3995825 -46.22  0.003044207    1.182    0.154
       100 -11.2408    222.5325    109.6748   7.6088258744e+01   1.4544406327e+01    0.2398818    0.1324041  56.07  0.001077157    1.965    0.491
       101 -13.1683    137.4332     96.0385   8.9863246708e+01   3.6428111522e+01    0.5214294    0.4097626 -46.96  0.001469696    1.287    0.223
       102 -13.6318    248.9436     96.0567   6.9367572180e+01   1.1641739123e+01    0.9748531    0.3208825 -42.27  0.003805382    2.609    0.617
       103 -11.2819    162.0396     97.1283   8.4414318476e+01   3.0580788049e+01    0.3166422    0.2572393  54.95  0.001587747    1.220    0.180
       104 -10.7298    188.8122     96.8340   7.8940844095e+01   2.4413618300e+01    0.2163231    0.1710614 -76.05  0.001080039    1.350    0.259
       105 -12.3311    127.8494     95.9442   9.2284698785e+01   3.8556836933e+01    0.4169068    0.2265352  56.51  0.001643661    2.110    0.526
       106 -10.8198     76.0138     95.6595   1.0745422343e+02   4.8427316242e+01    0.1894955    0.1726549  13.18 0.0003585872    1.122    0.109
       107 -13.6227    188.4170     84.4586   7.5990040857e+01   2.6768403154e+01     1.201737     0.449684  49.46  0.003575702    2.793    0.642
       108 -13.7403    214.1375     77.8857   7.0280993750e+01   2.2024790619e+01     1.104085    0.8109252  79.62  0.005943234    1.379    0.275
       109 -14.7438    197.9020     70.7426   7.1092114123e+01   2.6899396131e+01     2.353248    0.8659788  44.86  0.007634555    4.050    0.753
       110 -13.3945    163.9407     71.2651   7.7207157510e+01   3.4815521619e+01     1.086483    0.5297597  44.42  0.003931783    2.261    0.558
       111 -14.8079    160.9166     80.6726   8.0323114341e+01   3.3912308123e+01     1.963989    0.9168407  37.29  0.006713495    3.195    0.687
       112 -14.4663    170.1738     76.9350   7.7478410670e+01   3.2378666052e+01    0.9625652    0.7353912  42.04  0.004118834    1.442    0.306
       113 -11.8010     89.6461     87.4564   1.0082444731e+02   4.7857540331e+01    0.4610468    0.2460826  48.76  0.001959744    2.143    0.533
       114 -12.7382    131.9064     86.0624   8.8483294418e+01   3.9599987375e+01    0.6829611    0.4375327  64.77  0.002713071    1.900    0.474
       115 -11.4377    125.7008     86.7092   9.0260351138e+01   4.0839526544e+01    0.3576945    0.2744902  79.88  0.001695622    1.707    0.414
       116 -13.8929    238.4655     81.5658   6.7738125181e+01   1.6189920507e+01    0.9466175     0.542026  79.68  0.004511895    2.146    0.534
       117 -10.8634     98.1877     83.9663   9.7193179602e+01   4.6982372927e+01    0.2131181    0.1955719  88.00 0.0005774915    1.318    0.241
       118 -12.1644    100.4452     64.4017   9.0550806165e+01   5.0078426678e+01    0.5483288    0.4050383  38.46  0.002342147    1.291    0.225
       119 -13.4416    170.6140    242.3619   1.1314758063e+02  -1.7117565765e+00    0.7115922    0.4480508  20.89  0.003563707    1.786    0.440
       120 -14.4881     39.2748     67.7361   1.1245882895e+02   5.8927738180e+01     2.034993    0.5282441  28.93  0.007530727    4.050    0.753
       121 -13.3226     71.9656     75.0198   1.0288399321e+02   5.3233517553e+01    0.7621523    0.5119452 -26.86  0.003369189    1.533    0.348
       122 -12.9294     77.2052     73.4775   1.0065957984e+02   5.2685858195e+01    0.5603071    0.3523493 -29.19   0.00220579    1.662    0.398
       123 -11.8307     41.2905    250.1206   1.4036584696e+02   1.6767335215e+01    0.2178929     0.148808 -80.46  0.001398907    1.363    0.266
       124 -13.6455     56.5057     78.8331   1.0936384199e+02   5.4711546471e+01    0.6772614    0.3938521 -32.37   0.00194978    1.726    0.421
       125 -13.6074     60.7913     75.6451   1.0692533490e+02   5.4759142178e+01    0.5497353    0.4250311 -50.84  0.001069088    1.367    0.268
       126 -14.3921     94.7872    237.0526   1.2843588295e+02   1.1913237499e+01     1.101338    0.6690772  71.97  0.003164808    1.919    0.479
       127 -12.1320    147.0848    238.8716   1.1754760811e+02   2.8893967124e+00    0.2729662    0.2067131 -71.70  0.001071478    1.650    0.394
       128 -12.3522    144.8739    231.8454   1.1695095031e+02   4.6331424632e+00    0.3743877    0.1857235 -42.28  0.001616578    2.398    0.583
       129 -12.8463     85.3499    180.3646   1.2267165272e+02   2.6520941672e+01    0.5432665    0.3681615  87.76   0.00251982    1.730    0.422
       130 -11.0949    160.3242    230.3173   1.1338415396e+02   2.2545099483e+00    0.1387915    0.1053412   0.42 0.0007044087    1.670    0.401
       131 -12.6617     57.3559    202.2128   1.3245932741e+02   2.5281260129e+01    0.9552881    0.3285902 -70.35  0.003573322    2.940    0.660
       132 -13.4543     67.9669    222.7845   1.3248331937e+02   1.9053784757e+01    0.7288955    0.6822129  -1.51   0.00463387    1.504    0.335
       133 -13.2768    135.0355     79.5585   8.5863899341e+01   4.0101649169e+01    0.8796316    0.4133828  52.55  0.003160185    2.100    0.524
       134 -11.9739    113.8860     80.3028   9.1582662497e+01   4.4558487483e+01    0.4036665    0.3529693 -38.02  0.001509466    1.166    0.142
       135 -11.7648     90.7980     80.1204   9.8311505503e+01   4.9090509230e+01    0.3971093    0.3142234   6.81  0.002108012    1.399    0.285
       136 -12.3084     41.9299     77.3989   1.1420593630e+02   5.6750590654e+01    0.3690819     0.249348 -44.75  0.001056824    1.294    0.227
       137 -11.2545     23.1402     75.1860   1.2059732586e+02   5.8985752371e+01    0.1934859    0.1356325 -32.54 0.0006440125    1.233    0.189
       138 -12.9558    241.7699     71.6357   6.5281232406e+01   1.7128122211e+01    0.5635047     0.312409 -76.19  0.002609409    2.278    0.561
       139 -13.9574    131.6342     66.7809   8.2995597763e+01   4.3067694499e+01     1.319739    0.8513672  53.51   0.00635351    1.480    0.324
       140 -14.2762     62.8391    214.7060   1.3268470395e+02   2.1611484789e+01     1.124933    0.7090636  45.22  0.006031564    1.504    0.335
       141 -14.5493    101.5932     50.2074   8.5651245650e+01   5.2056555135e+01    0.8782992    0.6411974  62.63  0.001995407    1.621    0.383
       142 -11.6730     85.3331    215.9894   1.2785406751e+02   1.8008990565e+01    0.3495751    0.2042362  49.58  0.001703842    1.588    0.370
       143 -12.2139    185.4368    213.7163   1.0515891830e+02   1.0497373573e+00     0.265548    0.1368189 -50.26  0.001144467    2.150    0.535
       144 -11.2419    158.1234     63.9128   7.6383827825e+01   3.7385617397e+01    0.3508885    0.1888037 -49.33  0.001518969    2.026    0.506
       145 -13.9889    111.8929     40.4783   7.9747021300e+01   5.1247646577e+01    0.8605154    0.4797974  27.43  0.003172327    2.353    0.575
       146 -13.7054     79.5329     60.2822   9.5697093306e+01   5.4619457394e+01    0.8132567    0.5358059 -15.03  0.004121664    1.785    0.440
       147 -11.7529     85.8232     50.1544   9.0300436407e+01   5.5098683295e+01    0.3655663    0.2351743 -26.55  0.001479197    1.629    0.386
       148 -13.9962    178.0644     57.3600   7.1026539499e+01   3.3658863429e+01     0.842468    0.5964542 -61.03  0.002659158    1.474    0.322
       149 -12.8248     39.3040     60.4965   1.1026670153e+02   6.0267893870e+01     0.337611    0.2578428  31.82  0.002131927    1.496    0.332
       150 -12.6701     24.4645     59.9387   1.1595533674e+02   6.1831596090e+01    0.3252977    0.2020847 -39.46  0.001126281    1.321    0.243
       151 -13.4088    248.1999     51.8233   6.0628384277e+01   1.8836455132e+01    0.6018419    0.3937953 -45.71  0.003103553    1.424    0.298
       152 -12.2578    230.2365     55.2007   6.3250055859e+01   2.2083249740e+01     0.513302    0.2572348  70.82  0.002495421    2.009    0.502
       153 -10.8553     36.5372     53.4816   1.0913017105e+02   6.1810291489e+01    0.1229752   0.09978767 -17.98 5.670867e-05    1.004    0.004
       154 -11.2069    157.4147    213.2113   1.1113523105e+02   6.1805366611e+00    0.1977092    0.1393893 -64.14 0.0009513484    1.710    0.415
       155 -11.0137     23.1435     50.0250   1.1348702566e+02   6.3726482728e+01    0.1790227    0.1418492 -22.97 0.0005415874    1.013    0.013
       156 -13.5691    157.3128     44.4473   7.1243146498e+01   4.0415492810e+01    0.9575524     0.500293  41.12  0.004170194    2.291    0.563
       157 -12.8095    139.2664     21.4993   6.8066551679e+01   4.7338114072e+01    0.4707588    0.2539991  63.35 0.0005831504    1.601    0.375
       158 -11.5376    136.7683    211.4353   1.1547192029e+02   1.0305333701e+01    0.2619036    0.2044715 -57.92 0.0009613555    1.357    0.263
       159 -10.4994    163.5201    225.4861   1.1190104088e+02   2.6307021871e+00    0.1389467    0.1273279  26.11 6.759535e-05    1.026    0.026
       160 -12.2632     45.4549    208.5736   1.3581105224e+02   2.5320971339e+01    0.3954376    0.1991609 -83.75  0.001853258    2.021    0.505
       161 -11.0311     38.4176    210.6830   1.3753408220e+02   2.5689445810e+01    0.3222061   0.08230621  39.22  0.001241668    3.345    0.701
       162 -11.7122     80.1960    208.6037   1.2804986808e+02   2.0503826700e+01    0.3379899    0.2004686  62.15  0.001587755    1.781    0.439
       163 -10.7367    149.9372    206.5291   1.1163555471e+02   8.9587925228e+00    0.2283596    0.1385527  38.24  0.001026965    1.585    0.369
       164 -11.8030     25.6203     43.3756   1.1026738707e+02   6.4621258713e+01    0.2241129    0.1207963 -40.57 0.0006680743    1.601    0.375
       165 -10.8874    169.3349     42.9644   6.8785476936e+01   3.7767869696e+01      0.24065    0.1706723  75.59 0.0007495934    1.333    0.250
       166 -12.1517    202.1041     46.4020   6.4808413127e+01   2.9619031621e+01    0.4118797    0.2441527  82.18  0.002046766    1.735    0.424
       167 -13.2628     75.8935     37.4066   8.9007141555e+01   5.8659853297e+01    0.3551686    0.2490219  36.09 0.0008171274    1.291    0.226
       168 -12.6557     70.5211     36.5121   9.0460908738e+01   5.9695764454e+01     0.362043    0.2567699   0.63 0.0009194756    1.459    0.315
       169 -14.1995     97.6454    217.5308   1.2529595002e+02   1.5704318329e+01    0.7999467     0.657998  35.89  0.004522486    1.295    0.228
       170 -11.2667    213.2462    200.6435   9.7006712185e+01  -1.3119164732e+00    0.2622547    0.2239047  85.56  0.001443854    1.715    0.417
       171 -12.2116    245.8926     30.3998   5.6751260509e+01   2.2255102270e+01    0.3051143    0.2165563 -46.41 0.0005917703    1.414    0.293
       172 -12.7051    105.5232     34.9288   7.9545189985e+01   5.3280138469e+01    0.4914695    0.3064204 -17.53  0.002562959    1.913    0.477
       173 -11.1083     91.2368     34.4358   8.3257436060e+01   5.6211660206e+01    0.1731294    0.1163648  55.81 0.0006999292    1.580    0.367
       174 -11.5291     45.3886    198.0277   1.3469210196e+02   2.7811958804e+01    0.3924869    0.2130563 -74.64  0.001949238    1.668    0.400
       175 -11.0525     89.1422     30.1316   8.2346239690e+01   5.7131550240e+01    0.1910259    0.1477963  23.55  0.000270571    1.196    0.164
       176 -12.2049     97.6359     26.8098   7.8849059508e+01   5.5833801355e+01    0.3044818    0.2438237  68.03  0.001810253    1.467    0.318
       177 -11.4434     65.1911     24.5046   8.7761818359e+01   6.2071810734e+01    0.3144906    0.1903462   6.97  0.001712492    1.935    0.483
       178 -11.3806     74.8144     23.3812   8.4183789657e+01   6.0549169464e+01    0.3350267    0.1214384  45.74  0.001506091    2.392    0.582
       179 -11.3253     78.1809     20.7587   8.2163707238e+01   6.0225658515e+01    0.2011186     0.169026  27.34 0.0007437117    1.039    0.037
       180 -12.3342     41.7054    200.9880   1.3583910130e+02   2.7557124276e+01    0.2754786     0.190874 -84.22  0.001487522    1.258    0.205
       181 -12.2983     40.3118    194.9746   1.3550496909e+02   2.9150705669e+01    0.4922473    0.2870672 -83.90  0.001968755    1.601    0.375
       182 -12.1665    211.3956     33.4356   6.0792166376e+01   2.9250592623e+01    0.3038571    0.2003775 -78.20 0.0001892869    1.434    0.303
       183 -11.7054     70.7497     16.7284   8.2928636319e+01   6.1970223147e+01    0.2152935    0.1776072  21.15 0.0004605271    1.030    0.029
       184 -12.6787     16.7435    195.9650   1.4079649601e+02   3.1454009753e+01     1.016307    0.2343601 -67.39  0.003892389    3.217    0.689
       185 -13.4824     30.0528    169.3154   1.3498832177e+02   3.6496381520e+01    0.7717326    0.5896968 -50.23  0.001297943    1.406    0.289
       186 -13.2256     22.3619    181.1322   1.3813940437e+02   3.4405180035e+01     0.589646     0.377678 -69.91  0.002114327    1.313    0.239
       187 -14.6635      8.7133    183.3290   1.4142619737e+02   3.5147184786e+01     1.157871    0.9554592  80.74  0.007960907    1.111    0.100
       188 -14.5084     15.7919    175.7046   1.3910626019e+02   3.6322917691e+01     2.336175      1.12593  71.28   0.01026252    2.451    0.592
       189 -13.0759    164.4120    194.4556   1.0613175856e+02   8.8370882351e+00    0.7645928    0.4419984 -64.92   0.00301896    2.462    0.594
       190 -12.6511    201.1698    192.1503   9.7768097690e+01   2.4301821792e+00    0.4638822    0.3302085 -35.08  0.002089262    1.376    0.273
       191 -10.6501    107.5224    193.0179   1.1927089665e+02   1.9739041592e+01    0.2259955    0.1418864 -57.48  0.001028999    1.591    0.371
       192 -12.4609     98.5241    187.8189   1.2060848094e+02   2.2533679238e+01    0.6200241    0.3774656 -48.81  0.002800206    1.736    0.424
       193 -12.9328    194.9234    176.4999   9.5881086011e+01   6.7517620541e+00    0.5961173    0.3393182 -59.73  0.002379255    2.352    0.575
       194 -11.4062    123.0025    182.4951   1.1363010431e+02   1.9464193397e+01    0.3128827    0.1851682  85.17   0.00102922    3.447    0.710
