#   1 NUMBER                 Running object number                                     
#   2 MAG_AUTO               Kron-like elliptical aperture magnitude                    [mag]
#   3 X_IMAGE                Object position along x                                    [pixel]
#   4 Y_IMAGE                Object position along y                                    [pixel]
#   5 X_WORLD                Barycenter position along world x axis                     [deg]
#   6 Y_WORLD                Barycenter position along world y axis                     [deg]
#   7 A_WORLD                Profile RMS along major axis (world units)                 [deg]
#   8 B_WORLD                Profile RMS along minor axis (world units)                 [deg]
#   9 THETA_WORLD            Position angle (CCW/world-x)                               [deg]
#  10 FWHM_WORLD             FWHM assuming a gaussian core                              [deg]
#  11 ELONGATION             A_IMAGE/B_IMAGE                                           
#  12 ELLIPTICITY            1 - B_IMAGE/A_IMAGE                                       
         1 -13.6448    216.1315      7.2186   3.4433847279e+01   3.0862698236e+01    0.5025707     0.291874 -22.47  0.001638335    2.060    0.515
         2 -15.8214    195.6609     72.7760   5.3497612650e+01   2.7091055865e+01     4.171509     1.692561  37.77   0.01240292    4.550    0.780
         3 -18.7060    237.8237     32.7036   3.8255648636e+01   2.3269345183e+01     8.273586     5.815593 -29.77   0.03456778    1.503    0.335
         4 -12.4621    117.6376     26.0276   5.4370829080e+01   5.2355168721e+01    0.3255002    0.1651121 -25.44  0.001268607    2.106    0.525
         5 -13.1013    134.7182     16.1053   4.7264335280e+01   4.9378002991e+01    0.6658889    0.2623998 -17.18  0.002567579    3.255    0.693
         6 -11.2469    189.8299     14.6178   3.8823243036e+01   3.6184030222e+01    0.3635307     0.214551 -81.11  0.001799628    1.893    0.472
         7 -11.5601    181.3660      2.9284   3.6666817990e+01   3.9314387465e+01    0.4456607    0.2523097 -80.54  0.001366319    1.947    0.486
         8 -11.4252    119.1097      3.3186   4.5702616493e+01   5.4192848114e+01    0.2066974    0.1660074  18.10 0.0003970588    1.298    0.230
         9 -10.4486    105.3153      2.3253   4.8154206370e+01   5.7426903777e+01    0.1393523   0.08019117  33.82 0.0007043338    1.668    0.401
        10 -11.4552    182.4679    211.9979   8.8035924811e+01   3.9330880741e+00    0.2517214    0.1744522  46.76  0.000917063    1.600    0.375
        11 -12.3473    192.5527    194.5589   8.2771320579e+01   5.2633547698e+00    0.9849811    0.5360445 -64.55  0.002636475    7.658    0.869
        12 -14.1831     52.9556    157.8740   1.0999901793e+02   3.5978321823e+01    0.8020639    0.6501607  85.86   0.00259488    1.184    0.156
        13 -14.9611    221.0589     62.4395   4.7075841377e+01   2.2896137220e+01      1.22259    0.7497685  87.51  0.005695431    2.154    0.536
        14 -12.6531    191.0597    151.0192   7.3994050537e+01   1.3667308576e+01    0.7268999    0.3220787 -56.85  0.002012067    5.028    0.801
        15 -11.0091    250.5865    177.8191   6.8524941115e+01  -1.4412033418e+00    0.3163974    0.1081427 -37.87    0.0012889    2.612    0.617
        16 -11.5647    133.5174    145.1206   8.6090654679e+01   2.6406280749e+01     1.066565    0.2696795 -55.18  0.002121927    7.964    0.874
        17 -13.6982    189.1288    138.6565   7.1537554529e+01   1.6472727214e+01    0.6617754    0.4124574  38.04  0.002148455    1.679    0.404
        18 -13.0745    190.4254    131.2824   6.9505163574e+01   1.7646825289e+01    0.3912148    0.3659457  86.53 0.0009420206    1.277    0.217
        19 -12.0177    135.0980    122.0385   8.0146940683e+01   3.1314402826e+01    0.6879282    0.1986796 -48.33  0.001944229    3.593    0.722
        20 -14.3559    220.1340    128.0217   6.3035442720e+01   1.2196157789e+01     0.798107    0.6102222  62.30  0.004130084    1.656    0.396
        21 -14.5209    216.0227    116.8000   6.1112404504e+01   1.5024057661e+01    0.8402551    0.5983402 -26.01  0.004190757    1.384    0.278
        22 -14.4146    207.5584    112.1104   6.1486537919e+01   1.7634428550e+01    0.8637665    0.7030134  89.52  0.004396545    1.620    0.383
        23 -12.6437    160.0839    117.2185   7.2668760266e+01   2.7020109130e+01     1.021263    0.5389732 -66.48  0.002596502    5.651    0.823
        24 -12.4252    160.4661    128.4129   7.5430798486e+01   2.4589017109e+01    0.4473954     0.300328 -46.36  0.001572434    1.488    0.328
        25 -12.4220    167.6183    113.8941   7.0061662176e+01   2.6040250046e+01    0.4731102    0.3665435 -39.40  0.001063162    1.250    0.200
        26 -12.2371    134.7215    108.2116   7.6595134063e+01   3.4428943488e+01     1.148323    0.2523488 -44.09  0.002908367    4.448    0.775
        27 -14.0701    168.6935     73.6824   5.8710809405e+01   3.3331910696e+01     1.029617    0.5800657 -27.88  0.002222023    1.948    0.487
        28 -12.9104    210.8887    134.9512   6.6338472563e+01   1.2772591176e+01    0.4511641    0.3065851  75.15  0.001897736    2.645    0.622
        29 -12.0989    112.1407    105.1289   8.2027327277e+01   3.9716426909e+01    0.5097405    0.2182746 -51.66  0.001772521    2.493    0.599
        30 -12.3654    126.3403    104.2249   7.7755051008e+01   3.7054715272e+01     0.481872    0.3235071  71.81  0.001877707    2.445    0.591
        31 -12.6645    210.3660    123.8964   6.3827807802e+01   1.4904019814e+01    0.3953328     0.247394 -24.04  0.001767235    1.730    0.422
        32 -12.9051    157.0217     97.1880   6.7971496300e+01   3.1763863361e+01    0.7630423    0.6068636  30.46  0.003080408    1.349    0.259
        33 -11.2861    146.7004    102.1119   7.1835543613e+01   3.3103799918e+01    0.3053908    0.2611678 -16.44 0.0005885849    1.231    0.188
        34 -11.1866    133.3089     97.7933   7.4054157512e+01   3.6939333596e+01    0.2830363    0.2680039 -61.63  0.000723985    1.144    0.126
        35 -10.3809    140.8451    105.4129   7.4230924566e+01   3.3706870995e+01    0.2176301    0.1472903  31.62 0.0004917927    1.635    0.388
        36 -11.7458    140.1099     91.8646   7.0568905211e+01   3.6647827915e+01    0.3333893    0.3151853 -88.09  0.001025869    1.191    0.161
        37 -11.8642    201.1837     88.5426   5.6683210799e+01   2.3200192189e+01    0.4170359    0.3132779  74.29  0.002063328    1.584    0.369
        38 -12.7875    153.9660     86.9506   6.5762203698e+01   3.4437094266e+01    0.3396611    0.2813148 -26.30 0.0007791619    1.227    0.185
        39 -12.4266    245.4367    164.6136   6.6699851703e+01   1.4308881326e+00     0.446601    0.2426558  28.31  0.002147075    2.125    0.529
        40 -11.6886    246.3013    173.9964   6.8480162791e+01  -1.9216859667e-01    0.2922775    0.1717891  20.30  0.001271929    1.969    0.492
        41 -11.7697    153.1866     77.2048   6.3071049884e+01   3.6405571558e+01     0.621353    0.2259737  45.55  0.002066213    2.810    0.644
        42 -10.6524    159.0379     75.7022   6.1324323003e+01   3.5286310934e+01    0.2549277    0.2136981 -31.88 0.0004309853    1.193    0.162
        43 -12.1360    184.0539     65.8981   5.3616520942e+01   3.0925389522e+01    0.7888281    0.2930878 -49.13  0.002564368    3.358    0.702
        44 -13.7123    240.4535    171.8789   6.9055919277e+01   1.0683614757e+00    0.6956074    0.3974511 -27.95   0.00291038    1.579    0.367
        45 -10.3810    210.0004    170.2431   7.4352853241e+01   6.5209603839e+00    0.1919438    0.1700003   7.23 0.0002896494    1.068    0.064
        46 -10.0324    168.9904     39.9546   4.8779366817e+01   3.8310962234e+01     0.164598    0.1575634  77.06 0.0003720901    1.007    0.007
        47 -12.8290    149.5137     35.1234   5.0756059078e+01   4.3688566943e+01    0.4171292    0.2858155  -3.82  0.002021823    1.861    0.463
        48 -11.3797    159.9836     29.4276   4.7123362069e+01   4.1811883067e+01    0.3227579    0.1994893 -28.54  0.001117249    1.725    0.420
        49 -12.9675    144.5340     27.3929   4.9197106650e+01   4.5818235287e+01    0.4611557    0.3557877  -4.19  0.001514429    1.501    0.334
        50 -13.6014     69.0062    145.1220   1.0366752434e+02   3.7126201213e+01     1.355134     1.162031 -19.66  0.006536095    1.384    0.277
        51 -12.3517      1.8739    196.4198   1.2536214767e+02   3.1975128276e+01    0.3749084    0.1322313 -78.56  0.001856985    2.334    0.572
        52 -11.7913    153.5064     26.1395   4.7196440695e+01   4.3772302506e+01    0.3363871    0.1779405  53.67  0.001554486    1.708    0.415
        53 -12.1673    125.1235     25.2542   5.2389765220e+01   5.0702907189e+01    0.2661851    0.1541993 -38.08  0.001271232    1.897    0.473
        54 -10.3394    159.5317     21.9013   4.4906692042e+01   4.2760891213e+01    0.1840995    0.1346658 -26.39 0.0004993128    1.491    0.329
        55 -11.4767    202.5423    191.5151   8.0153110390e+01   4.0914043864e+00    0.2984579    0.1277317  37.96  0.001240846    2.274    0.560
        56 -13.6003     58.8770    153.6866   1.0782560847e+02   3.6301785541e+01    0.6824701    0.4337896 -83.28  0.001648201    1.685    0.407
        57 -12.5838    208.3104    186.3922   7.7995436686e+01   3.9923429627e+00    0.4092471    0.3305039  82.51  0.002078845    2.293    0.564
        58 -10.4019    176.9798     14.7360   4.0381401933e+01   3.9252140824e+01     0.177078    0.1514612  77.14 0.0004077227    1.056    0.053
        59 -10.1840    144.0097     15.0238   4.5262452620e+01   4.7241844099e+01    0.1581692    0.1501096 -10.21 0.0009928475    1.164    0.141
        60 -13.6520     45.1614    162.4439   1.1261019542e+02   3.5739715566e+01    0.4797375    0.3960539 -16.92  0.001553184    1.611    0.379
        61 -14.9820     15.9674    179.1360   1.2124421997e+02   3.4623006983e+01    0.8674561    0.6887521  88.30  0.003726275    1.012    0.012
        62 -10.4051    201.9856    248.0134   9.0067294916e+01  -4.5363648878e+00    0.1811808    0.1432891  16.66 0.0003500879    1.036    0.034
