#   1 NUMBER                 Running object number                                     
#   2 MAG_AUTO               Kron-like elliptical aperture magnitude                    [mag]
#   3 X_IMAGE                Object position along x                                    [pixel]
#   4 Y_IMAGE                Object position along y                                    [pixel]
#   5 X_WORLD                Barycenter position along world x axis                     [deg]
#   6 Y_WORLD                Barycenter position along world y axis                     [deg]
#   7 A_WORLD                Profile RMS along major axis (world units)                 [deg]
#   8 B_WORLD                Profile RMS along minor axis (world units)                 [deg]
#   9 THETA_WORLD            Position angle (CCW/world-x)                               [deg]
#  10 FWHM_WORLD             FWHM assuming a gaussian core                              [deg]
#  11 ELONGATION             A_IMAGE/B_IMAGE                                           
#  12 ELLIPTICITY            1 - B_IMAGE/A_IMAGE                                       
         1 -16.1249    208.1090     65.1316   7.5504306854e+01   2.4576411567e+01     10.63249     6.172013 -88.45    0.0414053    2.713    0.631
         2 -17.6221    246.9432     27.7285   6.1630804379e+01   2.0653178054e+01     6.307367     3.556209 -23.98   0.01745603    2.004    0.501
         3 -14.4928    242.0103     18.8953   6.0035834623e+01   2.2787299704e+01    0.4850794    0.3985289 -53.69  0.001525244    1.080    0.074
         4 -10.1558     92.3063     16.4980   8.2748469409e+01   5.9021684485e+01    0.6710326    0.2023259 -25.12  0.002421712    3.504    0.715
         5  -8.1041     79.3253      7.8678   8.2706460563e+01   6.2556324018e+01    0.1738449    0.1074455  -7.55 0.0004103836    1.680    0.405
         6  -8.1302    195.3481      5.2854   6.0950241906e+01   3.5272562802e+01    0.3127013    0.1839407  80.80  0.001334407    1.607    0.378
         7  -8.9918    181.4837      5.7956   6.2579900256e+01   3.8674339762e+01    0.4219599    0.2147601  65.75  0.001993304    1.741    0.426
         8  -9.1441    165.3563      4.2212   6.4060179034e+01   4.2870485539e+01    0.3364464     0.207741  -1.39  0.001635294    2.144    0.534
         9  -9.2917    158.5822      3.2689   6.4652107562e+01   4.4655224839e+01    0.3241154    0.2253408  25.75  0.001150448    1.709    0.415
        10  -8.7350    118.8931    150.0324   1.1615268210e+02   2.8101871057e+01     0.210618    0.2062166  68.01 0.0004416798    1.058    0.054
        11  -8.3124    250.3739    175.2986   9.4490207342e+01  -1.6997623793e+00    0.1360504   0.08764597   7.72 0.0007027939    1.747    0.428
        12  -8.6453    242.6380    174.1908   9.5556053265e+01  -2.5024084441e-01    0.2227873    0.1850846  20.28  0.001384786    1.147    0.128
        13  -9.3920     43.9689    172.5362   1.3749662748e+02   3.4189717769e+01    0.1752076    0.1160478  39.65  0.001033143    1.599    0.375
        14 -10.2034    230.5208    167.1498   9.6201819410e+01   2.9304739329e+00    0.3033723    0.2320784 -63.72  0.001586759    2.044    0.511
        15 -11.9395     68.2574    144.4681   1.2792245975e+02   3.7606391025e+01     1.161522    0.8425634  56.38  0.004377041    1.415    0.293
        16 -11.2429     50.7343    161.7294   1.3470680480e+02   3.5836891498e+01    0.4619287    0.3227625 -47.00 0.0009521188    1.711    0.416
        17 -12.1662     58.0953    156.9422   1.3232342399e+02   3.6033100814e+01    0.8651923    0.6838831 -72.40  0.003418153    1.140    0.123
        18 -11.5092     64.3908    152.7674   1.3018488298e+02   3.6186452805e+01    0.6385517    0.4176414  87.25  0.001682015    1.657    0.396
        19 -11.0143    215.9489    181.9931   1.0183422771e+02   3.2359082289e+00    0.5716162    0.3152536  39.71  0.002794728    1.734    0.423
        20  -9.2659    235.1656    161.0188   9.4112367906e+01   3.0440782313e+00    0.2134249    0.1493978 -53.92 0.0007345768    1.941    0.485
        21  -8.6012    155.1579    159.4981   1.0961739318e+02   1.9037832378e+01    0.2294153     0.200773 -85.24 0.0006010325    1.322    0.243
        22  -8.5785     26.8243    230.6482   1.4546417211e+02   2.4250405102e+01    0.1641857    0.1194361 -81.03  0.001235482    1.364    0.267
        23  -8.4537    116.4459    134.9846   1.1362099615e+02   3.1943152144e+01    0.2071574    0.1910474  51.04 0.0001943211    1.099    0.090
        24 -10.2088    177.0083    119.3389   9.5571964875e+01   2.2426812712e+01    0.4186654    0.2511814  46.41  0.001339674    1.688    0.408
        25 -10.2689    175.1568    114.8711   9.4827164831e+01   2.3716771753e+01    0.3658904    0.3040591 -73.31  0.001075074    1.435    0.303
        26 -10.2675    156.9397    113.2341   9.8424370406e+01   2.8189672820e+01    0.5526316    0.3157229 -64.21    0.0019206    2.840    0.648
        27 -11.1534    168.0059    113.9756   9.6136205250e+01   2.5526521116e+01     0.561732    0.4851674 -84.86 0.0008542129    1.362    0.266
        28 -10.4355    132.9251     98.8346   1.0034568541e+02   3.6514227505e+01    0.7456178    0.3015984 -50.46  0.002390783    2.777    0.640
        29  -9.5314    127.3586    112.5607   1.0546541258e+02   3.4777638386e+01    0.3216702    0.2476134 -72.64  0.001150769    1.570    0.363
        30  -9.3535    145.7348    102.3391   9.8144050115e+01   3.2944628514e+01    0.3128271    0.2612949  31.65 0.0006649293    1.282    0.220
        31  -9.1006    123.5969    103.1747   1.0396386342e+02   3.7589048819e+01    0.2251385    0.2036997  29.04   0.00109989    1.168    0.144
        32  -9.0980    120.3332    102.8583   1.0474566716e+02   3.8331798773e+01    0.3111124    0.1352101 -52.11   0.00108697    2.494    0.599
        33 -11.0782    154.3745     97.0795   9.4651407318e+01   3.2016392673e+01    0.9985809    0.4645035  42.04  0.003627625    2.329    0.571
        34 -11.0918    160.4193     87.4127   9.0547815675e+01   3.2442623943e+01    0.7930012    0.3488429 -38.20   0.00265798    2.236    0.553
        35 -11.7198    168.4102     88.6018   8.9168561909e+01   3.0303732337e+01     1.094564    0.6343477 -23.81  0.003180564    2.151    0.535
        36  -8.2859    147.1145    157.9451   1.1110552812e+02   2.0958536615e+01    0.2181058    0.1946004  83.75 0.0004231739    1.231    0.188
        37 -10.0951    164.0061     85.0057   8.9077144756e+01   3.2025919491e+01    0.4580722    0.2892238 -49.76  0.001545478    1.681    0.405
        38  -9.6030    138.9069     92.6863   9.7097549163e+01   3.6439911521e+01    0.3842655     0.309871 -81.13 0.0008076308    1.565    0.361
        39  -9.9155    134.8336    108.3558   1.0245782051e+02   3.4099544893e+01    0.7312595    0.1949847 -41.34  0.002014753    3.919    0.745
        40 -10.6933    151.8256     87.5941   9.2533565922e+01   3.4450596109e+01    0.3554048      0.27527 -33.66 0.0005819817    1.299    0.230
        41  -9.9573    172.1109    205.2751   1.1454402251e+02   7.3292467384e+00    0.2069657     0.195761  30.63 0.0002248057    1.087    0.080
        42  -8.7696    217.0582    149.3495   9.4799753631e+01   8.3700997124e+00     0.284407    0.1207058  39.40   0.00109657    2.522    0.603
        43  -8.3760    149.0036     75.2951   8.9517069502e+01   3.7402207858e+01    0.2106964    0.1893267  54.71            0    1.124    0.111
        44  -9.8732    180.1134    148.6557   1.0188428630e+02   1.6057859273e+01    0.4118134    0.1714846  38.48  0.001464468    2.630    0.620
        45  -8.6246    133.7549    147.1980   1.1198004154e+02   2.5886013991e+01    0.3588202    0.1234183 -47.27  0.001195851    2.933    0.659
        46  -8.4563    208.6955    145.3077   9.5447514081e+01   1.0746274237e+01    0.1381359    0.1156842 -74.37 0.0003269881    1.606    0.377
        47  -9.3116    191.6211    192.5466   1.0847193247e+02   5.9400673802e+00    0.5617114    0.3188737 -67.15  0.001772116    5.818    0.828
        48  -9.6698    184.0967    142.2732   9.9610776601e+01   1.6438433051e+01    0.2671387    0.2118302 -44.15 0.0002358423    1.282    0.220
        49 -11.0578    186.8468    137.9583   9.8046360710e+01   1.6671199975e+01    0.4540467    0.3559724  59.82  0.001200463    1.435    0.303
        50  -9.8949    135.9804    130.1871   1.0764093878e+02   2.9145827133e+01    0.4862839    0.1959414 -42.61   0.00169073    2.571    0.611
        51  -9.4470    160.4593     29.4275   7.2694207467e+01   4.1481068327e+01    0.2575487    0.2294614  68.83 0.0005298759    1.069    0.065
        52  -8.6578    162.7614     26.0218   7.1234046840e+01   4.1300160828e+01    0.3300966     0.208804 -23.72  0.001587002    1.717    0.418
        53  -9.9983    112.6683     29.8336   8.2726211137e+01   5.3015912319e+01    0.2485803    0.1717224  41.62 0.0006589181    1.369    0.269
        54  -8.3183     57.4758     28.9749   9.9891662408e+01   6.3696615260e+01    0.1966809    0.1124971 -35.10  0.001036424    1.606    0.377
        55  -9.6720    134.6198    121.1604   1.0579799749e+02   3.1392390880e+01    0.3829991    0.3229935  55.03    0.0019382    1.223    0.182
        56  -8.9442    171.0757     22.8612   6.8975529931e+01   3.9550013040e+01     0.277652    0.1875019 -35.69 0.0006807709    1.519    0.342
        57  -7.6573     97.9774    132.0047   1.1778731383e+02   3.5956677480e+01     0.171122    0.1598068 -73.61  0.000433457    1.007    0.007
        58  -9.8296    159.0714     23.3654   7.0985509783e+01   4.2538020292e+01    0.7356505    0.2871748  48.20  0.001586079    2.531    0.605
        59 -11.5146      5.3000    173.2787   1.4587616908e+02   3.7810969857e+01    0.5359452    0.3265034  49.34  0.003554302    1.582    0.368
        60  -8.4337    166.8307     13.2664   6.6642075182e+01   4.1645050018e+01    0.2582853    0.1763011  65.15  0.001347695    1.332    0.249
        61 -11.8279      5.9468    189.9736   1.4682329286e+02   3.4252840615e+01    0.8968798    0.3741681  50.71  0.005159954    2.062    0.515
        62 -10.1406    213.2646    188.0046   1.0349945200e+02   2.7780919407e+00    0.4485355    0.2082274  42.28  0.001541751    2.055    0.513
        63 -12.9488     24.2133    177.5075   1.4225665792e+02   3.5192729098e+01    0.8376743    0.6770452  80.21  0.003917836    1.064    0.060
        64 -10.8270    221.1118    176.7523   9.9846096965e+01   3.1284735119e+00    0.5103925    0.4484324  88.59  0.002973575    1.721    0.419
        65 -10.9304    160.3038    128.1016   1.0140339314e+02   2.4399077759e+01    0.4852542    0.4053693 -59.79  0.002429851    1.290    0.225
        66 -11.3923    223.9688    171.7080   9.8306127849e+01   3.4031163955e+00    0.9866456    0.4125601  52.52  0.003749193    3.249    0.692
