#   1 NUMBER                 Running object number                                     
#   2 MAG_AUTO               Kron-like elliptical aperture magnitude                    [mag]
#   3 X_IMAGE                Object position along x                                    [pixel]
#   4 Y_IMAGE                Object position along y                                    [pixel]
#   5 X_WORLD                Barycenter position along world x axis                     [deg]
#   6 Y_WORLD                Barycenter position along world y axis                     [deg]
#   7 A_WORLD                Profile RMS along major axis (world units)                 [deg]
#   8 B_WORLD                Profile RMS along minor axis (world units)                 [deg]
#   9 THETA_WORLD            Position angle (CCW/world-x)                               [deg]
#  10 FWHM_WORLD             FWHM assuming a gaussian core                              [deg]
#  11 ELONGATION             A_IMAGE/B_IMAGE                                           
#  12 ELLIPTICITY            1 - B_IMAGE/A_IMAGE                                       
         1 -12.1115      7.4449     49.6702   1.0988320571e+02   6.4949717147e+01     1.489801    0.5294176 -57.85  0.007344662    2.006    0.501
         2 -11.1089     40.9786     34.3195   9.0141261949e+01   6.5178239200e+01    0.5108861    0.2069362 -47.82  0.002154723    2.308    0.567
         3 -12.0458      1.9694     24.6144   1.0510776090e+02   7.0203972233e+01      0.39635     0.146079 -58.68  0.001348497    2.344    0.573
         4 -12.2076      5.7908     16.2407   9.9999431833e+01   7.1497533702e+01    0.3947972     0.261474 -47.89  0.001419205    1.320    0.242
         5 -12.4265    116.9413     22.3035   5.9078760203e+01   5.3314896343e+01    0.2984768    0.2504038  -9.78 0.0004671146    1.218    0.179
         6 -11.7183    166.3764     17.8987   4.8029374389e+01   4.1643696027e+01    0.3486189    0.2467135  46.35 0.0003501103    1.425    0.298
         7 -10.9208    163.0417     14.9760   4.7612278478e+01   4.2803016780e+01    0.2382061    0.1986741  84.73            0    1.178    0.151
         8 -10.9417     70.2674     11.9115   6.8278932635e+01   6.4172670424e+01    0.3014074    0.1869646  42.93 0.0009500094    1.563    0.360
         9 -10.5322     73.7805      8.2231   6.5314161619e+01   6.3946419349e+01    0.2556189    0.1476333  36.06 0.0009310858    1.578    0.366
        10 -11.0421     64.7966     15.8810   7.2155333541e+01   6.4634956523e+01    0.5286388    0.2571456  32.11  0.002542623    2.102    0.524
        11 -10.0550     63.0211     12.0657   7.1006325423e+01   6.5413078780e+01    0.1849556    0.1485168   6.77  0.001181471    1.042    0.040
        12 -10.9204    116.7025     15.1302   5.6340838815e+01   5.4170689280e+01    0.3104763    0.2190123  40.70 0.0006711975    1.303    0.233
        13 -11.3251    133.1411     12.9846   5.2055057521e+01   5.0476053205e+01    0.2890819    0.2383765 -11.53 0.0003533286    1.306    0.234
        14 -11.6716    173.3823     13.2128   4.5584421884e+01   4.0361893822e+01    0.3149682    0.2399643 -37.95  0.001269826    1.366    0.268
        15 -11.1013    175.9892     10.7218   4.4491630536e+01   3.9956681499e+01    0.2483163    0.2296982 -79.27 0.0007175151    1.058    0.055
        16 -11.5147    139.8964     13.2220   5.0869662914e+01   4.8794256428e+01    0.5401207     0.233579  40.94  0.002138037    2.506    0.601
        17 -10.3502     88.3241     13.6249   6.3180982792e+01   6.0524440359e+01    0.3275025    0.1667805  49.79 0.0003316555    1.844    0.458
        18 -11.0323    148.1993     12.3976   4.9131409578e+01   4.6811051913e+01     0.490144    0.1934757  53.73  0.001988046    2.188    0.543
        19 -10.4698    209.5694     13.6996   4.1444641797e+01   3.1270207372e+01    0.2369798    0.1994031  82.23 0.0006450476    1.110    0.099
        20  -9.9995     51.5049     12.5356   7.5837343370e+01   6.7182771695e+01    0.2537139    0.1074509 -32.12  0.001214555    2.177    0.541
        21  -9.7044     32.6794     12.5214   8.4372479018e+01   6.9687681438e+01    0.1708717    0.1306347 -44.37 0.0006479997    1.641    0.391
        22 -10.3707    219.2287     11.5124   3.9946666106e+01   2.9187862097e+01    0.2401132     0.208672 -73.05 0.0004040928    1.011    0.011
        23 -10.0470     97.6359     10.7648   5.9291902239e+01   5.8885825924e+01    0.3006941    0.1927023 -40.56   0.00119447    1.853    0.460
        24 -10.9673     14.5866     10.2562   9.2610161535e+01   7.1848805721e+01    0.3915676    0.1779376 -32.26  0.001218597    1.820    0.451
        25  -9.7488     43.8357     11.1464   7.8476469543e+01   6.8467347608e+01    0.2186022    0.1293294   8.42 0.0007524105    1.880    0.468
        26 -10.2252     49.4929      7.4634   7.4142723724e+01   6.8130937092e+01    0.4744105    0.1977284  26.50  0.002046987    3.007    0.667
        27 -11.0981    164.9992      8.5034   4.5293359102e+01   4.2958367282e+01    0.3137507     0.211688 -46.99  0.001634195    1.572    0.364
        28 -10.6381    211.9910      8.9096   3.9977495272e+01   3.1202352080e+01    0.2650146    0.1792122  67.02 0.0009829529    1.418    0.295
        29 -10.0982    185.3471      8.8845   4.2799944228e+01   3.7781723920e+01    0.1768844    0.1686752 -59.34 0.0004563796    1.113    0.102
        30 -10.9461    111.6144      6.2259   5.3961182780e+01   5.6218554268e+01    0.5957782    0.2324789 -37.83  0.002421513    2.932    0.659
        31 -10.9071    108.0230      7.4776   5.5297323817e+01   5.6919470126e+01     0.611839    0.2464941 -29.36  0.002629992    2.533    0.605
        32 -11.1908    104.1803      7.6234   5.6281850363e+01   5.7766134858e+01    0.4093251    0.2269744  25.32  0.001616315    2.028    0.507
        33  -9.6280     79.0707      9.2350   6.4055430076e+01   6.2834342248e+01    0.1888155    0.1548798 -82.26  0.001077096    2.033    0.508
        34  -9.8330      5.1133      8.7019   9.7164258482e+01   7.2818445203e+01    0.1778716     0.126357 -45.40 0.0009199638    1.358    0.264
        35  -9.4621    202.5363      8.4949   4.0805503645e+01   3.3547410677e+01    0.1346438    0.1163103 -77.65 9.163678e-05    1.036    0.035
        36  -9.8984    194.6288      8.2121   4.1562997978e+01   3.5530145094e+01    0.1682418    0.1302821 -12.12 0.0003693727    1.573    0.364
        37 -10.4722    120.0764      7.4099   5.2594301301e+01   5.4144168312e+01    0.2471932    0.1926362 -29.59  0.000746927    1.399    0.285
        38 -11.1779     87.5133      6.3424   6.0160387481e+01   6.1450978282e+01    0.2773929    0.2262115  63.07 0.0005093764    1.450    0.310
        39  -9.4406    138.6571      7.1144   4.8937446854e+01   4.9686848862e+01    0.1773611     0.124474   2.24 0.0003367747    1.678    0.404
        40 -10.1008     62.0481      6.5575   6.8667141819e+01   6.6223888989e+01    0.2542882    0.2325591 -52.31  0.001701876    1.639    0.390
        41  -9.9119     18.5015      2.4730   8.6574539773e+01   7.2662423408e+01     0.182557    0.1378512 -41.24 0.0008158264    1.602    0.376
        42 -10.2355     24.6119      6.8181   8.5575208810e+01   7.1415267430e+01    0.2107312    0.1894377 -19.35 0.0009295224    1.430    0.301
        43 -10.1468     20.4968      6.0620   8.7360171417e+01   7.1947770369e+01    0.2511939    0.1402473 -30.68 0.0008340936    1.440    0.306
        44 -11.2547    131.0475      1.8540   4.8387928527e+01   5.2006052886e+01    0.3347042    0.2696566  84.60  0.001680476    1.336    0.251
        45 -11.3518    208.3493      3.9839   3.9067618543e+01   3.2592078328e+01     0.488493    0.2723397 -56.10  0.002450929    1.756    0.430
        46 -11.1195     38.2265      3.7075   7.7199851172e+01   7.0197223608e+01    0.3510254    0.2742901 -29.24  0.001631344    1.407    0.289
        47 -10.7806    142.1911      4.2629   4.7343840014e+01   4.9069426798e+01    0.3005123    0.1894804  -7.24  0.001506958    1.892    0.472
        48 -11.4918    195.2958      3.4409   4.0198914891e+01   3.5840105791e+01    0.5224913    0.2108575  65.32  0.002260171    2.169    0.539
        49 -10.2109    184.7817      4.2142   4.1540456353e+01   3.8382100519e+01    0.1793944     0.144345  47.58 0.0003679817    1.331    0.249
        50 -11.4457    160.4347      2.7879   4.4128811134e+01   4.4638731301e+01    0.3566506    0.2941567  70.01 0.0008959799    1.088    0.080
        51  -9.9147    248.9830      2.9913   3.5584189598e+01   2.3345635277e+01    0.1748371    0.1431745  41.61 0.0004738962    1.683    0.406
        52 -10.0471    218.1864      2.1462   3.7736612429e+01   3.0424038676e+01     0.225672     0.191415 -76.45 0.0008649711    1.004    0.004
        53 -11.3218    115.8044      1.9772   5.1360132549e+01   5.5621437930e+01    0.2899011    0.1775353  58.74 0.0003474254    1.460    0.315
        54 -11.1336     74.0530      2.0137   6.2237343124e+01   6.4527466593e+01    0.2949828    0.1899959  40.54 0.0009870363    1.376    0.273
        55 -10.4784     49.7567      2.2391   7.1310298214e+01   6.8706587742e+01    0.2066365     0.154598  18.22 0.0003005048    1.149    0.130
        56 -10.7318     88.8694      1.6654   5.7660740233e+01   6.1606491741e+01    0.4096827     0.130744  52.31  0.001679099    2.592    0.614
        57 -10.0955     30.9410      3.2374   8.0467798397e+01   7.1187691611e+01    0.1772189    0.1437843 -33.23 0.0005695879    1.503    0.335
        58  -9.7655    148.0696      1.4475   4.5462880505e+01   4.7851646066e+01     0.204675     0.118811  66.50 0.0003371609    1.530    0.346
        59  -9.9078     81.7217      2.0649   5.9886083695e+01   6.3027844345e+01    0.2242674    0.1519822  37.05  0.001047818    1.281    0.219
        60  -9.1580     10.9187      1.2323   9.0192171502e+01   7.3539775697e+01    0.1198004    0.0811295  14.39 0.0003316789    1.494    0.331
        61 -10.8120    180.0174      1.8342   4.1400667540e+01   3.9798499950e+01    0.3257186     0.177302  73.02  0.001576281    1.662    0.398
        62  -9.6168     47.4257    218.0731   1.2157441283e+02   2.3351572176e+01    0.1742132     0.144958  45.45 0.0005649409    1.382    0.276
        63 -11.7893    187.0928    250.3836   9.8838676388e+01  -2.7374285493e+00    0.2055132    0.1269227  36.90 0.0005527849    1.288    0.224
        64  -9.1753    157.6019    250.2686   1.0418531952e+02   1.8128187001e+00    0.1215144    0.0773737  56.84 0.0006379837    1.733    0.423
        65 -11.3976    127.5121    247.8934   1.0942966784e+02   6.7998585554e+00     0.314895    0.2764068 -78.83  0.001604519    1.350    0.259
        66 -10.8658    115.8787    249.3442   1.1171091458e+02   8.3172381532e+00    0.2818538     0.210379  65.97   0.00167951    1.285    0.222
        67 -10.3563    111.9121    246.3951   1.1213251332e+02   9.3846800249e+00    0.1892995    0.1677479 -89.41 0.0003421051    1.265    0.210
        68 -10.2949     38.9131    248.9834   1.2510249847e+02   1.8618836546e+01    0.2042791     0.146504 -79.54   0.00150533    1.461    0.316
        69 -10.0464     30.9219    250.3506   1.2647524790e+02   1.9281026603e+01    0.1601249   0.09593818  63.37  0.001153322    1.203    0.169
        70  -9.7222     16.1097    250.5063   1.2882586638e+02   2.0832901815e+01     0.149579   0.09450209  61.43 0.0006376745    1.125    0.111
        71 -10.7695     10.9566    250.3426   1.2961609719e+02   2.1383677105e+01    0.2474206    0.1311312  35.96 0.0007004339    2.100    0.524
        72  -9.7566     39.0833    218.0479   1.2312135301e+02   2.4329103110e+01    0.1545465    0.1326526 -82.74 0.0004690077    1.333    0.250
        73 -11.2725     90.3220    216.0266   1.1306148217e+02   1.8044129913e+01    0.4091709    0.2400455  57.64 0.0008880286    1.549    0.355
        74 -10.4672     72.6840    215.5012   1.1650450549e+02   2.0638475683e+01    0.3295538    0.1888732 -86.51  0.001215444    1.855    0.461
        75 -10.6760     58.3505    215.7500   1.1931437321e+02   2.2469106758e+01    0.1951589     0.162107  69.51 0.0003436957    1.102    0.093
        76  -8.7046     68.2956    215.3169   1.1734713408e+02   2.1264872387e+01    0.1040787   0.09439103 -40.99 0.0003506874    1.607    0.378
        77  -9.2037    144.3133    214.6388   1.0195095565e+02   9.6956471011e+00    0.1334321   0.09545452  70.76  0.000704186    1.753    0.429
        78 -10.3232    111.8616    213.3473   1.0839152037e+02   1.5275338994e+01    0.2156431    0.1826641 -57.83 0.0003199133    1.356    0.263
        79 -11.2836      8.4741    210.1190   1.2817811113e+02   2.9062557262e+01    0.3072479     0.160637 -73.23  0.001972313    1.728    0.421
        80 -10.4388     29.0722    212.7131   1.2460443940e+02   2.6491064634e+01    0.1531963    0.1187474  70.15 0.0004047934    1.088    0.081
        81  -9.4733      1.6440    212.4794   1.2948890463e+02   2.9220546604e+01    0.1821212   0.07825252 -82.34  0.001009012    1.891    0.471
        82  -8.5603    164.9911    213.0000   9.7532428439e+01   6.4447282483e+00    0.2178346   0.06635912  40.70 0.0007915921    2.868    0.651
        83 -11.1233    126.3961    210.4263   1.0502028041e+02   1.3474619903e+01    0.3714273    0.2831917 -11.80  0.000753469    2.070    0.517
        84  -9.8277    117.9596    211.6927   1.0692908596e+02   1.4615566954e+01    0.1893936    0.1476404  49.11 0.0005561785    1.117    0.105
        85  -8.7751     52.6435    212.7319   1.2015958625e+02   2.3783904236e+01   0.09920605   0.09340647 -31.13 0.0006992409    1.636    0.389
        86  -9.8721    144.5452    208.7150   1.0102770543e+02   1.0725381761e+01     0.313504    0.1882843 -76.64  0.001227569    2.920    0.658
        87  -9.5764     47.0655    210.4770   1.2105099222e+02   2.4912823801e+01    0.1656159    0.0994803  45.38  0.000371435    1.519    0.342
        88  -9.8467     39.1803    209.7575   1.2250526735e+02   2.5973721278e+01    0.2171999    0.1719503 -27.14  0.001384792    2.317    0.568
        89  -8.8404    177.7482    209.3523   9.4395743190e+01   4.8486086379e+00    0.1205694    0.1029683  81.03 0.0002828228    1.597    0.374
        90  -9.7961    155.7622    209.2404   9.8808422590e+01   8.6922659456e+00    0.1726422     0.147432  10.74 0.0004479415    1.303    0.232
        91 -11.2096     66.3243    207.3639   1.1698392450e+02   2.3131950696e+01     0.404338    0.2234272  45.17  0.001652989    1.611    0.379
        92 -10.9282     22.8088    208.3818   1.2548273213e+02   2.8013801623e+01    0.2649655    0.1429763  34.91   0.00161129    2.041    0.510
        93 -10.7426     18.2503    207.8634   1.2628996976e+02   2.8575844851e+01      0.26678    0.1687424  67.84 0.0009487213    1.231    0.187
        94  -9.3169    196.2840    208.3177   9.0586214578e+01   1.8194512126e+00    0.1308819   0.09333323   5.42 0.0001810111    1.585    0.369
        95  -9.5012     60.2232    209.0152   1.1835597572e+02   2.3587488983e+01    0.1529673   0.08885074 -74.43 0.0005549999    1.648    0.393
        96  -9.9706     57.7755    204.7060   1.1845023637e+02   2.4784637523e+01    0.3746802   0.09174881 -61.26  0.001460988    3.729    0.732
        97  -9.4958     40.0426    204.9400   1.2197356388e+02   2.6861016655e+01    0.1607861     0.133683 -54.93  0.001113193    1.618    0.382
        98 -10.1586    142.1765    203.2256   1.0068334629e+02   1.2153536405e+01    0.2113623    0.1918419  41.56 0.0002783065    1.046    0.044
        99 -10.2800     35.4320    203.3423   1.2274654564e+02   2.7706233172e+01    0.2348787    0.1609929 -82.36  0.000816741    1.277    0.217
       100 -11.0208     32.9235    199.0692   1.2291491650e+02   2.8868750116e+01    0.3096511    0.2136265  55.90  0.001055686    1.278    0.217
       101  -9.3067     11.4251    203.7128   1.2730016007e+02   3.0070171328e+01    0.1439699   0.08329612 -73.52 0.0006233289    1.570    0.363
       102  -9.5115      1.4032    204.2923   1.2914205587e+02   3.0858110426e+01    0.1470547   0.07595773  84.26 0.0004135373    1.504    0.335
       103 -10.7673    121.5911    200.0107   1.0455917167e+02   1.6299492626e+01    0.3387214    0.2393521 -76.09  0.001046043    1.651    0.394
       104  -9.5828     87.5343    200.4779   1.1186882211e+02   2.1590440206e+01    0.1280862    0.1110484  70.13 7.566276e-05    1.037    0.036
       105 -10.7777      5.9548    199.9737   1.2809744732e+02   3.1328594018e+01    0.1633843    0.1172647  79.95 0.0003495216    1.015    0.015
       106 -10.4693     62.3663    198.3065   1.1690096138e+02   2.5539319842e+01    0.1933648    0.1657756  63.05 0.0002677588    1.144    0.126
       107 -10.5149     39.4806    198.0992   1.2154126815e+02   2.8351463039e+01     0.307335    0.1553845  66.29  0.001549302    1.861    0.463
       108 -10.5731     12.6865    197.4828   1.2670344237e+02   3.1227359270e+01    0.2765227    0.1563126 -64.72  0.001598779    1.809    0.447
       109  -9.7526    110.0386    197.5198   1.0668419425e+02   1.8711136080e+01     0.262394    0.1684628  57.64  0.001266999    1.519    0.342
       110  -9.6337    108.3631    194.1949   1.0658354988e+02   1.9670715922e+01    0.2351864    0.1282293 -74.10  0.000593387    2.343    0.573
       111  -9.1978     24.9999    196.9870   1.2431197854e+02   3.0133714894e+01    0.1404709    0.1046431  80.90 0.0003639549    1.023    0.023
       112 -10.4577     82.7436    195.2066   1.1226094353e+02   2.3401204431e+01    0.2135607     0.182473  89.12 0.0002892762    1.094    0.086
       113 -10.4221     95.5350    194.5531   1.0942016842e+02   2.1626659409e+01    0.2186814    0.2015058  59.80  0.001397024    1.134    0.118
       114  -8.8598      1.7265    195.2568   1.2862592967e+02   3.2660727688e+01    0.1089567   0.05951029  67.90            0    1.460    0.315
       115  -9.9042     63.5040    193.6334   1.1618527725e+02   2.6390102443e+01    0.2381151    0.1951456 -26.99 0.0006574583    1.930    0.482
       116  -9.2807     44.7024    194.0188   1.2013968834e+02   2.8623197354e+01    0.1616956    0.1249956  87.19 0.0002161046    1.078    0.072
       117  -9.9830      6.0737    193.5549   1.2772138877e+02   3.2637130829e+01    0.2556488    0.1174908  74.40  0.001278319    1.879    0.468
       118  -9.5838    100.0747    192.4556   1.0815273134e+02   2.1362823151e+01     0.193787    0.1608154 -74.49 0.0002924978    1.212    0.175
       119 -11.0536     58.8392    190.7081   1.1687132663e+02   2.7623423054e+01    0.3283778    0.1858153 -71.00 0.0008910101    1.644    0.392
       120  -8.9786     52.3009    193.3360   1.1850701640e+02   2.7867168739e+01     0.113128   0.09088866 -48.36 0.0007035409    1.660    0.397
       121  -9.6806     38.0138    192.1893   1.2135042492e+02   2.9772847302e+01    0.1607424    0.1404146 -83.41 0.0004512859    1.249    0.199
       122 -11.4199     91.1490    188.6749   1.0960949840e+02   2.3555572400e+01    0.3406673    0.2510796  74.28 0.0008750491    1.338    0.253
       123  -9.4820     86.1762    186.5068   1.1042771551e+02   2.4775618703e+01     0.188212    0.1209748  43.47 0.0008962846    1.484    0.326
       124 -10.6508     97.0173    200.1609   1.0982100509e+02   2.0226868311e+01    0.3978446    0.1385804  43.32  0.001624844    2.509    0.601
       125 -10.8237    105.4411    185.8981   1.0604020806e+02   2.1903402312e+01    0.2882411     0.230534 -78.86 0.0004518213    1.266    0.210
       126  -8.9319     46.4759    186.4933   1.1908144626e+02   3.0049331572e+01    0.1234634    0.1008778  83.26 0.0008098583    1.038    0.037
       127  -9.7270     44.3965    183.8104   1.1926970365e+02   3.0880375708e+01    0.1713855   0.09690662 -63.99 0.0007311049    1.685    0.407
       128 -10.3291     15.9463    182.7082   1.2510854278e+02   3.4050675928e+01    0.2511775    0.1418253 -75.59   0.00103956    1.478    0.323
       129 -10.1010     54.9881    180.6102   1.1664514117e+02   3.0334160519e+01    0.2940609    0.1666943  71.66  0.001505817    1.834    0.455
       130 -10.7181     30.7362    179.8389   1.2182123327e+02   3.3242287064e+01    0.2897679    0.1374464  60.14  0.001495915    2.027    0.507
       131 -10.9316     32.4778    175.8534   1.2109984999e+02   3.3949554251e+01    0.2338689    0.1734675 -79.55 0.0003721643    1.164    0.141
       132  -9.1953    120.8234    178.8533   1.0146083921e+02   2.0821327161e+01    0.1850141    0.1526008  74.69 0.0002581444    1.254    0.203
       133  -9.5350     92.0613    177.4701   1.0785768694e+02   2.5884176730e+01    0.2068649    0.1683659 -73.88  0.000622102    1.188    0.158
       134 -10.4868     46.8093    177.3361   1.1810704973e+02   3.2046891496e+01    0.3008923      0.15637  55.54   0.00141932    1.844    0.458
       135  -9.4319      3.2818    177.8621   1.2733936726e+02   3.6189246655e+01    0.2015951   0.07409014  67.69 0.0009367628    2.754    0.637
       136 -10.1940     17.4550    175.4467   1.2426921854e+02   3.5498243356e+01     0.203251    0.1524572  89.55 0.0006489549    1.046    0.044
       137 -11.7326     78.9176    174.0355   1.1041975333e+02   2.8626749481e+01    0.2605282    0.2182404  76.85 0.0003430536    1.071    0.067
       138 -10.5060     76.5250    170.5634   1.1050486282e+02   2.9764539135e+01    0.2293795    0.1968342  83.28 8.816984e-05    1.025    0.024
       139  -9.4608     44.5149    169.4576   1.1779902784e+02   3.4099950643e+01    0.1767598     0.135503 -54.76 0.0001010567    1.479    0.324
       140 -10.6656     46.6667    166.2886   1.1695882118e+02   3.4585653331e+01    0.5477562    0.1942682  32.18  0.002315021    3.108    0.678
       141  -9.2517    199.1721    175.1928   8.3793572082e+01   6.8141296786e+00    0.1733885    0.1672636  78.51 0.0002635831    1.282    0.220
       142  -9.9338      4.3084    167.9714   1.2649235739e+02   3.8260322699e+01    0.3635589    0.1458429  67.88  0.001130835    2.521    0.603
       143  -8.9155     61.3774    166.2355   1.1350662900e+02   3.2815666092e+01    0.1175152    0.1016618 -24.94 0.0006913834    1.620    0.383
       144  -9.1277    185.7545    164.9761   8.4424663123e+01   1.1278775925e+01    0.1807193    0.1221162 -39.11 0.0002344559    1.503    0.335
       145 -10.0671     24.6407    162.7596   1.2164740696e+02   3.7685119370e+01    0.1823967    0.1559351  56.19  0.000296483    1.279    0.218
       146  -9.4989     75.2680    161.9525   1.0958855777e+02   3.1945078460e+01    0.1942902    0.1615297 -80.18 0.0006088631    1.087    0.080
       147  -9.6716    139.9009    160.8029   9.3753308917e+01   2.1219782615e+01    0.2118847    0.1950842  18.59 0.0003993974    1.177    0.150
       148 -10.8517     30.1399    154.2955   1.1954301884e+02   3.9118820624e+01    0.3606774    0.2159909  44.47  0.001708838    1.725    0.420
       149 -10.1087    114.0107    158.1388   9.9450803516e+01   2.6632893765e+01    0.2091758    0.1972234  71.95 0.0002822824    1.024    0.024
       150 -11.5643     36.8769    158.9873   1.1844587475e+02   3.7349429444e+01     0.602428    0.2350193  50.33  0.002241752    2.622    0.619
       151  -9.3199     66.0102    158.1959   1.1131638357e+02   3.4099456257e+01    0.1711834    0.1034277  37.01 0.0005702692    1.768    0.434
       152  -9.4945     45.8811    151.6068   1.1540985620e+02   3.8119013344e+01    0.1691349    0.1456755  79.37 0.0003857946    1.093    0.085
       153 -11.8978      5.5735    147.7411   1.2470953864e+02   4.2706376731e+01    0.3328243    0.1972702  85.74 0.0001836322    1.410    0.291
       154 -10.4896      2.1891    139.9819   1.2486400701e+02   4.4718282843e+01    0.2299831    0.1497567  60.27 0.0006736323    1.528    0.346
       155  -9.9630     29.1253    147.3464   1.1904283654e+02   4.0845789750e+01    0.2163864     0.125383  13.46  0.001072741    2.697    0.629
       156  -9.8618     24.0447    144.4454   1.1997883507e+02   4.1990891397e+01    0.2266329    0.1187398  29.36  0.001209427    2.264    0.558
       157 -11.2705     13.4621    143.6600   1.2248321779e+02   4.3052942260e+01    0.3714085    0.2375972  73.22  0.002258269    1.468    0.319
       158 -10.4000     17.1596    140.6324   1.2128238835e+02   4.3466280743e+01    0.2017626    0.1911515  45.08  0.000764658    1.347    0.257
       159 -10.4599    236.1442    137.1430   6.8623103394e+01   6.2824431485e+00    0.2160831    0.1820616  -4.58 0.0006582419    1.169    0.145
       160  -9.8222     49.8802    136.3307   1.1229344958e+02   4.1339542545e+01    0.2468359    0.1816843 -37.31 0.0008425516    1.671    0.402
       161 -10.4000     33.7117    136.6449   1.1661395919e+02   4.2955307664e+01    0.2825829    0.1705282  53.22  0.001540092    1.768    0.434
       162 -10.0495     42.2094    133.0052   1.1386758400e+02   4.2980870302e+01     0.290657    0.1738343 -35.52  0.001414843    2.301    0.565
       163  -9.7953     43.3323    129.3449   1.1302698794e+02   4.3749470862e+01    0.2747101    0.1420468 -47.67  0.001293907    2.014    0.504
       164 -10.2306      7.6619    133.6433   1.2295674982e+02   4.5809802990e+01    0.1837601    0.1133509 -51.32 0.0008630987    1.689    0.408
       165 -12.2133     28.3119    131.8399   1.1742713724e+02   4.4604953234e+01    0.3004705    0.2505792  73.83  0.001972963    1.197    0.165
       166 -10.4025     33.9481    129.0830   1.1555303637e+02   4.4749331370e+01    0.2493512    0.1894066 -54.79 0.0008278663    1.289    0.224
       167  -8.8649     76.2626    132.6945   1.0451302444e+02   3.8826658704e+01    0.1399517    0.1032819  83.09 0.0002913047    1.524    0.344
       168  -8.6785     61.7224    131.2738   1.0826604600e+02   4.1146387599e+01    0.1335136   0.09761263  77.69 0.0001912883    1.493    0.330
       169 -10.9167     19.3481    130.6489   1.1964648557e+02   4.5643963613e+01    0.3554424    0.1764099  67.65  0.001511062    2.412    0.585
       170  -9.9598     12.8464    131.0953   1.2138381779e+02   4.6035530479e+01    0.1756432    0.1303536  89.06  0.001138461    1.144    0.126
       171 -10.5108      3.2228    130.6636   1.2378999415e+02   4.6798229954e+01    0.1677215    0.1173951 -87.38 0.0006848798    1.134    0.118
       172 -10.0514     38.9268    126.5316   1.1382496393e+02   4.4881948303e+01    0.1945356    0.1430242 -73.25 0.0001653155    1.137    0.121
       173  -9.2942     91.5710    126.4970   9.9043051294e+01   3.7972737453e+01    0.1469799    0.1347983 -57.66  7.02883e-05    1.056    0.053
       174 -10.0010     30.0948    125.3328   1.1609385417e+02   4.6005878422e+01    0.2086339    0.1397341 -63.36 0.0002531706    1.250    0.200
       175  -9.0225     83.5062    124.5005   1.0088533495e+02   3.9737189048e+01    0.1460542    0.1316656 -49.85 8.896324e-06    1.115    0.103
       176  -9.7827      2.7205    123.1811   1.2320183225e+02   4.8565605711e+01    0.2134024    0.1410884  72.42  0.001015422    1.490    0.329
       177 -10.1791      6.7756    122.7638   1.2209153197e+02   4.8407536591e+01    0.2930992    0.1324566  69.82   0.00135099    2.761    0.638
       178 -10.4669    237.3024    121.0171   6.4715161949e+01   8.7717680111e+00    0.2127191    0.1754828 -30.35  0.001173171    1.083    0.077
       179 -11.0714     10.3759    117.3026   1.2051196354e+02   4.9452247259e+01    0.2669479    0.2415086  23.72  0.001935669    1.440    0.306
       180 -11.1322     14.7834    113.6237   1.1882642831e+02   5.0019620088e+01    0.3546821    0.2839863  70.54  0.002366685    1.320    0.242
       181 -11.1473     19.5281    110.0205   1.1697025070e+02   5.0532147595e+01     0.402772    0.2129842 -44.73  0.001833744    1.948    0.487
       182 -10.9604     22.0016    120.7128   1.1771496173e+02   4.7795934662e+01    0.2907919    0.1842573 -44.19 0.0002992505    1.714    0.417
       183 -11.5573     19.9736    117.7583   1.1789530199e+02   4.8658262760e+01    0.5676396    0.2017068  18.67  0.002372843    4.005    0.750
       184  -9.0533    123.3604    120.7625   8.9055217924e+01   3.3532645985e+01    0.1533691    0.1187317  73.58 0.0003456694    1.589    0.371
       185  -9.5522     93.2872    118.9725   9.6911936813e+01   3.9498017758e+01    0.2091311    0.1798581 -51.48 0.0004648129    1.102    0.093
       186 -10.6361     55.0948    117.7990   1.0776631144e+02   4.5245784904e+01    0.2269597    0.2126914 -39.49 0.0004117058    1.196    0.164
       187  -9.9676    239.2975    117.3408   6.3532502663e+01   8.9891309247e+00    0.1445203    0.1064351  -0.43 0.0006589081    1.663    0.399
       188 -10.6685      3.5788    116.2761   1.2226015842e+02   5.0120735410e+01    0.2975505    0.1941707  16.37  0.001871487    2.066    0.516
       189  -9.2307    108.5548    114.5564   9.1557254314e+01   3.7838916762e+01    0.1510639    0.1435807 -56.51 0.0001379879    1.003    0.003
       190 -11.1924     61.2891    113.1787   1.0504313873e+02   4.5610816151e+01    0.3169667    0.2069003 -48.83  0.000323057    1.429    0.300
       191  -9.4438     34.0126    114.4981   1.1339117745e+02   4.8259490062e+01    0.1692686   0.09260685  57.26 0.0003685326    2.276    0.561
       192 -11.1200      3.6055    109.7179   1.2152306390e+02   5.1647343837e+01    0.5050519    0.1586706 -78.57  0.002066236    2.866    0.651
       193 -10.4005     31.8326    111.1418   1.1350221589e+02   4.9263645430e+01    0.1875866    0.1506482 -88.51 0.0002484533    1.203    0.169
       194  -9.3761     93.2133    108.7906   9.4535268063e+01   4.1934590231e+01    0.2016918    0.1654863 -32.90 0.0005473326    1.294    0.227
       195 -10.2144     37.4150    106.5221   1.1103855401e+02   4.9861311263e+01      0.35197    0.1721767 -64.61  0.001410512    1.686    0.407
       196  -9.5355      8.1954    106.8440   1.1985824541e+02   5.2047001830e+01    0.1841769    0.1332618 -88.81 0.0008651014    1.252    0.202
       197 -10.2321     29.3236    103.6472   1.1303532394e+02   5.1274709503e+01    0.3110698    0.1430407 -67.43 0.0006781219    1.792    0.442
       198  -8.7408     62.6736    104.7207   1.0285073542e+02   4.7475882939e+01    0.1386446    0.1005644 -30.51 0.0004064553    1.594    0.373
       199 -10.5931     47.6587    104.1376   1.0741677734e+02   4.9394664436e+01    0.3837106    0.1491839 -59.57  0.001357556    2.101    0.524
       200 -11.8046     41.9512     98.8689   1.0818020377e+02   5.1250189853e+01    0.3569722    0.2624117  45.08 0.0003409747    1.589    0.371
       201 -10.0622    174.9318    102.9490   7.1861328449e+01   2.5946893935e+01    0.2243516    0.2165143 -25.22            0    1.026    0.025
       202  -8.9266    100.3714    103.2735   9.1036851956e+01   4.1969850995e+01    0.1514704    0.1178717  -7.94 0.0007002324    1.680    0.405
       203 -10.3653      8.9997     99.2642   1.1861350070e+02   5.3770690366e+01    0.2624245    0.1815363  83.04 0.0007077359    1.488    0.328
       204 -10.5326      3.9018     97.9737   1.1999176211e+02   5.4360919397e+01    0.2913498    0.2043638 -71.79 0.0008879862    1.089    0.082
       205  -8.8387    110.4744     99.4900   8.7093983101e+01   4.0937152025e+01     0.153576    0.1445989 -33.17  8.25444e-05    1.047    0.045
       206  -9.0404    103.4351     96.5588   8.8332502209e+01   4.2941450368e+01    0.1505159    0.1414253 -41.25 0.0001361006    1.010    0.010
       207  -9.0668     51.6808     94.2605   1.0404622997e+02   5.1301820788e+01    0.1274286    0.1007395  75.69 0.0001341759    1.546    0.353
       208  -9.1847     23.0786     95.5497   1.1362647797e+02   5.3692528135e+01    0.1534116    0.1260151  26.22 0.0003421133    1.504    0.335
       209 -10.2892     46.7242     94.0507   1.0562878353e+02   5.1898888328e+01    0.2789271    0.1938659  33.52 0.0006589697    1.667    0.400
       210 -10.4392     30.4788     93.4729   1.1085176118e+02   5.3589490024e+01    0.3186679    0.1737245  54.95  0.001529336    2.525    0.604
       211 -10.1072      1.6721     92.8839   1.2000092013e+02   5.5652529293e+01    0.2158009    0.1324985 -86.41 0.0007356161    1.505    0.336
       212 -10.8642    105.4888     90.8071   8.6103511816e+01   4.3835782152e+01    0.2975122    0.2492818  34.16  0.001063842    1.265    0.210
       213  -9.0960     17.4602     91.4575   1.1474716445e+02   5.5053874250e+01     0.125923   0.09884425 -63.66 0.0003918872    1.005    0.005
       214 -10.4738      7.1554     89.5919   1.1779149446e+02   5.6121416820e+01    0.2596393    0.1792987 -69.86 0.0006054963    1.129    0.114
       215  -9.4020     88.0270     88.6913   9.0832943237e+01   4.7457775365e+01    0.1962246    0.1882315  -6.50  0.000436557    1.089    0.082
       216 -10.7653     21.2562     87.6694   1.1282625873e+02   5.5669946354e+01    0.2134469    0.1716599 -61.99 0.0002546923    1.015    0.015
       217 -10.9933     27.2641     87.4181   1.1075507199e+02   5.5271684605e+01    0.3951678    0.2176484 -49.15   0.00113057    1.531    0.347
       218 -10.4931     30.8518     84.1681   1.0886792739e+02   5.5730379343e+01    0.2379629    0.1807787 -31.66 0.0006105882    1.377    0.274
       219  -9.6743     43.7815     88.3598   1.0535466680e+02   5.3543640980e+01    0.1854488    0.1478558 -63.40 0.0006573047    1.124    0.110
       220  -9.1459     70.3177     87.2854   9.6169446865e+01   5.0536278348e+01    0.1419406    0.1030792 -23.81 0.0004311725    1.588    0.370
       221  -9.9934      2.3832     86.5352   1.1888259096e+02   5.7073447844e+01    0.2230264     0.140243 -71.53  0.001379479    1.235    0.190
       222  -9.4707     63.9430     86.7785   9.8158612733e+01   5.1532097339e+01    0.1686833    0.1168207  28.70 0.0007598471    1.644    0.392
       223  -9.9319     10.8954     85.2360   1.1587071373e+02   5.6910810615e+01     0.216855    0.1392199 -77.56  0.001287787    1.397    0.284
       224  -9.6135    155.0917     85.0114   7.1231691531e+01   3.4188171330e+01    0.2273344    0.2232354 -52.01 0.0004035764    1.022    0.022
       225 -11.1761     50.5551     83.2663   1.0182786352e+02   5.3989865461e+01    0.4210032    0.2588519   7.27  0.001387445    2.287    0.563
       226 -10.3338    123.8895     86.9172   7.9707694067e+01   4.0925535025e+01    0.3330679    0.2157437 -50.05 0.0007437912    1.577    0.366
       227 -10.2089     95.3998     81.9676   8.6560348862e+01   4.7648449190e+01    0.2144128    0.2014583  54.71 0.0003798817    1.184    0.155
       228  -9.9788     73.3121     80.2453   9.3218079698e+01   5.1684797498e+01    0.4523936    0.1697822 -37.46  0.001488348    3.380    0.704
       229  -9.3581     17.4212     85.2017   1.1366874479e+02   5.6508098462e+01    0.1651078     0.101383 -74.17 0.0004709242    1.458    0.314
       230  -9.8181     19.8769     81.1473   1.1206470826e+02   5.7273119256e+01    0.1830065    0.1521697 -85.16 0.0009004411    1.276    0.216
       231 -10.3320     44.5005     80.0308   1.0314439941e+02   5.5390332196e+01    0.2547327     0.195918  24.17 0.0006425102    1.519    0.342
       232  -9.4087      2.5712     80.5379   1.1790837710e+02   5.8429681942e+01    0.1676506    0.1009004  36.94 0.0006075022    2.094    0.522
       233  -9.5037     29.3214     73.3365   1.0700660021e+02   5.8328972600e+01    0.2229226   0.09508032 -55.82 0.0004941037    1.805    0.446
       234  -9.5833     83.2089     74.9362   8.8325216137e+01   5.1277227782e+01    0.3604677    0.1736785 -28.96  0.001059845    3.106    0.678
       235 -10.3371     64.3240     75.7571   9.5006669750e+01   5.3960792782e+01    0.2755535    0.2113529  67.99  0.001435642    1.852    0.460
       236 -11.0036     52.9162     75.2096   9.8892313263e+01   5.5537325909e+01     0.231397    0.1922266 -42.69  0.001381725    1.034    0.033
       237 -10.5791     18.2900     73.7332   1.1113444897e+02   5.9066784547e+01    0.3673464    0.2258374 -34.46  0.001837147    1.637    0.389
       238  -9.7885    174.9889     75.0577   6.3987721352e+01   3.1181358932e+01     0.256497    0.2161718  57.96            0    1.208    0.172
       239  -9.6976    169.2834     72.2860   6.4331304938e+01   3.3083478289e+01    0.2115098    0.1486638  68.00 0.0009342191    1.592    0.372
       240  -9.0673     93.1441     74.1926   8.4866828065e+01   4.9705921258e+01    0.1884643    0.1695054 -68.58 0.0003337137    1.283    0.220
       241  -9.2760     69.0141     73.5017   9.2706367906e+01   5.3793456381e+01    0.1818117    0.1390606  29.69 0.0009816233    1.441    0.306
       242  -9.3139     44.8348     73.1700   1.0126735438e+02   5.6900280244e+01    0.1852145    0.1284836 -39.35 0.0005254568    1.292    0.226
       243 -10.3034      1.2991     69.2973   1.1646985279e+02   6.1009755127e+01    0.2132746    0.1093982 -39.91 0.0002517142    1.803    0.445
       244 -11.9491      1.6508     63.3553   1.1523534445e+02   6.2301929281e+01    0.7828919    0.2116487 -71.27   0.00296022    3.609    0.723
       245 -11.8649      5.9288     59.4956   1.1279060885e+02   6.2937485667e+01    0.3966607    0.3826928 -67.50   0.00101814    1.276    0.216
       246 -10.3651    199.9722     71.5351   5.8384638986e+01   2.5623526175e+01    0.2658087    0.2091754 -37.75 0.0003099771    1.219    0.180
       247  -9.1230    137.6127     71.8292   7.1415516700e+01   4.0839000791e+01    0.2069363    0.1408361 -48.25 0.0003686372    1.538    0.350
       248 -11.9010     79.7898     69.8761   8.7876997941e+01   5.2905511550e+01    0.2419061    0.2235414 -21.03 0.0002828987    1.039    0.037
       249 -10.9498     52.6709     69.4089   9.7346768469e+01   5.6841844213e+01    0.2412527    0.2083974 -47.40 0.0003937572    1.077    0.072
       250  -9.3459     63.9603     69.2893   9.3212425319e+01   5.5412905316e+01    0.1839431    0.1675584 -10.96 0.0004264815    1.116    0.104
       251 -10.2001     90.4714     66.8365   8.3335535577e+01   5.1690726418e+01    0.5052747    0.2862632  18.71  0.001941613    2.814    0.645
       252  -9.4327    105.9835     66.7151   7.8443840297e+01   4.8742547048e+01    0.2085746    0.1822382  31.62 0.0008213034    1.168    0.144
       253  -9.0905    144.0447     66.0277   6.7987821653e+01   4.0372663769e+01     0.180816    0.1768272 -13.37 0.0004532487    1.012    0.012
       254  -9.4745     75.2738     66.0402   8.8187250500e+01   5.4422297434e+01    0.1934496    0.1638853 -37.64 0.0002633992    1.073    0.068
       255 -10.6926     45.5879     68.1976   9.9628067225e+01   5.7914067304e+01    0.6305974    0.2858005 -26.42   0.00225857    3.868    0.741
       256  -9.5339    202.3542     64.1359   5.5964398291e+01   2.6242287082e+01    0.3234895    0.1450236 -24.84  0.001129594    2.800    0.643
       257 -11.1294     32.1136     64.6479   1.0378250987e+02   6.0012704110e+01    0.2941512    0.2405561   9.29  0.001901702    1.412    0.292
       258 -10.4655     31.3811     58.4984   1.0238094233e+02   6.1398467673e+01    0.2731956     0.213406 -71.64 0.0002166982    1.473    0.321
       259 -10.6779     14.4345     65.0288   1.1069799574e+02   6.1252917952e+01    0.2098039    0.1643082 -20.94 0.0007292091    1.383    0.277
       260 -10.7298     16.6810     60.4370   1.0875600958e+02   6.2111198861e+01    0.2910364    0.1974961 -84.04  0.001143707    1.843    0.457
       261 -11.0756     22.3633     63.3151   1.0722700068e+02   6.1091108648e+01    0.4034998    0.2437031 -27.81  0.001924056    1.750    0.429
       262 -11.7187     23.8743     57.3065   1.0507231948e+02   6.2271526771e+01    0.3925907    0.2681129 -36.28  0.001249087    1.282    0.220
       263 -10.8419     29.8932     53.6094   1.0156382540e+02   6.2555072204e+01    0.4728647    0.2653432  25.95  0.002048388    2.067    0.516
       264  -9.9196     89.0581     71.9553   8.5467374129e+01   5.0900980758e+01    0.2170766    0.1962808 -29.11 0.0003427996    1.015    0.015
       265 -10.5364     71.3085     60.3461   8.7691711161e+01   5.6191879592e+01    0.3981662    0.2286377  48.23  0.001829387    2.218    0.549
       266  -9.2930     59.4914     58.7599   9.1495473389e+01   5.8213909465e+01    0.2874177    0.1925264 -11.77  0.001452568    1.816    0.449
       267  -8.9603    238.4469     58.4532   4.9444219436e+01   1.8614386764e+01    0.1380823    0.1227999 -52.10 7.914667e-05    1.017    0.017
       268 -10.4177     38.5568     57.0372   9.9080382154e+01   6.1028645116e+01     0.214594    0.1695991  41.85 0.0007714818    1.610    0.379
       269 -10.1077    118.9858     54.9872   7.0672306837e+01   4.8114211503e+01    0.2669857    0.2017433  -6.81 0.0003347398    1.529    0.346
       270 -10.2013    122.4595     52.3080   6.8797266071e+01   4.7784258678e+01    0.3785231    0.2266721  41.38  0.001306992    1.688    0.408
       271 -10.0916    145.2042     54.2806   6.3891146791e+01   4.2082840141e+01    0.2417418    0.2141333  17.67  0.000519926    1.198    0.165
       272 -10.8991     94.4334     49.5511   7.5955900219e+01   5.4177783524e+01    0.4330757    0.2452832  32.39  0.001065398    1.949    0.487
       273  -9.3650    191.5267     53.9144   5.4851095737e+01   3.0516761391e+01    0.2195573    0.1445076 -31.24  0.001009918    1.536    0.349
       274  -9.8421     52.0651     54.0232   9.2757922199e+01   6.0128366425e+01    0.1914471    0.1636229  89.69 0.0009118994    1.724    0.420
       275 -11.1417     93.0257     54.6445   7.8274034774e+01   5.3545717650e+01    0.2994112    0.2036902 -30.09 0.0002192121    1.427    0.299
       276  -9.5684     75.2814     52.7481   8.3604517620e+01   5.7032583165e+01    0.1914178     0.146691 -12.41   0.00103228    1.339    0.253
       277 -11.1097     41.9356     51.4982   9.5960404066e+01   6.1810913833e+01    0.3783379    0.2002919 -38.93  0.001023069    1.633    0.388
       278 -10.9410    165.5819    248.4350   1.0249021921e+02   8.3785888832e-01    0.2793554    0.1942746  63.70  0.001676749    1.898    0.473
       279 -11.7755     12.4054     43.9057   1.0618523494e+02   6.5851936516e+01    0.2448288    0.1642942 -45.92 0.0004023599    1.126    0.112
       280 -11.2579     14.1040     39.5082   1.0410817765e+02   6.6624654442e+01     0.273452     0.210777 -25.10 0.0005800145    1.191    0.160
       281 -11.3058     14.9182     35.6893   1.0250938304e+02   6.7317132982e+01    0.3970934    0.2141564  14.35  0.002079426    2.144    0.534
       282 -10.1289    199.6761     51.8264   5.2985087421e+01   2.8794740185e+01    0.2482307    0.2085743  33.86 0.0004763712    1.383    0.277
       283 -10.0815     60.9138     51.9553   8.8619144786e+01   5.9365196925e+01    0.1997354    0.1767428 -24.32 0.0005404543    1.052    0.050
       284  -9.6057     89.2490     49.8504   7.7746426978e+01   5.5112288277e+01    0.2049362    0.1869591 -42.65 0.0006157273    1.214    0.176
       285 -11.8891     61.9859     44.2882   8.5385033732e+01   6.0646442040e+01    0.3237314    0.2266664 -37.83 0.0004446946    1.288    0.223
       286 -10.7706     65.7253     49.2490   8.5819302920e+01   5.9182106450e+01    0.3311739    0.2086235 -28.12  0.001249383    1.548    0.354
       287 -10.1472     67.4982     44.2142   8.3259652243e+01   5.9829968105e+01    0.2610795    0.1955703  16.69 0.0005185367    1.384    0.278
       288 -11.2361     17.1190     47.1264   1.0505327149e+02   6.4887467810e+01    0.3407781     0.208582 -38.75  0.001273535    1.337    0.252
       289  -9.2715     21.9075     46.1130   1.0267749046e+02   6.4745911833e+01    0.1713022    0.1123648 -33.82            0    1.306    0.235
       290 -10.8030     47.2156     47.2230   9.2342866822e+01   6.2053949891e+01     0.350735    0.1855645 -23.87  0.001195473    2.317    0.568
       291  -9.6627    114.5392     46.7324   6.8939226132e+01   5.0464956329e+01    0.2543827     0.141603 -27.49 0.0005939862    1.888    0.470
       292  -9.6398     38.6000     46.6927   9.5724945451e+01   6.3120121170e+01    0.2040947    0.1595673  31.16  0.001277451    1.525    0.344
       293  -9.5113     42.3068     44.4068   9.3370135715e+01   6.3162594982e+01    0.1731702    0.1226577  20.89  0.001022974    1.543    0.352
       294  -9.1168    165.0341     46.0030   5.7109918938e+01   3.8401447655e+01    0.1759684    0.1670911 -37.48 0.0003920514    1.075    0.070
       295  -9.9257    123.8398     45.0637   6.5862703624e+01   4.8625419194e+01    0.3715026    0.1888639  45.38   0.00122349    1.920    0.479
       296  -9.9765    102.8425     43.7024   7.1164274559e+01   5.3457386952e+01    0.3423125    0.2370376  -1.11  0.001624621    1.766    0.434
       297 -11.7088    103.6487     38.7159   6.9018598991e+01   5.4061207200e+01    0.3096267    0.2588474  61.37 0.0003046729    1.398    0.285
       298  -9.5217    199.9792     43.2851   5.0570865169e+01   2.9948234148e+01    0.1959192    0.1793629  86.22 0.0003021987    1.060    0.057
       299  -9.6764     32.8763     43.1246   9.6941102867e+01   6.4391940251e+01    0.1921773     0.155671 -35.48 0.0009387543    1.044    0.042
       300  -9.7801    138.0726    248.8120   1.0759275259e+02   5.0429440747e+00    0.1884992    0.1368297  55.74  0.001130022    1.279    0.218
       301  -9.7561     91.7947     40.7494   7.3441050008e+01   5.6152811774e+01    0.2122448    0.1759569   6.78 0.0007011115    1.176    0.150
       302 -10.2672     20.7576     40.6378   1.0145809683e+02   6.5926437959e+01     0.297838    0.1564651   4.08  0.001573661    2.405    0.584
       303  -9.3910    152.1517     40.1768   5.7732199141e+01   4.2485874539e+01    0.1972935    0.1661805 -57.96 0.0004049198    1.290    0.225
       304 -10.5397    127.2361     39.8017   6.3120111446e+01   4.8618231654e+01    0.3145575    0.2438034  58.43  0.001032087    1.317    0.241
       305  -8.9564      4.9248     32.0759   1.0608109665e+02   6.8629504264e+01    0.6610248   0.08110064 -43.83  0.002359121    4.221    0.763
       306  -9.6099      8.3268     39.6544   1.0678263445e+02   6.6950631742e+01    0.2090099    0.1176688 -58.41  0.001242467    1.481    0.325
       307 -10.7148      4.7741     39.3982   1.0832669634e+02   6.7194032485e+01    0.3260505    0.2154752 -47.31  0.002180137    1.115    0.103
       308  -9.5750     82.5054     39.0180   7.5830173352e+01   5.8179078539e+01    0.1917126    0.1609481 -17.05 0.0004246798    1.089    0.082
       309  -9.8924     86.0010     37.0053   7.3845424442e+01   5.7851194470e+01    0.2026573    0.1764765   0.98  0.001193987    1.036    0.035
       310 -10.2068     38.2843     40.5144   9.3673735498e+01   6.4342377872e+01    0.4865192    0.2503596  -1.93  0.002057937    3.319    0.699
       311 -10.2218    228.0122     37.5450   4.5515605744e+01   2.3942253690e+01    0.2563057    0.1603689 -48.96 8.790541e-05    1.459    0.315
       312 -10.5888    136.2632     35.8213   5.9597994246e+01   4.7015101004e+01    0.4092472    0.2218008  39.93 0.0002410295    1.955    0.488
       313 -10.6583    142.6508     31.6513   5.6776333024e+01   4.5999391460e+01    0.4888732    0.2897073 -23.55  0.002219803    1.825    0.452
       314 -10.4894    208.4270     34.7991   4.7129120578e+01   2.9004710409e+01     0.318983    0.1325376 -29.76   0.00125921    2.434    0.589
       315  -9.9663    206.1602     31.1376   4.6431416585e+01   3.0035211102e+01    0.1936908    0.1859582  67.59 0.0003065605    1.137    0.120
       316 -11.8918    194.1021     35.0281   4.9091535954e+01   3.2538146933e+01    0.2985947    0.2375041  68.75  0.001607259    1.220    0.181
       317 -10.2907    132.1927     36.4064   6.0726328447e+01   4.7918526628e+01     0.337905    0.2219655  79.85  0.001020744    2.109    0.526
       318  -9.9423    128.6106     35.1911   6.1123496887e+01   4.8940986875e+01    0.2325162    0.1782783  -5.45 0.0004244806    1.446    0.308
       319  -9.8837     70.3130     35.2252   7.8626274064e+01   6.0905123702e+01    0.1903765    0.1559876   0.95 0.0006414603    1.126    0.112
       320 -11.1858     56.1987     33.6247   8.3436174574e+01   6.3337466334e+01    0.4846729    0.2907023  41.59  0.001187341    1.948    0.487
       321  -9.6766    153.3565     32.7062   5.5022038542e+01   4.3188288413e+01    0.2383422    0.1662401 -65.71  0.001111399    1.784    0.439
       322  -9.4001    118.1796     33.1306   6.2914026446e+01   5.1656917145e+01     0.182196    0.1682441 -84.41 0.0003859956    1.294    0.227
       323 -12.1541    107.6930     28.8920   6.4034138082e+01   5.4577211914e+01    0.4264641    0.3120552 -24.52  0.002272935    1.377    0.274
       324  -9.6272    233.1596     31.9405   4.3586649303e+01   2.3480505366e+01    0.2059472     0.156467 -63.17 0.0003668358    1.202    0.168
       325  -9.6298    176.8638     36.5792   5.2137026357e+01   3.6704955479e+01    0.3656534    0.1440643  67.79  0.001293606    2.724    0.633
       326 -11.7125    221.4042     29.3027   4.4179896745e+01   2.6570273697e+01    0.4024809    0.2426759 -37.96  0.002031424    1.550    0.355
       327  -9.9519     32.6348     28.9830   9.1751584456e+01   6.7032610066e+01    0.3566789    0.2572535 -61.19  0.002108325    1.965    0.491
       328 -10.4991     25.0568     30.3454   9.5832500161e+01   6.7520353054e+01    0.2918208    0.2784594  46.87  0.001799884    1.537    0.349
       329 -10.2735    159.0346     29.9485   5.3077191267e+01   4.2102698645e+01    0.2084326    0.2026619  69.84 0.0003376328    1.023    0.023
       330 -10.4852     71.8517     29.6170   7.5704081620e+01   6.1520887434e+01    0.2174664    0.2142945 -42.82  0.001417808    1.364    0.267
       331 -10.1664     19.1674     29.0598   9.8156485256e+01   6.8251875628e+01    0.1725825    0.1381837 -36.32 0.0004972836    1.110    0.099
       332 -10.2049    211.9741     28.0706   4.4922539792e+01   2.8996226758e+01    0.2033491    0.1838273 -71.16 0.0003821678    1.013    0.013
       333  -9.8392    182.1509     27.6051   4.8649063625e+01   3.6504015149e+01    0.2280129    0.1737407 -22.62 0.0008862432    1.445    0.308
       334 -11.2355     48.4515     26.1587   8.3484357395e+01   6.5626465961e+01    0.3530599    0.3095571  73.58  0.001927774    2.005    0.501
       335  -9.2852    134.4365     27.4883   5.7032746680e+01   4.8539653039e+01    0.1402483    0.1331702  40.28 0.0001843723    1.017    0.017
       336  -9.8882     99.6995     26.8385   6.5448853906e+01   5.6568787992e+01    0.2274635    0.1922645  41.17 0.0007508788    1.157    0.135
       337  -9.9460     31.9031     47.8596   9.8939121611e+01   6.3548285998e+01    0.1800515    0.1494906 -29.23 0.0009838186    1.068    0.064
       338  -9.9605    164.8421     25.7025   5.0727555549e+01   4.1144340381e+01    0.2776374    0.1586962 -53.33 0.0007280952    2.034    0.508
       339  -9.3611    139.7593     26.1965   5.5464508404e+01   4.7393359167e+01    0.1931842    0.1500981  37.31 0.0004388959    1.280    0.219
       340 -10.4020      7.8252     21.8543   1.0111265554e+02   7.0372911282e+01    0.2871009    0.1532155  18.60  0.001756738    2.122    0.529
       341  -9.6430     26.4889    249.5217   1.2714368277e+02   1.9908754860e+01    0.1075082   0.07171852  67.15  0.000623921    1.045    0.043
       342 -10.9513      4.4175    247.2883   1.3049886340e+02   2.2552871131e+01    0.2170827    0.1444898  85.90  0.001357404    1.244    0.196
       343 -11.2488     18.6036     23.7485   9.6375294205e+01   6.9252520869e+01    0.2532385    0.1816101 -41.69 0.0005952036    1.202    0.168
       344 -10.0064    204.8306     24.4134   4.4788393948e+01   3.1196077542e+01    0.1887422    0.1180991  58.23 0.0004123256    1.592    0.372
       345 -11.1647    153.6772     22.9679   5.1732857398e+01   4.4297008908e+01    0.2585854    0.2382702  28.82  0.000292475    1.128    0.114
       346 -12.2317     20.1077    244.5907   1.2792547065e+02   2.1448804785e+01    0.5058297    0.3775103  62.03   0.00410469    1.179    0.152
       347 -10.1341    124.1827     22.6331   5.7509529919e+01   5.1583820310e+01    0.4372207     0.267728 -78.88  0.001698367    3.138    0.681
       348 -10.4628     61.5554     23.4781   7.6904028074e+01   6.4121398729e+01    0.2926608    0.1981263  -0.79  0.001626822    1.538    0.350
       349 -10.1985    230.8062     23.1216   4.1687169279e+01   2.5125356126e+01    0.1700814    0.1563264  42.66 0.0006672695    1.347    0.257
       350 -10.5106    170.1959     23.3573   4.9146096249e+01   4.0056297336e+01    0.2470852    0.1765005  79.67 0.0006559894    1.420    0.296
       351 -10.4654    109.5024     20.9487   6.0396088798e+01   5.5165157709e+01    0.3496655    0.2179148  11.24  0.001054517    2.001    0.500
       352 -11.0138    105.0741     20.9088   6.1537893674e+01   5.6151391330e+01    0.2481645    0.2256649  79.29 0.0003380271    1.348    0.258
       353 -10.6309     26.5387     21.9380   9.1704275457e+01   6.8854247310e+01    0.3169537    0.1886716 -16.70 0.0008157684    1.673    0.402
       354 -10.1770     41.0740     21.6177   8.4712724089e+01   6.7296157101e+01    0.1664593    0.1329987   3.36 0.0004445572    1.155    0.134
       355 -10.0864    132.2423     21.2177   5.5231061901e+01   4.9814694104e+01    0.1912062    0.1643245 -69.64  0.001064167    1.365    0.267
       356  -9.7502     36.0450     21.0052   8.6748458321e+01   6.7995403711e+01    0.1833109    0.1472759 -17.56 0.0005702784    1.046    0.044
       357  -9.2484    190.1713     20.1651   4.5411513082e+01   3.5353395333e+01    0.1927576    0.1485268 -73.30 0.0003734126    1.303    0.233
       358 -11.0509    182.2910     18.8615   4.6062061179e+01   3.7492286584e+01    0.3103594    0.2455344  -5.16  0.001685888    1.542    0.352
       359 -10.1420     22.5310    238.4724   1.2723106710e+02   2.2286921759e+01    0.1712113   0.09316689  37.25 0.0005951668    1.938    0.484
       360 -10.0041    210.9651    245.6090   9.3878745682e+01  -5.7169872397e+00    0.1776781    0.1384155   4.38 0.0004707078    1.209    0.173
       361 -10.0388     14.1671     19.1852   9.6772326790e+01   7.0400347765e+01    0.2787962    0.1207577 -22.07  0.001307502    2.838    0.648
       362 -10.8517    217.9915     18.2047   4.1738327122e+01   2.8727809460e+01    0.3454432    0.2024292 -26.31  0.001717075    1.850    0.459
       363 -10.0348    199.1337     18.1293   4.3758622804e+01   3.3342082449e+01    0.2073122    0.1828628  48.18  0.001226212    1.262    0.207
       364 -10.5623    148.0393    245.3293   1.0533538494e+02   4.0293583591e+00    0.3406419    0.2197563  78.33  0.001779362    2.685    0.628
       365  -8.9054     66.3340    246.2952   1.2028610384e+02   1.5747796954e+01   0.09263267   0.08766226  18.79 0.0007027764    1.643    0.391
       366 -11.3135    201.8977    244.4339   9.5323078302e+01  -4.2132205812e+00    0.2346108    0.1865725   8.26 0.0003818471    1.188    0.158
       367  -9.8608     72.9984    243.9960   1.1893886929e+02   1.5278207021e+01    0.1798456    0.1384072  81.95 0.0006815439    1.204    0.170
       368  -9.4137    192.9440     17.2186   4.4240471902e+01   3.4989502378e+01    0.1886876    0.1631316  82.61 0.0004086579    1.068    0.064
       369 -10.0300     45.8665     17.1616   8.0504207669e+01   6.7346323229e+01    0.2188373     0.178533  50.77  0.001030541    1.868    0.465
       370  -9.8636    229.9472     16.1040   4.0079968850e+01   2.6154460087e+01    0.2036153    0.1466616 -63.86 0.0003216846    1.253    0.202
       371 -11.1384     76.2066    241.1914   1.1813816853e+02   1.5343417503e+01    0.3582507    0.1855724  66.88 0.0007013768    1.937    0.484
       372  -9.7426    112.3860     15.7207   5.7590650382e+01   5.5100415297e+01    0.2217819    0.1296873  -5.88 0.0002844801    2.061    0.515
       373  -9.4696     97.6887    244.6551   1.1455839706e+02   1.1751607069e+01     0.102565   0.09099838   3.80  0.000704591    1.706    0.414
       374 -10.2259    179.4809     13.4821   4.4854877846e+01   3.8788002166e+01     0.201153    0.1251666  83.98 4.952949e-05    1.651    0.394
       375 -10.1120     31.9737    244.0396   1.2596866979e+02   2.0269056168e+01    0.1537575    0.1153075  70.26 -0.002661949    1.090    0.083
       376  -9.6203     91.8566    242.1722   1.1538902455e+02   1.3009038374e+01    0.1783435    0.1239214  60.70 0.0004677608    1.192    0.161
       377 -10.0441    134.3553    240.8059   1.0734503952e+02   6.8752773011e+00    0.1442397    0.1121858 -41.26 0.0006235038    1.656    0.396
       378 -10.5498    109.6036    239.6693   1.1186255954e+02   1.0853989424e+01    0.2880471    0.1922277  81.24  0.001435762    1.769    0.435
       379  -9.2809    154.7779     13.5430   4.8434795079e+01   4.5042199460e+01    0.1833285    0.1277609  81.48 0.0003352777    1.497    0.332
       380 -10.1157     55.1407    240.9306   1.2184771551e+02   1.8109616347e+01    0.1714392    0.1091886  69.89 0.0004466623    1.282    0.220
       381  -9.9001    246.6693    240.0002   8.6820610304e+01  -1.0136074503e+01    0.1809972   0.07737106 -12.71 0.0007051854    4.356    0.770
       382  -9.4154    206.9394    239.6376   9.3695578517e+01  -4.3606743570e+00    0.1651259    0.1256921  27.00  0.001101156    1.061    0.057
       383  -9.2534    119.6714    240.6973   1.1008960161e+02   9.1602453669e+00     0.110949   0.09038872  14.65  0.000570672    1.647    0.393
       384 -11.1621     34.0902    239.2036   1.2534507169e+02   2.0899389745e+01    0.2149448    0.1585453  50.08 0.0003585762    1.320    0.243
       385  -9.5948    148.5347    239.0863   1.0445828344e+02   4.9133141997e+00    0.1570347    0.1224392 -48.98 0.0009122296    1.567    0.362
       386  -9.7319    167.9788    237.9610   1.0063986169e+02   1.9802532266e+00    0.1853839     0.157197  37.30 0.0006487839    1.056    0.053
       387 -11.3889    143.9851    237.7869   1.0515455209e+02   5.8417396848e+00    0.4124906    0.1736446  40.79 0.0007523097    1.943    0.485
       388  -9.2225     84.6459    238.2668   1.1635194978e+02   1.4707253739e+01    0.1240748   0.06911802  61.25 0.0002751347    1.628    0.386
       389 -10.9913      5.0720    237.5768   1.3001326187e+02   2.4201936558e+01    0.1856935   0.09704202  75.95  0.001286767    1.435    0.303
       390  -9.1736    220.9941    237.5286   9.0857108421e+01  -6.2015570855e+00    0.1730719   0.08278549  20.75 0.0008087595    2.480    0.597
       391 -10.7161    104.4501    236.8671   1.1253578259e+02   1.2104650639e+01    0.2194151    0.1832529   2.48    0.0012308    1.859    0.462
       392  -8.8744     62.5626    237.5393   1.2029119088e+02   1.7788726695e+01      0.11298   0.08786397  66.02 0.0002630474    1.045    0.043
       393  -9.6896     44.3159    236.6704   1.2344194451e+02   2.0187065374e+01     0.120193   0.06069617  65.58 0.0007045778    1.680    0.405
       394  -9.9600    133.1102    234.6163   1.0683337697e+02   8.0842593373e+00    0.1816095    0.1548948  77.68 0.0004608008    1.280    0.219
       395 -12.1963     14.7266    233.7256   1.2828239760e+02   2.3954365786e+01    0.5106958    0.2104012  46.18  0.003155709    1.912    0.477
       396  -9.5811    230.8157    232.8364   8.8373503877e+01  -7.0655636576e+00    0.1815943    0.1284906   9.62 0.0004569405    1.234    0.190
       397  -9.6295    219.3132    232.6677   9.0379945076e+01  -5.3380733942e+00    0.1057576   0.09395424  57.12 0.0007044956    1.680    0.405
       398 -10.3732    145.8005    231.8163   1.0403537225e+02   6.5148675189e+00    0.3874811    0.1671686  36.00  0.001564615    2.126    0.530
       399 -11.2823     46.6085    230.1067   1.2259770546e+02   2.1132791503e+01    0.3560419     0.170216  65.87  0.001108282    1.890    0.471
       400 -11.0829     29.3562    230.7253   1.2566144826e+02   2.2980381105e+01    0.1952871    0.1450233  80.78 0.0004146746    1.118    0.106
       401  -9.4575    152.3072    230.2846   1.0257228587e+02   5.7068003412e+00    0.1194904   0.09111279  14.46 0.0002046397    1.565    0.361
       402  -9.1747    169.6931    229.6507   9.9133073831e+01   2.9607364351e+00     0.125257   0.09082253   7.69 1.529113e-05    1.706    0.414
       403  -9.1816     39.8673    229.1661   1.2373191157e+02   2.2098087974e+01    0.1326246     0.116354  70.54 0.0004431483    1.302    0.232
       404  -9.1542    138.3085    228.3218   1.0503093754e+02   8.3098493082e+00    0.1189952   0.09494195   8.49 0.0007035083    1.645    0.392
       405  -9.3238    175.1390    227.0860   9.7708892191e+01   2.4606295960e+00    0.1634544    0.1424413  57.30  0.001063473    1.316    0.240
       406  -9.3083     14.4851    227.5163   1.2802060164e+02   2.5129629790e+01    0.1084902   0.07602715  72.58 0.0003017894    1.001    0.001
       407 -10.6933      2.6277    225.0540   1.2988342974e+02   2.6728136821e+01    0.2500105    0.2242045 -63.43  0.001498736    1.714    0.417
       408 -10.2732    164.7236    225.3706   9.9466247868e+01   4.4526286439e+00    0.2187667    0.1849306  26.77 0.0002230496    1.105    0.095
       409  -9.9260     73.3453    225.9652   1.1734942913e+02   1.8519725986e+01    0.2816653    0.1167618  52.61 0.0009887454    2.075    0.518
       410  -9.4112    206.4130    224.9184   9.1466939409e+01  -2.3037213871e+00    0.1493789    0.1102969 -65.77 0.0008039607    2.540    0.606
       411  -9.5568    108.8000    225.1635   1.1042411353e+02   1.3538719387e+01    0.1548219    0.1431404  22.10 0.0005027797    1.361    0.265
       412  -9.7825    125.1340    224.1176   1.0708069064e+02   1.1164429782e+01    0.1800819    0.1606227  28.49 0.0004952539    1.254    0.203
       413  -9.1261    112.5396    223.5271   1.0949779832e+02   1.3260223872e+01    0.1258573    0.1047881  56.74 9.177675e-05    1.004    0.004
       414  -9.3461     38.8362    223.2631   1.2352447108e+02   2.3341574165e+01    0.1333194    0.1204882  78.23 0.0007285702    1.347    0.258
       415 -10.2192     89.0449    221.8053   1.1392681823e+02   1.7115486138e+01    0.1924317    0.1361761  61.88  0.000535007    1.215    0.177
       416  -8.8400     64.7086    222.3495   1.1866612281e+02   2.0358305408e+01     0.126441   0.07137118  68.69 0.0004490045    1.669    0.401
       417  -9.4891     54.3952    221.2615   1.2051790869e+02   2.1879684948e+01    0.1528747    0.0932501  88.20 0.0003714401    1.523    0.343
       418  -9.5026    228.6887    220.0183   8.6597401865e+01  -5.1169869579e+00    0.1643476    0.1351099   1.17 0.0002722498    1.089    0.081
       419  -9.2656     22.8654    226.8676   1.2656016939e+02   2.4397006673e+01    0.1529979   0.08938628  65.78  0.001030894    1.302    0.232
       420 -10.7258     14.2807    215.8596   1.2745489131e+02   2.7380636277e+01    0.4431015    0.1299404 -75.33  0.002165792    2.879    0.653
       421  -9.8169    136.2287    217.5538   1.0399834782e+02   1.0529412757e+01    0.2359566     0.146758  35.21 0.0008016672    1.520    0.342
       422  -8.9837    117.2882    218.6979   1.0796404139e+02   1.3403413045e+01    0.1277247   0.08701982  67.26 0.0002166422    1.562    0.360
