#   1 NUMBER                 Running object number                                     
#   2 MAG_AUTO               Kron-like elliptical aperture magnitude                    [mag]
#   3 X_IMAGE                Object position along x                                    [pixel]
#   4 Y_IMAGE                Object position along y                                    [pixel]
#   5 X_WORLD                Barycenter position along world x axis                     [deg]
#   6 Y_WORLD                Barycenter position along world y axis                     [deg]
#   7 A_WORLD                Profile RMS along major axis (world units)                 [deg]
#   8 B_WORLD                Profile RMS along minor axis (world units)                 [deg]
#   9 THETA_WORLD            Position angle (CCW/world-x)                               [deg]
#  10 FWHM_WORLD             FWHM assuming a gaussian core                              [deg]
#  11 ELONGATION             A_IMAGE/B_IMAGE                                           
#  12 ELLIPTICITY            1 - B_IMAGE/A_IMAGE                                       
         1 -15.0807      3.8885    160.0139   1.1817783976e+02   4.0100909692e+01     3.856088     1.550923 -71.77  0.009753907    1.988    0.497
         2 -16.2704     86.1796     41.4091   6.2824012898e+01   5.6762989731e+01     2.374846     1.595847  40.66  0.007510331    1.364    0.267
         3 -15.5164     82.0342     23.4377   5.7137595115e+01   5.9914573025e+01     1.622487     1.058081  60.35  0.006407364    1.751    0.429
         4 -13.9784    226.6426     32.2072   3.4703652109e+01   2.6082290131e+01     1.038988    0.7829053  45.73  0.006463529    1.799    0.444
         5 -12.5591    249.6581     10.8631   2.8704255018e+01   2.3998832115e+01    0.8153778    0.2272875 -35.04  0.003691498    3.272    0.694
         6 -11.3430    234.6759      6.3357   2.8828153216e+01   2.7404736115e+01    0.3585981    0.1334275 -52.88  0.001820367    2.267    0.559
         7 -12.5360    196.6160      3.3731   3.1112692027e+01   3.5733984524e+01    0.8190553    0.3458678  76.91  0.004036287    2.111    0.526
         8 -11.0724    186.5029      1.6047   3.1608389998e+01   3.8158992979e+01    0.4737958    0.1544973  71.43  0.001763161    2.573    0.611
         9 -10.4388     13.2612     60.0234   9.9469513966e+01   6.3375626496e+01    0.1974062    0.1631101 -16.05 0.0004770643    1.158    0.136
        10 -12.8894     86.5397    234.3611   1.0586037484e+02   1.3653562470e+01    0.7249547    0.5538455 -24.85  0.004121982    1.852    0.460
        11 -13.8122     58.4033    246.2530   1.1296416107e+02   1.4960304739e+01     1.958417    0.7479971  32.79  0.004534614    2.424    0.587
        12 -14.0875     71.2689    246.5541   1.1034429931e+02   1.3269134524e+01     4.005445    0.7795324  30.41   0.01074564    6.908    0.855
        13 -13.6346     83.6122    245.5250   1.0766341880e+02   1.1830565813e+01     1.187151    0.6884105  37.05  0.005235498    1.492    0.330
        14 -11.2710     14.8643    248.4386   1.2159431193e+02   1.9395914780e+01    0.3320553     0.239422  76.14  0.001300362    1.132    0.116
        15 -11.9639      3.5018    249.5399   1.2371368908e+02   2.0280384782e+01    0.5340773    0.2616838  36.83  0.002664324    1.856    0.461
        16 -11.5932      2.9306    242.8490   1.2351959613e+02   2.1639044743e+01    0.5165958    0.2219362  87.59  0.002838961    2.145    0.534
        17 -10.4607     10.9855    232.0031   1.2146265459e+02   2.3077431854e+01    0.3749384    0.1642218  75.21  0.001915639    2.234    0.552
        18 -11.1004     75.6800    220.5452   1.0676044120e+02   1.8066334270e+01    0.5848552    0.1288809  44.45  0.001870551    3.998    0.750
        19 -12.7211     47.0389    179.4116   1.0898043191e+02   3.1336315598e+01     1.146303    0.6221148   7.01  0.001962665    3.218    0.689
        20 -12.0157     10.7648    190.4816   1.1889862902e+02   3.2269792512e+01    0.4002395    0.3391654  61.79 0.0008121631    1.154    0.133
        21 -14.5823     33.7038    190.9192   1.1353891634e+02   2.9998230048e+01     4.187197     1.491109  63.93    0.0129676    4.991    0.800
        22 -13.6407      8.5857    179.5210   1.1858754237e+02   3.5038652380e+01     1.357093     0.784384 -47.19  0.006513693    2.030    0.507
        23 -13.6892    163.4037    223.2322   8.7251173836e+01   4.1506706142e+00     2.347369     1.463013 -19.04   0.01120505    2.080    0.519
        24 -13.6437     13.0357    206.3914   1.1950195444e+02   2.8418827037e+01    0.8337691    0.5010397  14.65  0.003536076    2.346    0.574
        25 -13.7454     23.8242    198.5081   1.1652569013e+02   2.9205565021e+01     1.069558     0.720755  83.71  0.002844071    1.329    0.248
        26 -10.2725     51.3021    185.6348   1.0862342511e+02   2.9309959271e+01     0.249674    0.1541671 -84.94  0.000740757    1.672    0.402
        27 -14.5546    111.7440    165.3219   8.9393324238e+01   2.5403174851e+01     1.780933     1.171608  34.86  0.005727299    1.528    0.345
        28 -15.0081    116.3287    153.5485   8.5776292171e+01   2.7434510825e+01     2.757958      1.72724  53.34  0.007514596    1.851    0.460
        29 -10.2847    176.6822    184.9517   7.7430657237e+01   9.3154883102e+00     0.322225    0.2904737 -48.58  0.001327853    1.239    0.193
        30 -11.6734     54.9343    173.0177   1.0609796841e+02   3.1990828232e+01    0.2979907    0.2645416 -35.59 0.0004810196    1.295    0.228
        31 -11.9511     79.0969    141.3594   9.3959221394e+01   3.6745862895e+01    0.3428815    0.2964957 -40.91 0.0005274072    1.159    0.137
        32 -13.9890     31.2489    127.5406   1.0643673477e+02   4.6090144254e+01     2.097511    0.7726503 -57.48  0.008556738    2.174    0.540
        33 -13.2099     68.1306    143.9885   9.7769519330e+01   3.7662097136e+01     1.124645    0.6767889  57.26  0.003105047    2.074    0.518
        34 -11.0749     66.9446    163.1748   1.0137601847e+02   3.2931126886e+01    0.2800874    0.2631922 -51.86 0.0003773911    1.104    0.094
        35 -11.8503    154.0318    159.4628   7.7369310902e+01   1.8897537918e+01     0.753112    0.5219558  28.63  0.002792096    1.540    0.351
        36 -11.2812    158.2128    154.9897   7.5392691475e+01   1.9068767010e+01    0.5160456    0.4524205  22.40  0.002110385    1.163    0.140
        37 -13.1999     52.6839    159.5270   1.0483937796e+02   3.5670553970e+01    0.5450238    0.3365398 -35.87  0.001776154    2.018    0.504
        38 -11.0727    143.4567    157.0903   7.9448144333e+01   2.1476589618e+01     0.629064     0.352544 -35.44  0.002058136    2.007    0.502
        39  -9.7133    250.4183    150.5414   5.6564710896e+01   3.2355092225e+00    0.3316413    0.1024658 -42.89  0.001268009    2.800    0.643
        40 -12.3662    179.4996    147.7703   6.8947962871e+01   1.6406111617e+01     1.300564    0.7227262  19.44  0.004510464    3.224    0.690
        41 -10.8339    133.2646    142.9483   7.8902555887e+01   2.6730262762e+01    0.9409473    0.2472435 -51.69  0.002462309    4.272    0.766
        42  -9.8484    142.3772    142.6385   7.6481229923e+01   2.4985332453e+01    0.2391667    0.1922403  83.58 0.0006490152    1.657    0.396
        43 -13.4561     76.8624    156.7697   9.7498279824e+01   3.3164786998e+01     1.355317    0.9741781  68.06  0.006439846    1.651    0.394
        44 -10.4682    172.7664    138.1307   6.8208499510e+01   1.9768174836e+01    0.4496304    0.3352979 -23.95  0.002121941    1.470    0.320
        45 -10.7891    168.4000    136.2495   6.8741734124e+01   2.1062567665e+01    0.6409253     0.389809 -46.26  0.002767465    1.608    0.378
        46 -12.5198    191.4801    130.3992   6.2477294400e+01   1.7517368986e+01    0.7000965    0.5650617  -7.17  0.003561145    1.450    0.310
        47 -10.4804    250.0415    130.4795   5.2567200527e+01   6.6558323432e+00    0.4451394    0.1979051 -36.38   0.00203824    1.933    0.483
        48 -10.7318    105.9464    131.0782   8.3708985236e+01   3.4793335221e+01    0.3901827    0.3379475 -16.53 0.0009558041    1.260    0.206
        49 -10.0508    136.1615    130.3197   7.5150853995e+01   2.9055779660e+01    0.2899765    0.2123836 -36.32  0.001315406    1.394    0.283
        50 -13.7685    198.6331    113.8168   5.7226781835e+01   1.9239012602e+01     1.726322     1.572769  85.54  0.006006327    1.215    0.177
        51  -9.5328     92.2112    127.6258   8.7011038166e+01   3.8071312388e+01    0.2790919    0.2176448  -4.43 0.0007779609    1.581    0.367
        52  -9.1875    103.8102    119.7840   8.1604223923e+01   3.7895906838e+01    0.1939482    0.1779095  88.42 0.0002705148    1.234    0.190
        53 -12.0713    217.9390    111.1983   5.3313887898e+01   1.5802125178e+01    0.7407389    0.5542374 -38.13   0.00249268    1.211    0.175
        54 -12.1250    216.4408     99.6423   5.0934183190e+01   1.8127784582e+01     0.885012    0.6165075 -76.15  0.004107476    1.875    0.467
        55 -10.9707    166.8223    114.5001   6.3784768926e+01   2.5923902938e+01    0.7215663    0.2874999 -33.54  0.002283877    3.162    0.684
        56 -13.2816    245.9088    108.8983   4.8695744111e+01   1.0956394635e+01    0.9861093      0.59027 -41.57  0.003024725    1.392    0.282
        57 -13.5946     52.0834    124.6710   9.9169973886e+01   4.4644007977e+01     2.033022      1.03118 -45.53  0.008728523    1.898    0.473
        58 -12.5401    233.0443     98.7092   4.8291962133e+01   1.5013881725e+01    0.6485842     0.556787 -86.03   0.00235321    1.283    0.221
        59 -10.2865    201.0330     91.2289   5.1428788272e+01   2.2813174982e+01    0.4833662    0.3147297 -76.25  0.002154846    2.173    0.540
        60 -10.6186    200.9267     85.1764   4.9992216735e+01   2.3871987288e+01    0.3828866     0.250759 -37.04  0.001303165    1.479    0.324
        61 -11.8355      1.9377     83.5420   1.0942937454e+02   5.8793811616e+01    0.7511536   0.06303096 -66.33  0.002038043    5.968    0.832
        62 -11.3532    241.5883     83.0160   4.3831383338e+01   1.5915149541e+01    0.5665546     0.269289 -42.67  0.002138405    1.761    0.432
        63 -10.5611    230.7114     82.5162   4.5086031814e+01   1.8101463284e+01    0.3733321    0.2771611 -36.28  0.001586675    1.298    0.230
        64  -9.4283     78.3028     84.3109   8.0156865400e+01   5.0484870957e+01    0.1503443    0.1092076 -12.33 0.0002220737    1.609    0.378
        65  -9.0097     24.7625     82.5951   1.0016568677e+02   5.7571549765e+01    0.1553796    0.1219233  29.03 0.0002619392    1.474    0.322
        66 -11.3400    216.3145     65.8820   4.3244027649e+01   2.3638440142e+01    0.5763639    0.3769564 -41.21  0.002150969    1.413    0.292
        67 -10.7713    112.9733    237.3075   1.0040010678e+02   9.2572947356e+00    0.1947061    0.1515782  38.05  0.000632502    1.119    0.106
        68 -12.2111    207.6063    229.6142   7.9203586322e+01  -3.5345276876e+00    0.8795995    0.5789717 -14.05  0.003863807    1.510    0.338
        69 -12.5474    212.4461     44.8416   3.8930287960e+01   2.7468611274e+01    0.5428345    0.3210737 -57.21  0.002871207    1.615    0.381
        70 -11.2815     10.7252     42.7790   9.5613133442e+01   6.7011208146e+01    0.3440804    0.2081873  38.60  0.001593387    2.286    0.562
        71 -11.2813      5.5685    227.5450   1.2227975525e+02   2.4507604825e+01    0.4475531    0.2576183 -81.12  0.002634176    1.541    0.351
        72 -11.0077    120.3190     28.3370   4.8932146632e+01   5.0995539999e+01    0.4158734    0.2718414 -74.43 0.0005891698    2.360    0.576
        73 -10.5081    175.7272     24.4869   3.8446685309e+01   3.8317335109e+01    0.3163263    0.1945502 -57.61  0.001667375    1.694    0.410
        74 -13.5251    104.7410    229.3684   1.0122578997e+02   1.2053857059e+01     1.867297    0.2520934  38.34  0.005199521    5.023    0.801
        75 -10.7067    189.6626     15.1554   3.4512719203e+01   3.6112909919e+01    0.2209956     0.150373  89.05 0.0008541014    1.332    0.249
        76 -11.9721     85.8157    222.2209   1.0463949640e+02   1.6296240791e+01    0.6417666    0.3978022  85.81  0.001865265    2.116    0.527
        77 -11.7098    179.1580    214.9902   8.2473477806e+01   3.1683073537e+00    0.8905849    0.3862229  38.29  0.003811019    2.200    0.545
        78 -10.4286     77.0709    225.6999   1.0701341163e+02   1.6765923810e+01    0.2215608    0.1832992 -71.17 0.0005131515    1.276    0.216
