#   1 NUMBER                 Running object number                                     
#   2 MAG_AUTO               Kron-like elliptical aperture magnitude                    [mag]
#   3 X_IMAGE                Object position along x                                    [pixel]
#   4 Y_IMAGE                Object position along y                                    [pixel]
#   5 X_WORLD                Barycenter position along world x axis                     [deg]
#   6 Y_WORLD                Barycenter position along world y axis                     [deg]
#   7 A_WORLD                Profile RMS along major axis (world units)                 [deg]
#   8 B_WORLD                Profile RMS along minor axis (world units)                 [deg]
#   9 THETA_WORLD            Position angle (CCW/world-x)                               [deg]
#  10 FWHM_WORLD             FWHM assuming a gaussian core                              [deg]
#  11 ELONGATION             A_IMAGE/B_IMAGE                                           
#  12 ELLIPTICITY            1 - B_IMAGE/A_IMAGE                                       
         1 -12.0274     39.7248     32.5032   7.7678745323e+01   6.6070736278e+01    0.3792025     0.244415 -24.21 0.0004956049    1.439    0.305
         2 -10.9441     14.1199      9.1619   8.0078578714e+01   7.2511273559e+01    0.3049673    0.1916286  -9.87 0.0007683538    1.393    0.282
         3 -11.0148     14.5058     21.5554   8.5706578502e+01   7.0642459085e+01    0.6007494    0.2782226  31.62  0.003203624    2.348    0.574
         4 -12.0279     12.4272     15.8255   8.4288414338e+01   7.1719804979e+01    0.3652123     0.225986  19.63  0.001317646    1.550    0.355
         5 -10.8590     74.5314     20.8805   5.8872775577e+01   6.1867960863e+01     0.590936    0.3021981 -11.63  0.002673326    2.641    0.621
         6 -11.0845      1.9889     21.1349   9.2666281562e+01   7.1714064144e+01    0.3280182    0.1988574 -30.07  0.002142438    1.284    0.221
         7 -11.8012    234.9037     15.0668   3.1134684383e+01   2.6382710414e+01     0.243577    0.1752358 -67.93  0.000327744    1.101    0.092
         8 -12.0144     83.6056     15.0734   5.3665159722e+01   6.0669279353e+01    0.4513203    0.2501519  21.50 0.0006093059    2.231    0.552
         9 -11.9169    202.9823     15.5641   3.3884271282e+01   3.3136440644e+01    0.2904559    0.2325122 -42.11  0.001258915    1.331    0.249
        10 -11.5352     34.5779     12.5340   7.0968356856e+01   6.9577513586e+01    0.3174553    0.2516461   6.49 0.0007531366    1.034    0.033
        11  -9.9174     28.0000      1.9037   6.8703028916e+01   7.1728875177e+01    0.2027368    0.1324847 -25.99 0.0008129287    1.530    0.347
        12 -11.7581     30.5635      7.4882   7.0375403715e+01   7.0742809806e+01    0.6822852    0.2699842  33.47  0.003429387    2.315    0.568
        13 -10.3121     40.5610      7.5676   6.5707327006e+01   6.9279144945e+01      0.23556    0.1517117   2.78 3.619778e-05    1.516    0.340
        14 -10.4210     37.6845      6.3463   6.6386361663e+01   6.9850157867e+01    0.2066478    0.1778622 -45.16 0.0009393177    1.820    0.451
        15 -11.5000    208.0898     13.2949   3.2911067266e+01   3.2254832379e+01    0.1837732    0.1644775 -39.80 0.0005814419    1.343    0.256
        16 -10.8185    172.0059     11.8489   3.6199730017e+01   4.0635973645e+01    0.1915047    0.1696993 -64.98  0.000291222    1.144    0.126
        17 -11.8353    134.0167     11.2419   4.1258967291e+01   4.9696325750e+01     1.517853    0.5297322  81.18  0.003619921    8.296    0.879
        18 -10.6355    129.2757     11.3340   4.2082175552e+01   5.0805493615e+01    0.2035018     0.162111  48.83 0.0005471393    1.182    0.154
        19 -10.4391    125.8944     11.1158   4.2600372110e+01   5.1618798990e+01    0.2321263    0.1900238 -74.81            0    1.359    0.264
        20 -10.7906    117.0374      9.0074   4.3516143774e+01   5.3865191773e+01    0.4292698    0.2642238 -88.32  0.002131824    2.151    0.535
        21 -10.3380     45.0857      9.9772   6.4931560841e+01   6.8305318161e+01    0.2865638    0.1845403   6.11  0.001711738    1.545    0.353
        22  -9.9613      3.8473     10.4167   8.6828757725e+01   7.3278183958e+01    0.1623961    0.1331178 -12.97 0.0004093157    1.209    0.173
        23 -10.2825      2.2937      6.7584   8.6015256029e+01   7.3942073702e+01    0.2093395    0.1296031   3.97 0.0009538358    1.422    0.297
        24 -11.1100     57.1978      6.6125   5.8493102242e+01   6.6599656795e+01    0.5023448    0.2759342 -22.46  0.002830252    1.906    0.475
        25 -10.6294     57.7342      2.1168   5.6151735192e+01   6.6915884709e+01    0.2581526    0.1800896  44.82 0.0002788815    1.283    0.221
        26 -10.6730     22.6192      9.1738   7.5350478755e+01   7.1557611881e+01    0.3215674    0.1798298   7.29  0.001827296    1.893    0.472
        27 -11.7023    218.4585      7.4651   3.0803882736e+01   3.0639982780e+01    0.2445246     0.179218 -79.73  0.001628094    1.112    0.101
        28  -8.9767     97.7189      7.3241   4.6947667185e+01   5.8368648214e+01    0.1168481   0.09480026 -70.02 0.0003427907    1.593    0.372
        29 -10.1551    188.4984      6.5240   3.3139113040e+01   3.7346487888e+01    0.1231953    0.1027532 -89.18 3.403404e-05    1.040    0.038
        30 -11.0016    150.8933      5.4673   3.7055402080e+01   4.6218770567e+01    0.2048307    0.1620381 -54.15 0.0004870876    1.339    0.253
        31  -9.9739     70.7370      6.2577   5.3749515827e+01   6.4090881250e+01    0.2161815    0.1611655  44.11  0.001372964    1.160    0.138
        32 -10.3712    235.6104      4.8192   2.9061133691e+01   2.7371753496e+01    0.1648775   0.08131019 -48.15 0.0009522937    1.672    0.402
        33  -9.9107    119.5284      3.9175   4.1327535128e+01   5.3715009886e+01    0.3059604    0.1492674  41.73  0.001478065    2.075    0.518
        34 -10.2034    104.2291      3.5279   4.4103235859e+01   5.7232870782e+01    0.2441341    0.1663651 -23.19  0.001287116    1.685    0.407
        35  -9.9036     75.0524      3.6768   5.1316820007e+01   6.3456211395e+01    0.1794028     0.129125  42.85 0.0006253078    1.146    0.127
        36 -10.8468     20.8514      2.1733   7.2603572921e+01   7.2633325741e+01    0.2926456    0.1554566  25.59  0.001648894    1.673    0.402
        37  -9.5348    176.5234      2.5198   3.3329368355e+01   4.0476141214e+01    0.1242206    0.1024299 -89.72  0.000185534    1.003    0.003
        38 -10.1100    162.5016      2.4849   3.4816211002e+01   4.3745464950e+01    0.1256389     0.104603  85.72 0.0008104438    1.016    0.016
        39  -9.4645     90.6986      2.2079   4.6594386606e+01   6.0310346842e+01    0.1554067     0.107306   1.03 0.0005198604    1.654    0.395
        40 -11.2854     80.3009      1.5924   4.8961324726e+01   6.2553229319e+01    0.2565811    0.1311428  53.32  0.001365477    1.610    0.379
        41  -9.1194      1.0000      1.9771   8.4396254795e+01   7.4724448645e+01    0.1625378   0.05174837 -43.00 0.0007354156    2.859    0.650
        42  -9.1130     87.2819      1.3443   4.7071854172e+01   6.1107847086e+01    0.1293333   0.07709579  31.82 0.0007013206    1.637    0.389
        43  -9.6028     10.8928      1.1735   7.7765598184e+01   7.3896983826e+01    0.1324635   0.07013518  26.94 0.0003278533    1.761    0.432
        44 -10.3114      4.1952    167.5803   1.1904248541e+02   3.8340024380e+01    0.1522437    0.1230368  -7.00 0.0009580615    1.724    0.420
        45 -10.9207     28.3152    250.5515   1.1956168653e+02   1.7483683880e+01    0.3604856   0.08785782  34.38  0.001508059    3.434    0.709
        46 -11.8637     17.9627    248.7773   1.2138674265e+02   1.8941379133e+01    0.2870153     0.233921 -28.77  0.001973514    2.107    0.525
        47 -11.9414      4.0414    232.8020   1.2316477162e+02   2.3544641983e+01    0.2849223     0.195978  66.05  0.001970033    1.117    0.105
        48 -12.8133     10.1997    245.8588   1.2266234306e+02   2.0308013504e+01    0.7227085    0.3508484  86.45  0.004210253    1.853    0.460
        49 -12.4876      5.0514    240.7615   1.2336004609e+02   2.1827461664e+01    0.5145598    0.2971438  40.83  0.003334512    1.591    0.371
        50  -9.8207     14.3194    164.3282   1.1620807539e+02   3.8341325316e+01    0.1313494   0.08517683 -48.66 0.0005432383    1.685    0.406
        51  -9.4043     21.9452    160.5278   1.1383036464e+02   3.8633506212e+01    0.1705213    0.1319991  28.19 0.0005038019    1.509    0.337
        52 -10.0343      4.0772    158.3344   1.1830412379e+02   4.0613248863e+01    0.1745644    0.1473329  84.66  0.001146427    1.083    0.077
        53 -11.1931      6.0216    153.3930   1.1735386797e+02   4.1695566872e+01     0.566148    0.1953606  15.93  0.002253354    4.028    0.752
        54  -9.7226     27.2992    147.2699   1.1080643863e+02   4.1509103525e+01    0.2349738    0.1397492 -69.06 0.0005956321    1.428    0.300
        55  -9.6795    236.4897    139.0006   5.7258584812e+01   7.0422152662e+00    0.1847965    0.1078716 -19.95 0.0006818419    2.295    0.564
        56  -9.3966     24.5210    138.9721   1.1053947065e+02   4.3873448010e+01      0.20234   0.07782755 -50.27 0.0008089815    2.443    0.591
        57 -10.9152      3.3893    134.1518   1.1617461938e+02   4.6655522667e+01     0.345347     0.199722  75.15  0.001189332    1.862    0.463
        58 -10.1286    212.5276    133.9475   6.0180971951e+01   1.2338474859e+01     0.239702    0.2024527  78.36 0.0006269418    1.487    0.327
        59  -9.4225     95.9902    134.0356   8.7932901100e+01   3.5763965562e+01    0.1895369    0.1771734 -56.45  0.000493674    1.028    0.027
        60  -8.9863     61.5036    130.5294   9.7750896339e+01   4.1996833034e+01    0.1470547    0.1346854 -60.80 0.0002124934    1.006    0.006
        61 -10.7280     12.0741    129.3923   1.1304313399e+02   4.7273247225e+01    0.2487515    0.1968373 -76.50  0.001519761    1.070    0.065
        62 -10.3826     28.4691    128.1812   1.0779439263e+02   4.6275189769e+01    0.2025134    0.1921261  16.71 0.0003106122    1.235    0.191
        63 -11.3963     24.0849    122.0572   1.0825102025e+02   4.8205248874e+01    0.2349299    0.2194371 -43.87 0.0002893415    1.150    0.131
        64 -11.2228     10.4411    120.9005   1.1245381118e+02   4.9508505339e+01    0.4100876    0.2271108  86.79  0.001974003    2.023    0.506
        65  -9.9336      2.0000    122.9927   1.1534871486e+02   4.9505562938e+01      0.21923   0.05993626 -73.04 0.0008019737    2.939    0.660
        66 -10.8184     17.8713    121.9233   1.1022877013e+02   4.8729681092e+01    0.1961626    0.1914718  51.63 0.0003658372    1.203    0.169
        67 -10.4859     69.0277    117.0369   9.2471773180e+01   4.4361173026e+01    0.2212815    0.2034022 -48.92  0.001218944    1.011    0.011
        68 -10.4509      1.9454    113.8982   1.1425973629e+02   5.1748154609e+01    0.2256867    0.1456604 -68.06 0.0006494999    1.230    0.187
        69 -10.8285      2.6137    109.1368   1.1341643316e+02   5.2876861664e+01    0.2403021    0.2174389  19.67  0.001251073    1.356    0.262
        70 -10.2227     45.0866    110.9059   9.9196366314e+01   4.8974641824e+01    0.2094478    0.1922926 -54.91 0.0005308914    1.037    0.036
        71 -10.6029     64.8188    109.6574   9.2158556458e+01   4.6788371134e+01    0.2599165    0.2274831 -62.52 0.0003959907    1.127    0.112
        72 -11.3702     57.7687    107.6289   9.4093440239e+01   4.8245521157e+01    0.5359575    0.3189562   4.62  0.002013235    2.502    0.600
        73 -10.0162     55.0516    104.9882   9.4422261090e+01   4.9241838030e+01    0.2011503    0.1558266 -30.79 0.0003088074    1.318    0.241
        74 -10.6431     13.5194    109.0049   1.0972566557e+02   5.2253139755e+01    0.1846179    0.1688346 -50.98 0.0004543936    1.124    0.110
        75 -11.1403      2.2648    104.1792   1.1284827217e+02   5.4100030257e+01    0.3171225    0.2033665 -15.24  0.001798726    1.890    0.471
        76 -10.9081     14.7701    104.3741   1.0854752925e+02   5.3304644136e+01    0.2865688    0.1373417  37.86   0.00135208    2.444    0.591
        77  -9.5586    246.6766    101.6929   4.7923878626e+01   1.1661628870e+01    0.1228734    0.0998868  -7.02  0.000343353    1.645    0.392
        78  -9.5177     91.8583     99.8804   8.0670420472e+01   4.4725228236e+01    0.1897645    0.1741321 -88.79            0    1.253    0.202
        79 -12.0942    125.4291     93.4582   6.8925839725e+01   3.9339289640e+01    0.3584957    0.2959329  78.18 1.244246e-05    1.464    0.317
        80 -10.7946      3.2491     95.4942   1.1120308552e+02   5.6136283751e+01     0.359754    0.1983397 -54.20  0.001963406    1.427    0.299
        81 -11.6419      7.7013     91.3350   1.0887546477e+02   5.6883356668e+01    0.3665981    0.2174923  35.50 0.0004446242    2.034    0.508
        82 -12.0936     20.3609     92.8601   1.0441437204e+02   5.5685883010e+01    0.3859705    0.2705304 -40.40 0.0004694237    1.290    0.225
        83 -10.4696     66.5058     91.9694   8.7046060538e+01   5.0742975263e+01    0.2318334    0.1962423  48.82 0.0001739586    1.357    0.263
        84  -9.9469     28.9078     91.9742   1.0100082674e+02   5.5197630466e+01    0.2117454    0.1856765   7.13 0.0007165708    1.269    0.212
        85 -10.4785     43.0194     88.8374   9.4892187882e+01   5.4525300338e+01    0.2381024    0.2020195 -71.13 0.0002499049    1.300    0.231
        86 -10.0198     23.9675     88.4179   1.0211385541e+02   5.6454793272e+01    0.2495556    0.1744218 -77.50 0.0008469112    1.589    0.371
        87 -11.8213     11.7408     86.9995   1.0654261311e+02   5.7663076986e+01    0.4796531    0.2654259  82.77  0.001833032    2.952    0.661
        88 -10.0170      7.0611     85.3253   1.0803156029e+02   5.8330189688e+01    0.3058299    0.1404953 -60.20  0.001042544    1.679    0.404
        89 -11.2361     58.0119     91.6436   9.0024124085e+01   5.2024047703e+01    0.3203361    0.2275451 -17.31 0.0007595635    1.631    0.387
        90  -9.2732     89.1608     87.6272   7.8018457093e+01   4.7934609238e+01    0.1913888    0.1391661  25.11 0.0001861147    1.493    0.330
        91  -9.3957    124.4811     86.4821   6.7145922197e+01   4.0965331859e+01    0.1503707    0.1487149   2.32 5.701122e-05    1.005    0.005
        92 -10.0623     55.1347     85.6454   8.9459097400e+01   5.3778547747e+01    0.2206401    0.1787321 -58.38 0.0003550916    1.273    0.214
        93  -9.4071     76.5469     83.0168   8.0904560136e+01   5.1140776340e+01    0.2111105    0.1363647 -44.83 0.0004136699    1.478    0.323
        94  -9.6464     69.5141     83.4446   8.3528834244e+01   5.2187951741e+01    0.1440507     0.132074 -21.94 -1.256234e-05    1.008    0.008
        95 -10.1173      3.0247     83.0300   1.0917612148e+02   5.9075386527e+01    0.1890509    0.1413398  70.52  0.001136698    1.710    0.415
        96  -9.9016     89.6352     80.6578   7.5739329133e+01   4.9313317790e+01    0.2578882     0.200049 -87.56 0.0004084113    1.967    0.492
        97  -9.5908     80.5492     79.5475   7.8450417622e+01   5.1188436484e+01     0.233293    0.1379787 -56.42  0.000505837    1.994    0.498
        98  -8.6929    124.4830     79.3916   6.5022291915e+01   4.2346134782e+01    0.1482899    0.1433714  66.26 0.0001582108    1.062    0.059
        99 -10.3467     47.9963     79.0288   9.0339955009e+01   5.6164588224e+01    0.2253571    0.1812389 -14.63 0.0003153872    1.244    0.196
       100 -11.9029     54.9044     75.2087   8.6521082257e+01   5.6100099195e+01     0.379893    0.2769819 -10.17  0.001992339    1.512    0.339
       101  -9.1903     31.3488     79.2320   9.7028909322e+01   5.7925060331e+01    0.1328072   0.08815049 -24.08 0.0005282277    1.559    0.359
       102 -11.2888      6.9634     76.5948   1.0635852791e+02   6.0341571229e+01    0.4282898      0.22777  50.58  0.002049611    2.869    0.651
       103  -9.9422    176.6338     76.8701   5.2794015819e+01   3.0669197973e+01     0.248272      0.20025  49.36  0.001297803    1.313    0.238
       104 -10.3030     22.1563     76.8477   1.0018042209e+02   5.9261208075e+01    0.1856346    0.1629102 -69.59 0.0003986512    1.257    0.205
       105 -10.4658     70.0351     75.3433   8.0859929540e+01   5.3826068782e+01    0.2400214    0.1931208 -45.17 0.0002325962    1.228    0.186
       106 -11.1247     15.6390     75.5494   1.0256169519e+02   6.0037662209e+01    0.3381672    0.2335658 -12.10  0.001978554    1.554    0.357
       107 -10.1714     42.3518     74.6924   9.1346083442e+01   5.7782973620e+01    0.2745829    0.1528154  39.40  0.001307519    2.105    0.525
       108 -10.2513     36.7051     74.0822   9.3471781729e+01   5.8535364671e+01    0.4064776    0.1918871 -59.60  0.001661433    2.161    0.537
       109 -10.5087     33.1340     73.1450   9.4683824689e+01   5.9104320850e+01    0.7031012    0.3239059   0.91  0.002573766    3.896    0.743
       110 -12.7496    105.8306     70.8570   6.7558918302e+01   4.8003314524e+01    0.3064547    0.2934816 -80.40 0.0005593008    1.177    0.151
       111  -9.8322     93.3977     72.2181   7.1829033514e+01   5.0273155573e+01    0.3284043    0.1717191  61.56  0.001102987    3.592    0.722
       112 -10.7598     80.5239     68.4731   7.4888817244e+01   5.3411246686e+01    0.5041274    0.3883754  59.47  0.002576081    1.671    0.401
       113 -10.5146     45.5198     69.4412   8.8498749674e+01   5.8529606119e+01    0.2508011    0.2135359 -37.24  0.001001699    1.082    0.075
       114 -10.2505     10.1458     70.1906   1.0363146849e+02   6.1589778447e+01    0.1908359    0.1401896 -39.89  0.000520248    1.129    0.115
       115 -11.0452      3.6049     67.2926   1.0578107376e+02   6.2594190379e+01    0.3757522    0.2054236  37.61  0.002013852    2.380    0.580
       116 -10.2869     51.4217     66.3135   8.5116311632e+01   5.8419962975e+01    0.2924045    0.1781406 -22.37 0.0007954679    1.875    0.467
       117 -11.6730     97.0814     63.9321   6.7918009513e+01   5.1072207511e+01    0.3465258    0.2386198  32.60 0.0003526595    1.485    0.327
       118 -10.5241     62.7717     62.1816   7.9252342686e+01   5.7594279357e+01    0.3056536    0.1891723 -43.52   0.00152183    1.567    0.362
       119  -9.1164     92.7258     61.3033   6.8391192571e+01   5.2414433764e+01    0.1326531    0.1148737 -80.25 0.0002062173    1.539    0.350
       120 -10.9594     15.2170     63.8459   9.9858982085e+01   6.2635894112e+01    0.3673868    0.2827478 -43.79  0.001110131    1.061    0.058
       121 -10.3474     39.5358     60.3074   8.8118963330e+01   6.1111519563e+01    0.4226484    0.1862694 -25.58  0.001525246    3.577    0.720
       122 -12.8014     20.9361     57.7604   9.5580338375e+01   6.3472553958e+01    0.3920646    0.3001281 -22.09 0.0007678745    1.165    0.142
       123 -10.3060     10.4551     59.0500   1.0073259314e+02   6.3973144243e+01    0.2398882    0.1795688 -25.91 0.0009697186    1.193    0.162
       124 -10.6642      5.8012     56.9114   1.0231016193e+02   6.4701924149e+01    0.3534357    0.1842713 -18.23  0.001094277    2.051    0.512
       125  -9.7889     85.3370     59.2659   7.0095841038e+01   5.4213614024e+01    0.1831667    0.1343022  23.66 0.0002759846    1.416    0.294
       126 -11.6642     86.9870     54.3372   6.7803402323e+01   5.4739204247e+01     0.578976     0.374211  13.38  0.002146071    2.071    0.517
       127  -9.2782    109.5159     58.3832   6.2386909306e+01   4.9396227712e+01    0.1429759    0.1318795  33.43 4.765509e-05    1.031    0.030
       128  -9.3547     48.3368     58.2911   8.3711336969e+01   6.0417343451e+01    0.1387345   0.09290316 -12.95 0.0004264129    1.640    0.390
       129 -10.1196     71.7858     56.6850   7.3927768916e+01   5.7132251509e+01    0.2195243    0.1632326 -29.76 0.0005056369    1.305    0.234
       130 -10.0459     32.6372     56.0903   8.9765340348e+01   6.2710798681e+01     0.257693    0.1476258 -28.06  0.000943866    1.725    0.420
       131 -10.3069     96.4900     55.9584   6.5363310458e+01   5.2563381932e+01    0.2221274    0.1811709  39.26 0.0005252501    1.172    0.147
       132 -11.1792    114.4864     53.4555   5.9386815783e+01   4.9085530852e+01    0.2932093    0.2570406  -9.53 0.0007006128    1.219    0.180
       133 -12.2490     66.9356     52.6982   7.4285817607e+01   5.8656163871e+01    0.4008367    0.2165742  32.70    0.0007837    1.860    0.462
       134 -11.3619    105.9953     50.2574   6.0595224285e+01   5.1455251344e+01    0.3215597    0.2034242 -31.20 0.0006066566    1.671    0.401
       135 -10.0438    149.2714     51.9926   5.0996202040e+01   4.1171001925e+01    0.2511472    0.1923406  59.91 0.0006418077    1.237    0.192
       136 -10.5706     37.4944     49.4334   8.5299589200e+01   6.3447352407e+01    0.4366753    0.2431205 -16.33  0.002061251    2.234    0.552
       137 -10.7962    120.7198     49.7326   5.6560491880e+01   4.8237290336e+01    0.4715083    0.2665994 -61.04  0.001835022    2.923    0.658
       138 -10.1717      4.4546     50.4438   1.0121114717e+02   6.6110608223e+01    0.2932609     0.112325 -34.57  0.001277215    2.350    0.574
       139 -10.6589      9.9949     48.0724   9.7830677221e+01   6.6245236898e+01    0.3275527    0.1947144  13.54  0.001680672    1.793    0.442
       140  -9.2226     76.2688     49.6097   6.9726638668e+01   5.7545677963e+01    0.1296278    0.1092105 -69.92 0.0003872004    1.714    0.417
       141  -9.7383     52.8828     48.2267   7.8191209073e+01   6.1634903952e+01    0.2597117    0.1545697  28.17  0.001335763    1.675    0.403
       142  -9.4689    154.6372     47.2342   4.8584978509e+01   4.0566577190e+01    0.1943415    0.1777058 -44.76  0.000779754    1.149    0.130
       143  -9.4716    152.3941     44.5947   4.8222326731e+01   4.1472896267e+01    0.1824613    0.1209945  54.92 8.496792e-05    1.424    0.298
       144 -10.2999    136.6302     46.9264   5.2026030655e+01   4.4922392791e+01    0.2692511    0.1993648  69.93 0.0008196745    1.376    0.273
       145  -9.2671     79.2772     45.6901   6.7209531737e+01   5.7613192789e+01    0.1229647    0.1099767 -77.38 0.0002348236    1.557    0.358
       146  -9.4040     36.6022     45.2343   8.4169194739e+01   6.4319547197e+01    0.1778058    0.1014953 -34.33 0.0005181218    1.581    0.368
       147  -9.8269     36.0485     41.3607   8.2955724762e+01   6.5070474395e+01    0.1993969    0.1499255 -28.92 0.0007491937    1.166    0.143
       148 -10.4259     25.7442     43.7651   8.8726952238e+01   6.5766694897e+01    0.2772536    0.1761204 -62.45  0.001328989    2.193    0.544
       149 -11.0090     18.5001     44.4063   9.2475890069e+01   6.6311553218e+01     0.396956    0.2193605  23.27  0.002221389    1.909    0.476
       150 -10.1160      3.3662     42.8744   9.9552596097e+01   6.7678046181e+01    0.3563743    0.1127549 -38.55  0.001588649    2.567    0.610
       151  -9.2284    100.3297     43.6924   5.9872150972e+01   5.3653941600e+01    0.1428498    0.1292904  28.18 0.0003176089    1.019    0.019
       152  -9.9508     99.2338     40.2651   5.8942466666e+01   5.4372791935e+01    0.2359942    0.1855793 -26.35 0.0006083391    1.341    0.254
       153  -9.7234     69.2544     42.0343   6.9367815718e+01   6.0009692904e+01    0.1797494    0.1588071  -8.86            0    1.082    0.076
       154 -10.2875     59.2331     41.7277   7.3092115564e+01   6.1746970396e+01     0.242287    0.1624537  44.56 0.0006275028    1.666    0.400
       155 -10.1029    170.4377     40.1745   4.3967589246e+01   3.7733504711e+01    0.3711176    0.2197089 -87.34  0.001459343    2.120    0.528
       156 -10.3392    139.3443     40.5420   4.9479709585e+01   4.5150001941e+01    0.2285707    0.2095024 -89.00 0.0005219609    1.104    0.095
       157 -11.0092    128.2417     38.9110   5.1262477904e+01   4.7997144741e+01    0.3343379    0.2091965 -48.40 0.0009349215    1.819    0.450
       158  -9.3880     42.9586     40.8040   7.9597909622e+01   6.4291865464e+01    0.1619433    0.0929148  28.74 0.0006522688    1.722    0.419
       159  -9.8048    151.9895     39.0008   4.6651116675e+01   4.2317512586e+01    0.1653423     0.152778  78.81 0.0004474055    1.011    0.011
       160 -11.8586    121.0858     37.0367   5.2233470718e+01   4.9911077330e+01    0.4490272    0.3832157 -43.25  0.001638557    1.281    0.219
       161 -10.5175     22.1521     38.3447   8.8494836890e+01   6.7098319985e+01    0.2095468    0.1589055 -43.28 0.0006867468    1.312    0.238
       162  -9.3087     50.6620     38.3346   7.5257150122e+01   6.3612204889e+01    0.1157927    0.1059559  83.45 0.0004999528    1.748    0.428
       163  -9.2292    239.0252     37.4761   3.5342945207e+01   2.2802530490e+01    0.1668416    0.1098918  76.99 0.0006782116    1.516    0.340
       164  -9.8865    229.8287    247.8626   7.8942626475e+01  -9.6142381165e+00    0.1725348    0.1260195  -1.89 0.0004498317    1.099    0.090
       165 -10.1687      7.2669     34.2700   9.4695053833e+01   6.9056622737e+01    0.2056733    0.1815908  19.98  0.001046212    1.439    0.305
       166  -9.5400    133.4769     34.7816   4.8838010262e+01   4.7286548648e+01    0.1672083     0.130586   3.97 0.0005391195    1.606    0.377
       167 -10.6388     92.3927     32.7959   5.8127280961e+01   5.6819012420e+01    0.2714817    0.1799132  40.93  0.001082305    1.371    0.270
       168 -10.9696     48.4733     33.0476   7.4008146134e+01   6.4757146469e+01    0.4310216     0.251543  36.77  0.001785416    1.699    0.412
       169 -11.2096     27.5191     34.3875   8.4289456440e+01   6.7238556723e+01    0.2900476    0.1740656 -17.12 0.0009178375    1.672    0.402
       170 -10.3280     55.2094     33.0851   7.1194279893e+01   6.3715309090e+01    0.1873846    0.1455857  -0.35  0.000298404    1.180    0.153
       171 -10.1407     17.6081     32.4233   8.8543058912e+01   6.8560281727e+01    0.2916705    0.1440411   6.74  0.001081973    2.365    0.577
       172 -10.2771     73.0406     31.9488   6.3973309597e+01   6.0778620605e+01    0.2006571    0.1715411  19.23  0.000452163    1.018    0.017
       173 -10.1208     69.9123     28.2356   6.3540901011e+01   6.1849405865e+01    0.3592093    0.1698486 -41.79   0.00163491    2.547    0.607
       174  -9.1394    166.6864     31.6812   4.2208089606e+01   3.9706058008e+01    0.1329712   0.09847238  37.22 0.0005172248    1.649    0.394
       175  -9.4079    162.6215     31.7105   4.2821699090e+01   4.0675901646e+01     0.139371   0.09451474  40.56 0.0007018349    1.736    0.424
       176  -9.9841    144.0212     31.0153   4.5671255780e+01   4.5227100159e+01    0.2012164    0.1840903  89.77 0.0003593321    1.076    0.070
       177  -9.9920    126.9237     30.4580   4.8772992542e+01   4.9359521715e+01     0.203789    0.1221645  60.02 0.0003993394    1.510    0.338
       178  -9.5389    135.5156     29.4876   4.6757911927e+01   4.7440051037e+01    0.1353602    0.1216045  60.24  0.000141315    1.024    0.023
       179  -9.5215     35.1304     28.9098   7.8298296473e+01   6.7225412097e+01    0.1686597    0.1178676 -11.94            0    1.300    0.231
       180  -8.8626     24.9751     30.0000   8.3768332400e+01   6.8240877254e+01    0.1839907   0.06297336  28.07 0.0008012605    2.934    0.659
       181 -11.5112     10.2559     29.8105   9.1438330265e+01   6.9632067830e+01    0.3229001    0.1897133  30.75  0.001932533    2.010    0.503
       182  -9.5388    140.2399     27.3797   4.5229711623e+01   4.6556253670e+01    0.2377524    0.1541316 -55.97  0.001203105    1.785    0.440
       183  -9.3689    151.1745     29.5839   4.4020156754e+01   4.3679077523e+01    0.1813844    0.1123527  54.98 0.0004286287    1.494    0.331
       184 -10.0208    113.9484     26.4027   5.0210738775e+01   5.2840243387e+01    0.2133745     0.175762 -40.71  0.000628769    1.361    0.265
       185 -10.0223      2.5573     26.8240   9.4559842182e+01   7.0701264124e+01    0.2244335    0.1196791  -8.36 0.0007400412    1.895    0.472
       186  -9.6374     59.4795     25.5004   6.6244470684e+01   6.4060163593e+01    0.2062891    0.1109257 -42.90 0.0007707065    2.312    0.567
       187  -9.2309     52.6602     26.2415   6.9303427056e+01   6.5090177530e+01    0.1090419   0.09751924  53.05 0.0002573777    1.556    0.357
       188 -10.6136      3.5353     35.5524   9.7126054409e+01   6.9063022038e+01    0.1917948    0.1519522  -8.39 0.0008094847    1.206    0.171
       189  -9.3643    220.3698     25.7233   3.4540104668e+01   2.8160230040e+01    0.1328544   0.07607993 -69.74 0.0007007524    1.684    0.406
       190  -9.6720    102.5158     25.5246   5.2638515078e+01   5.5511763191e+01     0.132429     0.117922  42.69 5.598117e-05    1.017    0.016
       191 -10.3939    225.1241    247.3678   7.9714210932e+01  -8.9656902127e+00    0.2164139    0.1541047 -28.50  0.001430522    1.391    0.281
       192  -9.5315    170.8003    247.1534   9.0171988196e+01  -1.5225761004e+00     0.175307    0.1325996   3.83 0.0006934719    1.331    0.249
       193  -9.0913     20.3963     17.8423   8.0798543693e+01   7.0617299696e+01    0.3191446    0.1541713 -29.66  0.001483504    1.898    0.473
       194  -9.4700    116.1195    246.7995   1.0149014042e+02   6.6688500896e+00    0.1609122    0.1449231   0.66  0.001043748    1.292    0.226
       195  -9.5191      7.6868     14.2354   8.6308571812e+01   7.2384056297e+01     0.155147   0.09245739 -36.44 0.0001834974    1.436    0.304
       196 -10.4488     77.5314     22.5934   5.8616718241e+01   6.1084936029e+01    0.2024544    0.1801705 -54.59 6.433013e-05    1.493    0.330
       197  -9.9128     33.8945    247.4433   1.1831157768e+02   1.7474140466e+01    0.1672383   0.09698343  40.53 0.0003694767    1.527    0.345
       198  -9.2880     34.6530     23.6767   7.6212630484e+01   6.8068092239e+01    0.1298663   0.07987799  -2.66   0.00070497    1.742    0.426
       199 -11.2516      3.1733    248.1882   1.2403760924e+02   2.0536737679e+01    0.5081169    0.2322986  58.38  0.003037642    1.692    0.409
       200  -9.4040      6.3216     20.6536   8.9948610198e+01   7.1481342569e+01    0.2373429    0.1365372 -17.00  0.001317856    1.570    0.363
       201 -10.3926    229.6698     21.5147   3.2850782789e+01   2.6706388190e+01    0.4519863    0.1950995 -74.70  0.001986965    2.889    0.654
       202  -9.3887    225.6971     22.6936   3.3426575921e+01   2.7395116949e+01    0.1918677   0.09730341  64.42 0.0006552942    1.979    0.495
       203 -10.4407    181.0048     21.3301   3.7585237460e+01   3.7522212581e+01    0.2396191    0.1586127  19.56  0.001166356    2.643    0.622
       204  -9.7815     97.2270     21.9969   5.2674288266e+01   5.7061299461e+01    0.1919466    0.1512397  31.26  0.001137359    1.195    0.163
       205  -9.2455    100.8240     21.2075   5.1458301878e+01   5.6359101707e+01     0.251927    0.1308166  40.93  0.001199807    1.824    0.452
       206 -10.9902     54.7332     21.9697   6.6559367977e+01   6.5313539061e+01    0.2294434    0.1567704  34.40 0.0004979988    1.326    0.246
       207  -9.4431    173.3024     21.2960   3.8516311798e+01   3.9336539956e+01    0.1251037   0.09337716  43.32 0.0002512962    1.578    0.366
       208  -9.5418    164.9868     21.0174   3.9526319006e+01   4.1339779287e+01    0.1545332    0.1400782 -82.92  0.000443777    1.066    0.062
       209  -9.7064    132.0690     20.7242   4.4608354936e+01   4.9227590986e+01    0.1839785    0.1561474  60.99 0.0004893637    1.043    0.041
       210  -9.3542     92.6237     21.1725   5.3582725874e+01   5.8141699480e+01    0.1670079    0.1187005  -3.22 0.0002701625    1.601    0.376
       211  -9.2757     84.3473     21.2662   5.5970639634e+01   5.9864012477e+01    0.1359278   0.08481434  29.31 0.0003743118    1.612    0.380
       212  -9.8012     45.7898     21.0908   6.9911897378e+01   6.6850230190e+01    0.1718135    0.1542796  13.74 0.0009226507    1.246    0.197
       213 -10.4497     30.2462     21.1776   7.7231987234e+01   6.8989592952e+01    0.2526478    0.1441116  23.64  0.001454204    1.653    0.395
       214  -9.7048    214.6618     20.2911   3.3872316562e+01   3.0033436867e+01     0.131699   0.07588848 -68.35 0.0003947503    1.643    0.391
       215 -10.7923     38.2719     18.9761   7.2326096722e+01   6.8231034832e+01    0.2814659    0.1809607  41.70  0.001196353    1.774    0.436
       216  -9.1423    120.5196     19.4817   4.6413160545e+01   5.2067771951e+01    0.1332349     0.114541  50.23 -3.75158e-05    1.054    0.051
       217  -9.9644     60.3064     18.9814   6.3048059203e+01   6.4724459945e+01    0.3369288    0.1232325  37.59  0.001428491    2.599    0.615
       218  -9.1501    141.3197     18.3016   4.2254641169e+01   4.7278580048e+01    0.1343023   0.08991254  40.17 0.0007025283    1.625    0.385
       219  -9.5116     68.3084    245.3192   1.1131024428e+02   1.3683934432e+01    0.1100303   0.09658417 -20.03  0.000324274    1.639    0.390
       220  -9.7021    145.7212     17.0615   4.1180828098e+01   4.6354478732e+01    0.1660229    0.1608483  78.84 0.0003196951    1.121    0.108
       221  -9.2043    202.3365    240.3163   8.2854062617e+01  -4.9490695713e+00    0.1308112      0.08356  -0.28 0.0007047986    1.697    0.411
       222  -9.6870     89.5092     13.4518   5.1377861701e+01   5.9591869536e+01    0.1802681     0.173261  -9.52 0.0005881117    1.200    0.167
       223  -9.2559     70.3000     17.6058   5.8878424852e+01   6.3047354803e+01    0.1174809    0.0989541 -64.96 7.783504e-05    1.806    0.446
       224  -9.7525     26.9519     16.7228   7.6810063609e+01   7.0024048673e+01    0.1641782    0.1216121  14.29 0.0006060376    1.189    0.159
       225  -9.7966     35.9905    240.4590   1.1743932155e+02   1.8643244187e+01    0.1752297    0.1007561  39.74 0.0005343461    1.568    0.362
       226  -9.6233    168.8493     14.8226   3.7358771872e+01   4.1078128279e+01    0.1750741    0.1312969 -72.94 0.0002707615    1.292    0.226
       227  -9.5462    226.4217    164.0348   6.4156303635e+01   4.2699798819e+00    0.2101349    0.1180706 -37.51 0.0007606986    1.564    0.361
       228  -9.8606     90.9564    237.1066   1.0572885538e+02   1.2216884668e+01    0.1809571    0.1528959 -21.81 0.0008191821    1.600    0.375
       229 -11.0730     25.1001    236.1663   1.1930079961e+02   2.0732002578e+01    0.2101417    0.1300404  48.56 0.0003865323    1.365    0.268
       230  -9.6838    249.2658    233.7518   7.3198953764e+01  -1.0041489660e+01    0.1586122    0.1058274  -4.03 0.0005680602    1.285    0.222
       231 -11.4816     10.0161    231.5081   1.2196031549e+02   2.3242817853e+01    0.3102902   0.09535956  39.28  0.001200721    2.568    0.611
       232 -11.8705      2.9188    225.7867   1.2302916143e+02   2.5113854520e+01     0.605959    0.1292133  44.20  0.002652259    3.126    0.680
       233 -10.1452     72.4792     13.4676   5.6365726799e+01   6.3064180360e+01    0.1282131     0.103102  27.42 0.0008087995    1.056    0.053
       234  -9.4726     47.7729    229.8262   1.1423451857e+02   1.9480381872e+01    0.1735464    0.1146035  62.25 0.0003132079    1.322    0.244
       235 -11.6466      9.3931    227.7928   1.2187960907e+02   2.4082624340e+01    0.2775924    0.2376903 -70.42   0.00183649    1.406    0.289
       236  -9.8588    209.4816    229.5347   7.9693731110e+01  -4.2875492775e+00    0.1272424    0.1043819   1.70 5.194741e-05    1.002    0.002
       237  -8.8663    205.3187    229.7027   8.0524824326e+01  -3.7261423916e+00    0.1113504    0.1008927  54.51  0.000218705    1.614    0.380
       238 -11.0350    140.2769    228.0857   9.3778509829e+01   6.4961244211e+00    0.3026257    0.2236641 -70.66  0.001635828    1.774    0.436
       239  -9.4907     57.3019    229.6913   1.1220622518e+02   1.8327503386e+01    0.1335761   0.07968626  63.78 0.0002936534    1.602    0.376
       240  -9.9679    223.1756    226.8378   7.6652952596e+01  -5.7577176954e+00    0.1748008    0.1221105  -4.62 0.0003770087    1.325    0.245
       241  -8.9893    167.3051    221.6667   8.6920531091e+01   3.3958511258e+00    0.1282463    0.1063321  67.99 0.0007038575    1.663    0.399
       242  -8.9088    114.3302    221.3518   9.8595017631e+01   1.1942721369e+01    0.1373123    0.1055433 -12.23 0.0007047274    1.773    0.436
       243 -10.4558      2.2977    220.0957   1.2285762107e+02   2.6382777952e+01    0.2859668    0.1163726 -89.32  0.000991552    2.210    0.548
       244  -9.3561    233.3699    218.8097   7.3393533195e+01  -5.9090707241e+00    0.1699235   0.09776972 -26.12 0.0004854649    1.585    0.369
       245 -10.7171      8.2566    218.2211   1.2156830773e+02   2.6242486449e+01    0.2190334    0.1887771 -71.54  0.001037397    1.360    0.265
       246  -9.4053     99.4336     14.4412   4.9252153069e+01   5.7349360961e+01    0.1287602    0.1098306  43.16 8.908669e-05    1.015    0.015
       247  -8.8564     85.6910    215.2948   1.0436084909e+02   1.7596658794e+01    0.1407311   0.09325433  64.05 0.0002501429    1.589    0.371
       248  -9.7025    205.5764    212.6958   7.7511084436e+01  -9.8654210165e-01     0.167284    0.1212955 -43.78 0.0009370251    1.518    0.341
       249  -9.7584     15.7338    213.5323   1.1974552805e+02   2.6560917568e+01    0.1666075   0.09141763  48.75 0.0009400147    1.600    0.375
       250  -9.5619     20.3824    209.7069   1.1849908548e+02   2.6959585523e+01     0.197016     0.106644  64.75  0.000570927    1.684    0.406
       251  -9.7507    124.0032    205.9728   9.4082319550e+01   1.3652715861e+01    0.1963424    0.1840912  34.09            0    1.031    0.030
       252  -9.9998      3.3435    206.3180   1.2188489755e+02   2.9315871211e+01    0.1125802    0.0824927 -51.99 0.0007049068    1.719    0.418
       253  -9.2484     10.6793    203.7025   1.2017054828e+02   2.9252556740e+01    0.1123897   0.08603575 -52.09  0.000702073    1.618    0.382
       254  -9.4349    193.4998    202.4793   7.8058446935e+01   2.6906316358e+00    0.1361497    0.1225544  -1.69 0.0001825989    1.039    0.038
       255 -10.5467      3.5882    201.2591   1.2153171414e+02   3.0436650232e+01    0.1700339   0.09098892 -69.93 0.0009478658    1.674    0.403
       256  -9.5147     24.4845    195.9766   1.1653371598e+02   2.9720312017e+01    0.1936724    0.1093015 -79.66  0.001005758    1.564    0.361
       257  -9.6486     13.9322    192.5243   1.1866778428e+02   3.1544415927e+01    0.1659168    0.1114432  42.07 0.0006085769    1.499    0.333
       258  -9.8064      5.9078    192.0889   1.2043965108e+02   3.2350933501e+01    0.1960184    0.1360706  73.72  0.001045174    1.212    0.175
       259  -9.7485      1.2693    191.2164   1.2140996946e+02   3.2937272742e+01    0.1727367    0.0861541 -89.23  0.000502393    1.708    0.414
       260  -8.8862      7.3237    188.2889   1.1985913196e+02   3.3122088685e+01    0.1162472   0.08531661 -51.46 0.0003455277    1.607    0.378
       261  -9.2339     22.0484    179.9923   1.1572228485e+02   3.3796361446e+01    0.1541374    0.1319897  79.00 0.0005311717    1.064    0.060
