#   1 NUMBER                 Running object number                                     
#   2 MAG_AUTO               Kron-like elliptical aperture magnitude                    [mag]
#   3 X_IMAGE                Object position along x                                    [pixel]
#   4 Y_IMAGE                Object position along y                                    [pixel]
#   5 X_WORLD                Barycenter position along world x axis                     [deg]
#   6 Y_WORLD                Barycenter position along world y axis                     [deg]
#   7 A_WORLD                Profile RMS along major axis (world units)                 [deg]
#   8 B_WORLD                Profile RMS along minor axis (world units)                 [deg]
#   9 THETA_WORLD            Position angle (CCW/world-x)                               [deg]
#  10 FWHM_WORLD             FWHM assuming a gaussian core                              [deg]
#  11 ELONGATION             A_IMAGE/B_IMAGE                                           
#  12 ELLIPTICITY            1 - B_IMAGE/A_IMAGE                                       
         1 -14.6002    193.6672     33.4777   5.8723908667e+01   3.2163937366e+01     1.881051      1.44219  20.87   0.00792589    1.909    0.476
         2 -14.8104    203.9615     21.2489   5.4738755718e+01   3.1220598501e+01     1.757645     1.369982  23.27  0.003319748    1.900    0.474
         3 -10.2221    170.9480     20.0080   5.7345059654e+01   3.9130240609e+01     0.202755    0.1541537  41.40  0.000572476    1.636    0.389
         4 -11.8005     32.8845     11.3369   9.0769226286e+01   7.3721654660e+01    0.2539921    0.1842307 -21.67  0.000972675    1.402    0.286
         5 -12.1225     42.3583      3.0720   7.9476932785e+01   7.3015714006e+01    0.5137576    0.2529841  61.81   0.00223632    2.577    0.612
         6 -11.4057    183.1977    234.3616   1.0328808850e+02   2.9219219155e+00    0.3470917    0.1792138  40.76  0.001892205    2.138    0.532
         7 -14.1716     74.2651    160.1095   1.1825453547e+02   3.3190422505e+01     1.384297    0.7623413  44.83  0.006078868    1.698    0.411
         8 -15.1950     67.9266    144.1388   1.1773496455e+02   3.8082904341e+01     5.823405     2.791772  59.63   0.02026198    2.979    0.664
         9 -10.8957    210.7840    179.2964   8.9250388144e+01   7.0089844768e+00    0.4154525    0.2691992  -2.06  0.001367621    1.665    0.399
        10 -10.9947    145.2295    179.2044   1.0251608422e+02   1.7395392478e+01     0.389605    0.2774423  -0.13  0.001956559    1.694    0.410
        11 -11.1024    204.3687    198.9548   9.3834732268e+01   5.0655685645e+00     0.200381    0.1549221  29.01  0.001005894    1.331    0.249
        12 -10.3082     59.0097    176.7346   1.2490126968e+02   3.1286229889e+01    0.2613613    0.2163472  35.46 0.0005261044    1.127    0.113
        13 -10.3407    192.9735    164.1001   8.9610796671e+01   1.2095105947e+01     0.332036    0.2400363 -50.40  0.001832852    1.700    0.412
        14 -11.1432     46.1934    172.7657   1.2817444493e+02   3.3799320409e+01    0.4436888    0.2887448  35.85  0.002292617    1.378    0.274
        15 -11.0393    133.1820    172.3745   1.0417275628e+02   2.0778311727e+01    0.3691115    0.1912153  31.01  0.001522907    1.872    0.466
        16 -10.7391    137.4928    170.4908   1.0277984931e+02   2.0413502234e+01    0.3492492    0.3144616  81.99  0.001892282    1.394    0.282
        17  -9.3762    139.3667    167.7166   1.0181283318e+02   2.0641915113e+01    0.2256715    0.1990538  33.85 0.0006078227    1.079    0.074
        18 -11.1789    195.5867    170.0089   9.0258277066e+01   1.0723278318e+01    0.3755854    0.3075305 -38.50  0.001179013    1.331    0.248
        19  -9.5178    177.3071    169.6573   9.3749837516e+01   1.3747830719e+01    0.1245895    0.1102336  87.84 0.0006168783    1.690    0.408
        20 -10.4860    145.9741    168.4801   1.0038426636e+02   1.9334028777e+01    0.2120054    0.1921898 -30.54  0.000437601    1.158    0.136
        21 -15.2321     11.7142    206.4479   1.3966703162e+02   2.9557347104e+01     1.142155    0.5471654  22.25  0.004370154    2.072    0.517
        22 -10.3242     99.4876    180.7623   1.1421675780e+02   2.4563829504e+01    0.2571357    0.2126459  17.31 0.0006030529    1.239    0.193
        23 -10.8292    189.6935    154.8659   8.8397404654e+01   1.4170592984e+01    0.3910231    0.3375089   6.05   0.00173381    1.085    0.079
        24 -10.2993    139.9680    156.7019   9.9535797919e+01   2.2760813704e+01    0.2333456    0.2118967 -63.31 0.0004346789    1.272    0.214
        25  -9.7593    164.4216    205.8822   1.0275625908e+02   9.6866879383e+00    0.2028795    0.1448062 -28.83 0.0004838687    1.469    0.319
        26 -12.4094    193.7214    194.6371   9.5060640044e+01   7.1835463316e+00    0.8612039    0.5032739 -53.75  0.004201347    2.814    0.645
        27 -11.1461    133.6801    143.9633   9.8468463014e+01   2.6596492613e+01     1.064518    0.2816847 -52.96  0.002731652    5.337    0.813
        28 -10.7376    174.4555    148.3063   9.0049413418e+01   1.8009327590e+01    0.3490788     0.261793 -46.35  0.001157195    1.421    0.296
        29 -10.2976    144.2742    146.7150   9.6432135236e+01   2.3989116645e+01    0.3638897    0.2297823 -68.47  0.001461906    2.594    0.614
        30 -11.1485    105.1108    141.5087   1.0574742820e+02   3.2548108501e+01     0.604242    0.3885207 -19.43  0.002357733    2.514    0.602
        31 -12.4011     92.6629    142.1636   1.0958705255e+02   3.4610603609e+01    0.2954331    0.2708563 -28.45  0.000406287    1.199    0.166
        32 -13.8143     31.6701    206.2909   1.3474640003e+02   2.7702454899e+01    0.9221756    0.2768242  45.45  0.001317604    2.513    0.602
        33  -9.4445     97.2246    138.8012   1.0753410072e+02   3.4615849557e+01    0.2294838    0.1970313  61.89  0.001164605    1.212    0.175
        34 -10.4080    113.2740    131.5170   1.0124122420e+02   3.3314819148e+01    0.3478071    0.2661814  19.05 0.0008272105    1.494    0.331
        35 -11.8428    119.1760    126.1522   9.8337604829e+01   3.3355749781e+01     1.017007    0.5484492 -35.50  0.003882917    2.284    0.562
        36 -10.3820    106.0173    130.7948   1.0319309127e+02   3.4883752237e+01    0.3585962    0.3149107  78.14  0.001290149    1.267    0.211
        37 -10.7895    160.6061    128.1108   8.8517587547e+01   2.4444914671e+01     0.399831    0.2362577 -35.04  0.001770345    1.752    0.429
        38 -11.1957    135.7066    128.2713   9.4431818141e+01   2.9518900185e+01    0.4821835    0.2019026 -49.97  0.001704899    2.593    0.614
        39 -10.7669    135.0000    120.0130   9.2625994445e+01   3.1407389838e+01    0.3319155    0.1949267 -47.79  0.001101976    1.759    0.431
        40 -11.0740    100.6559    127.9479   1.0417224352e+02   3.6573621947e+01    0.3240722    0.2668648 -13.85 0.0007936466    1.479    0.324
        41 -10.3918    125.8968    127.5372   9.6822520821e+01   3.1684617372e+01     0.363795    0.2562503  86.80  0.001041409    2.309    0.567
        42  -9.9091    109.0404    120.0264   9.9794593444e+01   3.6792649212e+01    0.2259784    0.2145296  43.44 0.0003238193    1.017    0.017
        43 -11.1293     23.7907    116.6705   1.2936371199e+02   5.0483755532e+01    0.2394256    0.1933351 -85.21 0.0004426946    1.177    0.150
        44  -9.8007    110.3137    115.8428   9.8387729958e+01   3.7493548703e+01    0.2422353    0.2056271  55.36 0.0003614441    1.192    0.161
        45 -10.2225    167.7559    112.5946   8.3297426023e+01   2.5873396872e+01    0.3548327    0.2639584 -78.09  0.001662052    1.911    0.477
        46  -9.6505    180.1276    192.4420   9.7319011206e+01   9.5188768889e+00    0.1837152    0.1786411  -6.74 0.0006610608    1.332    0.249
        47 -11.8711    119.0672    110.4325   9.4471816546e+01   3.6869007055e+01    0.5484139    0.4466528  78.76  0.002609769    1.482    0.325
        48 -10.2586    205.4689    110.1664   7.6004234664e+01   1.8657295616e+01    0.2713591    0.1910863  39.72 0.0009453135    1.588    0.370
        49 -17.0497     54.6806    204.3312   1.2878515196e+02   2.5577452981e+01     11.10884     4.616921  42.85   0.05051422    1.942    0.485
        50  -9.7291    190.6564    217.3073   9.9342555948e+01   4.3071593123e+00    0.1075949   0.09160564  45.63 0.0007043222    1.693    0.409
        51 -10.5366    134.3322    104.2802   8.8752344224e+01   3.4824184762e+01    0.4714956     0.202155 -42.43  0.001687557    2.378    0.579
        52  -9.8818    167.6576    188.8230   9.9247500783e+01   1.2027655382e+01    0.2352097    0.2087066  75.18  0.001212751    1.678    0.404
        53 -10.7523    239.8735     99.5614   6.9035219181e+01   1.4037863371e+01    0.3511132    0.1428959 -50.07  0.001498366    2.903    0.656
        54 -11.3403    206.8419    181.9442   9.0421894659e+01   7.1879081650e+00    0.3390148    0.2360974 -54.57  0.001869933    2.238    0.553
        55  -9.1998    130.1870     96.2022   8.7596366453e+01   3.7410006987e+01    0.2536885    0.1799445 -85.15 0.0007495732    2.111    0.526
        56  -9.1260    166.3395     93.6724   7.8771584017e+01   2.9594369550e+01    0.1531536    0.1129313 -74.31 0.0007051637    1.733    0.423
        57  -9.1122    183.9835     77.5191   7.1456383864e+01   2.8298864025e+01    0.1987527    0.1099578  36.87 0.0008102105    2.552    0.608
        58  -9.6372     63.8316     69.9071   1.0166515618e+02   5.7208760495e+01    0.2202827    0.1985762  -8.15 0.0003711791    1.167    0.143
        59 -11.1010    159.5172     61.2224   7.1007402670e+01   3.6603991023e+01    0.3634496    0.2542636 -73.92 0.0007174482    1.666    0.400
        60 -10.7174    161.6082     54.9289   6.8806325310e+01   3.7032771118e+01    0.2722696    0.2172375 -67.35 0.0004957521    1.257    0.204
        61  -9.4349    116.9732     56.5066   7.8529498831e+01   4.8054984607e+01    0.2233154    0.1334372  82.40 0.0008096995    2.634    0.620
        62 -13.3418    184.2107     41.0339   6.1737914754e+01   3.3442357085e+01    0.8606332    0.5939229  48.68  0.001756887    1.689    0.408
        63 -10.1401    173.5029    247.9773   1.0699008644e+02   2.3136383562e+00    0.1508056    0.1070885 -30.49  0.001032139    1.588    0.370
        64 -18.0412      7.8677    240.1440   1.4167934734e+02   2.3158005427e+01     16.27263     2.162149 -82.40   0.05042882    8.213    0.878
        65 -11.5825     19.8195     51.8151   1.1862019290e+02   6.7378283870e+01    0.3504155     0.218182 -43.67   0.00179522    1.479    0.324
        66 -10.5713    163.9308    215.9104   1.0440481586e+02   8.1625527782e+00    0.2692635    0.1770117 -36.81  0.001136959    1.666    0.400
        67  -8.7173    117.2560    213.3004   1.1433289629e+02   1.5331800574e+01    0.1232095    0.0948566  -4.19 0.0001937185    1.504    0.335
        68  -9.3620    150.8047     23.5423   6.0777389962e+01   4.3850828177e+01    0.2000322    0.1218621 -88.99 0.0009327717    1.689    0.408
        69 -10.2785    196.4222    246.0181   1.0247265508e+02  -1.6433695380e-01    0.2190434    0.1216131  14.16 0.0009936828    1.561    0.359
        70 -11.0677    189.7563     15.1483   5.4307111867e+01   3.5107230229e+01    0.2293838    0.1837647 -62.80 0.0006542869    1.061    0.058
        71 -10.1514     78.2013    237.0734   1.2594568731e+02   1.6214029191e+01    0.2786764    0.1409661  41.19 0.0006920223    1.542    0.352
