#   1 NUMBER                 Running object number                                     
#   2 MAG_AUTO               Kron-like elliptical aperture magnitude                    [mag]
#   3 X_IMAGE                Object position along x                                    [pixel]
#   4 Y_IMAGE                Object position along y                                    [pixel]
#   5 X_WORLD                Barycenter position along world x axis                     [deg]
#   6 Y_WORLD                Barycenter position along world y axis                     [deg]
#   7 A_WORLD                Profile RMS along major axis (world units)                 [deg]
#   8 B_WORLD                Profile RMS along minor axis (world units)                 [deg]
#   9 THETA_WORLD            Position angle (CCW/world-x)                               [deg]
#  10 FWHM_WORLD             FWHM assuming a gaussian core                              [deg]
#  11 ELONGATION             A_IMAGE/B_IMAGE                                           
#  12 ELLIPTICITY            1 - B_IMAGE/A_IMAGE                                       
         1 -14.4613    150.8568     58.7508   8.6312254707e+01   3.9625518584e+01      1.31799     1.124695   1.73 0.0009467733    1.226    0.184
         2 -14.8959    162.1124     44.1779   7.9219176721e+01   3.8997727310e+01     1.448043     1.088215 -14.66  0.003600865    1.387    0.279
         3 -14.8614    175.8701     11.9791   6.6533780210e+01   3.9225994556e+01     1.374031     1.267718 -78.09  0.005495626    1.077    0.072
         4 -14.0258    189.9048     13.5767   6.5490237721e+01   3.5563181032e+01    0.6386219    0.5377411  31.17  0.002856432    1.312    0.238
         5 -11.2511     25.9548    172.5434   1.4438211943e+02   3.5329813262e+01    0.2587824    0.1956943  60.23  0.001075259    1.119    0.107
         6 -20.1043     77.1015    174.9791   1.3231890387e+02   2.9360697296e+01     15.34167     7.224504 -67.90   0.07358255    2.357    0.576
         7 -10.3287     17.8096    173.7600   1.4635066414e+02   3.5757320622e+01    0.1444955     0.136954  56.96 0.0006083871    1.224    0.183
         8 -11.5025    167.4164    175.2543   1.1167302773e+02   1.5746307587e+01    0.1633885    0.1264438 -47.51  0.000620983    1.598    0.374
         9 -13.0061     11.7682    206.1939   1.4906872350e+02   2.9923812881e+01    0.4760801    0.2278698  30.52   0.00298392    1.894    0.472
        10 -12.1292    230.4601    167.4225   9.8342303906e+01   6.8584430336e+00    0.3767497    0.1745828 -42.51  0.001719901    2.991    0.666
        11 -10.9218    160.2110    247.6631   1.2344949650e+02   6.6033407742e+00    0.2868313    0.1411505  22.47  0.001189816    1.897    0.473
        12 -10.3481    139.6848    250.2202   1.2743966285e+02   8.8533758340e+00    0.1628593    0.1410746  59.46   0.00131114    1.512    0.339
        13 -11.2759    139.4271    199.9446   1.2146938808e+02   1.6086771666e+01    0.3426981    0.2156345  34.13  0.001456834    1.329    0.248
        14  99.0000    136.1272    243.0524   1.2735197758e+02   1.0224665409e+01    0.5108393    0.3135959  18.90  0.002189921    1.606    0.377
        15 -11.8881    189.1310    158.3736   1.0406606275e+02   1.4783550189e+01    0.4743982    0.2776787  16.75     0.001738    1.989    0.497
        16  -9.9032     17.5128    159.0000   1.4558198225e+02   3.8916441889e+01    0.1668918    0.1527947 -62.59 0.0005263794    1.282    0.220
        17 -11.3929     17.5721    154.3157   1.4527645929e+02   3.9938325072e+01     0.433201    0.2241887 -74.51  0.002237372    1.758    0.431
        18 -11.8223    139.9579    120.2057   1.0660465769e+02   3.0665957189e+01    0.3853815    0.2196041  52.65  0.001090194    2.077    0.519
        19 -14.8923    143.8127    143.5354   1.1084808597e+02   2.5381056568e+01     1.088886     0.725292 -61.22  0.005068861    2.065    0.516
        20 -15.3827    133.6787    146.1021   1.1380226888e+02   2.6683453337e+01     1.593951    0.9632751 -52.53  0.005569109    1.860    0.462
        21 -14.2266    135.8297    128.3054   1.0951532328e+02   2.9837256976e+01     1.905525    0.4285249 -49.08  0.004925355    5.427    0.816
        22 -12.2509    134.6455    109.7081   1.0536280798e+02   3.3826787337e+01     1.188054    0.1684606 -44.03  0.002536841    7.094    0.859
        23 -10.1700     17.6342    199.7695   1.4763145148e+02   3.0631526583e+01   0.09018572   0.08055381 -11.04 0.0006894011    1.590    0.371
        24 -10.6276     22.9509    156.0655   1.4402982488e+02   3.9124758555e+01    0.1747594    0.1511059  76.16  0.000438918    1.035    0.034
        25 -10.2168    176.9763    154.9671   1.0583591566e+02   1.7427013274e+01    0.1826094    0.1688709  76.73 0.0004231452    1.551    0.355
        26 -13.6405    161.3327    153.1029   1.0879648248e+02   2.0497270552e+01    0.5169399    0.3896747  39.45  0.002222318    1.297    0.229
        27 -12.3112    174.1974    148.5620   1.0510136532e+02   1.8982030429e+01     0.379244    0.2855345 -38.79  0.001295016    1.421    0.296
        28 -10.1545      7.1059    149.8958   1.4767262350e+02   4.1668650522e+01    0.2399874    0.1251757 -43.54  0.001255907    2.579    0.612
        29 -11.9470     27.9822    145.2782   1.4189066380e+02   4.1125547450e+01    0.3757075    0.2938443  -9.89  0.002154973    1.714    0.417
        30 -11.2255    171.8248    138.0915   1.0335933144e+02   2.1201641795e+01    0.2001899    0.1962237  22.33 0.0004929237    1.225    0.184
        31 -11.2972    127.0024    250.4018   1.2977155375e+02   1.0391992678e+01     0.139654     0.097771  31.88 0.0005421542    1.060    0.057
        32 -11.0833     28.2998    238.6304   1.4716604473e+02   2.2944258493e+01    0.1315254   0.09533425  65.76 0.0005123314    1.183    0.155
        33 -11.9812     21.5676    236.9561   1.4831412170e+02   2.3813085575e+01    0.1474819    0.1206352  60.14   0.00106667    1.151    0.131
        34 -13.0956    160.6189    127.9738   1.0353303632e+02   2.5142006107e+01    0.4540828    0.4103701 -45.18  0.001656276    1.251    0.201
        35  -9.5986     19.8260    125.0000   1.4244187126e+02   4.6506615101e+01    0.1790369   0.07054234  20.77 0.0007879643    2.843    0.648
        36 -12.3247    131.0593    234.6431   1.2741472838e+02   1.2015451074e+01    0.1709533    0.1586276 -38.41 0.0006965762    1.387    0.279
        37 -10.7075     17.6026    222.5444   1.4853063237e+02   2.6547081281e+01    0.0965973   0.08001485  58.60 0.0003058598    1.135    0.119
        38 -12.1894     30.7610    182.2626   1.4388103267e+02   3.2902337128e+01     0.223662    0.1913268  64.07 0.0004681793    1.051    0.048
        39 -11.1384    167.4328    112.5563   9.8283599121e+01   2.6563223716e+01    0.3059071    0.2438267 -88.05  0.001402845    1.993    0.498
        40 -11.7314     27.8561    179.7460   1.4438671417e+02   3.3674915993e+01    0.3034232    0.2188785 -29.32  0.001909998    2.062    0.515
        41 -10.8353    205.4475    110.1722   9.0218749500e+01   1.9231132717e+01    0.2986522    0.1918124  35.52 0.0009784063    1.602    0.376
        42 -11.0637    218.1460    219.7188   1.0946377490e+02   2.3721912189e+00    0.1797957    0.1219332 -38.67  0.000834041    2.082    0.520
        43 -10.2325    163.3755    249.8331   1.2312986815e+02   5.9499406626e+00     0.146049    0.1151966  15.99 0.0005077466    1.136    0.120
        44 -10.5825    143.9114     81.0928   9.5020988646e+01   3.7413286608e+01    0.2294749    0.2118648 -65.56 0.0004659827    1.250    0.200
        45 -12.5096    125.1896    240.6380   1.2915278901e+02   1.1928599103e+01    0.4297962    0.1495408 -52.84  0.002190834    3.692    0.729
        46 -11.8612     12.6736    241.5702   1.5002969189e+02   2.3840541604e+01    0.1583222    0.1394224  73.03  0.001450301    1.312    0.238
        47 -13.0331    166.3003     35.9470   7.5756122804e+01   3.9022658013e+01     0.423171    0.3955155   3.99 0.0008634116    1.081    0.075
        48 -11.1420     13.5854     59.9006   1.3629955943e+02   6.2884651141e+01    0.2088268    0.1848311  38.18 0.0005166795    1.331    0.249
        49 -12.0079    187.8805    174.7727   1.0745691494e+02   1.2510649433e+01    0.2777373    0.1657987 -45.89  0.001425983    2.145    0.534
        50 -10.7635    160.8754    240.0440   1.2244253216e+02   7.4478775593e+00     0.224821    0.1444876   9.30   0.00146153    1.643    0.391
