#   1 NUMBER                 Running object number                                     
#   2 MAG_AUTO               Kron-like elliptical aperture magnitude                    [mag]
#   3 X_IMAGE                Object position along x                                    [pixel]
#   4 Y_IMAGE                Object position along y                                    [pixel]
#   5 X_WORLD                Barycenter position along world x axis                     [deg]
#   6 Y_WORLD                Barycenter position along world y axis                     [deg]
#   7 A_WORLD                Profile RMS along major axis (world units)                 [deg]
#   8 B_WORLD                Profile RMS along minor axis (world units)                 [deg]
#   9 THETA_WORLD            Position angle (CCW/world-x)                               [deg]
#  10 FWHM_WORLD             FWHM assuming a gaussian core                              [deg]
#  11 ELONGATION             A_IMAGE/B_IMAGE                                           
#  12 ELLIPTICITY            1 - B_IMAGE/A_IMAGE                                       
         1 -14.4735    150.4925     55.3210   2.9046022422e+02   6.2291487529e+00   0.05349199   0.04752014  -5.24  0.001941564    1.183    0.154
         2 -14.8402    161.7971     40.3464   2.9023521849e+02   6.3313515731e+00   0.06358496   0.04290473 -52.80  0.004062753    1.483    0.326
         3 -14.3889    174.7233      7.3683   2.8988084800e+02   6.6295266289e+00   0.04630402   0.04512911 -11.59  0.003889961    1.031    0.030
         4 -12.2891    133.7830    247.9485   2.9183017173e+02   4.1222753936e+00   0.01272809  0.009298046 -58.22 0.0006880194    1.381    0.276
         5 -20.0401     76.4432    175.7834   2.9206837329e+02   5.3004348571e+00     0.908616    0.3575164 -64.36   0.07117374    2.729    0.634
         6 -13.5890    197.2345    173.6301   2.9063065652e+02   4.5865303314e+00   0.03969103   0.02447137 -84.76  0.002438381    2.210    0.548
         7 -11.5637    138.9168    249.6715   2.9178013826e+02   4.0711491361e+00   0.01710019   0.01136704  41.35  0.001761212    1.494    0.331
         8  -9.8550    126.5212    237.8332   2.9185437337e+02   4.2826849789e+00  0.009213129  0.006562947 -59.49 0.0005236639    1.420    0.296
         9 -10.6432     25.8345    184.9348   2.9272130479e+02   5.5036914047e+00  0.009304066  0.008385601 -17.96 0.0003025488    1.160    0.138
        10  -9.9139     13.5928    233.1133   2.9315734418e+02   5.0250265059e+00  0.007950949  0.007627563 -52.55  0.000277124    1.059    0.056
        11 -10.6682     30.4404    182.9856   2.9265511606e+02   5.4980420581e+00   0.01167201  0.009012437   4.34 3.284502e-05    1.434    0.303
        12 -11.8939     25.0376    225.8150   2.9297821361e+02   5.0392287236e+00   0.01835112  0.008390874 -50.22   0.00122342    2.176    0.541
        13 -12.0706      4.5730    178.6280   2.9293413039e+02   5.7053666246e+00   0.01951158   0.01566373   5.63  0.001467588    1.344    0.256
        14 -12.0846    157.2567    178.3457   2.9113057005e+02   4.7772618133e+00   0.01276177   0.01103084  86.53 0.0007678784    1.282    0.220
        15 -10.7317    219.2475    224.0140   2.9067818822e+02   3.8739997245e+00  0.009288941  0.008527834 -72.09 0.0004100185    1.134    0.118
        16 -13.1775    178.2154    171.9328   2.9084445321e+02   4.7225058877e+00   0.02785422   0.01674453 -73.28  0.002644059    1.945    0.486
        17 -10.7655     19.6808    222.9933   2.9302433697e+02   5.1041991706e+00  0.009932345   0.00796512 -37.95  0.001109889    1.306    0.234
        18 -11.0497    168.3038    176.0175   2.9098615914e+02   4.7363499919e+00  0.009378375  0.008685074 -64.90 0.0004027103    1.109    0.099
        19 -12.6085    148.0212    173.0115   2.9120701073e+02   4.8949590080e+00   0.01983012   0.01199122  50.54  0.001632537    1.844    0.458
        20 -13.1221    144.3771    168.8380   2.9122458954e+02   4.9651282617e+00   0.02433956   0.01517207  26.08  0.002431843    1.585    0.369
        21 -13.0552    138.5418    172.2084   2.9131392200e+02   4.9621563345e+00   0.02789541   0.01778075  70.59  0.002580876    2.201    0.546
        22 -10.6253      7.7843    220.9715   2.9315246106e+02   5.1997242443e+00  0.006763087  0.005413557 -59.29 0.0003100026    1.266    0.210
        23 -10.7939     23.7060    214.4714   2.9292528868e+02   5.1775563291e+00   0.01768768  0.007881565 -48.03  0.001485007    2.297    0.565
        24 -12.1622    202.6648    166.3727   2.9052245345e+02   4.6364612092e+00   0.02138654   0.01630109  43.35  0.001583192    1.316    0.240
        25 -11.6639    123.4806    166.4823   2.9145675874e+02   5.1199388110e+00   0.01564618   0.01059771  51.55  0.001117822    1.612    0.380
        26 -11.4512    223.9623    164.2256   2.9025849055e+02   4.5304908067e+00   0.01349157   0.01004259 -83.16 0.0007258205    1.572    0.364
        27 -10.5778     25.3396    165.1683   2.9260732685e+02   5.7336029237e+00   0.01070907  0.008782354   6.65  0.001207807    1.296    0.229
        28 -10.9398    237.5070    159.4872   2.9007009988e+02   4.5017070904e+00  0.006641478  0.006463766  36.40 5.845593e-05    1.022    0.021
        29 -10.4122     22.9588    156.2800   2.9258153928e+02   5.8501097639e+00  0.009287964  0.008347796  21.98 0.0004422523    1.097    0.088
        30 -14.3198    134.1539    145.4853   2.9120304010e+02   5.2955449332e+00   0.06109332   0.02109141 -68.95  0.004019985    4.000    0.750
        31 -14.3007    143.7189    144.0299   2.9108131947e+02   5.2537157546e+00   0.04549158   0.02705724 -88.08  0.003973241    2.495    0.599
        32 -12.6335    125.0486    246.2277   2.9192265379e+02   4.1953621839e+00   0.02495913  0.008776631 -60.50  0.001899018    2.802    0.643
        33 -13.0164    152.5117    145.4149   2.9098602433e+02   5.1840138065e+00   0.01798712   0.01623116  27.58  0.002164825    1.084    0.077
        34 -14.2965    135.9243    128.7598   2.9108027527e+02   5.4765492825e+00   0.08649419    0.0202982 -65.90   0.00452795    6.182    0.838
        35 -10.3085      1.6642    140.0206   2.9273450598e+02   6.1662012967e+00  0.008842975  0.008389422 -56.10 0.0003648907    1.073    0.068
        36 -10.6191      7.5540    138.1924   2.9265381544e+02   6.1513878389e+00   0.01077182  0.008925674  -7.90 0.0006848376    1.326    0.246
        37 -12.9845    148.6917    132.8109   2.9095429865e+02   5.3519475346e+00   0.01897586   0.01539975 -64.70  0.001954297    1.272    0.214
        38 -12.3693    160.6610    128.2967   2.9078557241e+02   5.3304194468e+00   0.01664416   0.01412389 -86.67  0.001923441    1.304    0.233
        39 -11.5673    174.4139    148.6633   2.9074751072e+02   5.0126356785e+00   0.01594132   0.01246868  65.76   0.00123367    1.467    0.318
        40 -13.2093     11.7588    205.9807   2.9301488775e+02   5.3476749198e+00   0.03038521   0.01752353  15.55  0.002276622    1.984    0.496
        41 -13.1617    163.3961    203.3274   2.9121017452e+02   4.4531377784e+00   0.02702439    0.0153812 -72.35  0.002026063    2.065    0.516
        42 -10.8642    205.3358    110.2425   2.9014858882e+02   5.2634768266e+00   0.01421044  0.009504601  19.16 0.0009874169    1.562    0.360
        43 -12.0781    159.2258    205.3828   2.9127182232e+02   4.4550737146e+00   0.01555082   0.01072805  43.79  0.001182475    1.465    0.317
        44 -11.0210    157.2022    106.0513   2.9069072116e+02   5.6066554190e+00   0.01251361  0.009049421  40.39 0.0006528248    1.365    0.268
        45 -10.3924    150.6260    246.9871   2.9162590353e+02   4.0303984205e+00   0.01004227  0.006367911 -60.65 0.0007526813    1.598    0.374
        46  -9.6391     13.6787    244.5206   2.9322526909e+02   4.8935429534e+00  0.006499634  0.006152448 -52.74   1.4676e-05    1.073    0.068
        47 -11.8053    168.9998    202.5637   2.9113949079e+02   4.4276100541e+00   0.01161281  0.009384672  88.06 0.0001569828    1.426    0.299
        48 -11.8615    137.8362    198.0630   2.9147946917e+02   4.6698515534e+00   0.03162283   0.01359093  49.37  0.002408489    2.927    0.658
        49 -11.0616     14.0000    240.8209   2.9319912552e+02   4.9340640628e+00   0.01490437  0.003818668 -62.30 0.0009406836    3.983    0.749
        50 -12.2464    153.4138    188.8305   2.9123966908e+02   4.6805039414e+00   0.02084362   0.00893643 -60.16  0.001265973    2.318    0.569
        51 -11.9856    160.5262    194.4854   2.9119022209e+02   4.5721211839e+00   0.01206734   0.01142342  30.03 0.0006465777    1.035    0.034
        52 -12.2682    157.1694    191.8787   2.9121393595e+02   4.6225610250e+00   0.01443422   0.01156933  81.36 0.0004056232    1.458    0.314
        53 -10.5558    153.4833    194.4975   2.9127331747e+02   4.6150692309e+00  0.006647767   0.00645812  39.49 8.174877e-06    1.027    0.026
        54 -14.3107    206.3908    179.9668   2.9056138997e+02   4.4577656940e+00   0.04155445   0.03488107  23.85   0.00330382    1.175    0.149
        55 -10.6685    160.0957    248.7323   2.9152494916e+02   3.9524987908e+00   0.01126585  0.009032921 -76.20 0.0005947092    1.359    0.264
        56 -12.9989    165.5323     32.2168   2.9014140554e+02   6.4015260317e+00   0.01999485   0.01656767 -43.97 0.0008649226    1.233    0.189
        57 -10.8665     13.6305     60.0249   2.9210695364e+02   7.0111090320e+00   0.01105148  0.008930064  42.55 0.0005097867    1.236    0.191
