#   1 NUMBER                 Running object number                                     
#   2 MAG_AUTO               Kron-like elliptical aperture magnitude                    [mag]
#   3 X_IMAGE                Object position along x                                    [pixel]
#   4 Y_IMAGE                Object position along y                                    [pixel]
#   5 X_WORLD                Barycenter position along world x axis                     [deg]
#   6 Y_WORLD                Barycenter position along world y axis                     [deg]
#   7 A_WORLD                Profile RMS along major axis (world units)                 [deg]
#   8 B_WORLD                Profile RMS along minor axis (world units)                 [deg]
#   9 THETA_WORLD            Position angle (CCW/world-x)                               [deg]
#  10 FWHM_WORLD             FWHM assuming a gaussian core                              [deg]
#  11 ELONGATION             A_IMAGE/B_IMAGE                                           
#  12 ELLIPTICITY            1 - B_IMAGE/A_IMAGE                                       
         1 -10.6235     37.3078      9.9473   1.0544348393e+02   6.8282553412e+01    0.9677814    0.5405472 -25.84  0.002983335    1.527    0.345
         2 -10.1872     10.5331     18.6305   1.2161814100e+02   6.9457600653e+01     1.360561    0.4648588 -24.56  0.004452358    6.389    0.843
         3  -9.8357     19.4365      9.3034   1.1342695625e+02   7.0283459331e+01    0.5989255    0.3609203  41.72  0.002991829    2.625    0.619
         4  -9.8570     17.7631      3.7479   1.1163723899e+02   7.1283408506e+01    0.6044569    0.5310475  71.16  0.004170955    2.471    0.595
         5 -10.9254     23.3705     33.7095   1.2129405848e+02   6.5757648648e+01     1.452315    0.4059477 -42.33  0.006180999    2.784    0.641
         6 -10.3596      4.8234     41.5498   1.3139209602e+02   6.5513319443e+01     0.866419    0.3552101 -65.92  0.003632909    2.343    0.573
         7  -9.8716     60.7357     31.5588   1.0544192617e+02   6.1868372590e+01    0.8517391    0.3513245 -30.64  0.003627999    2.469    0.595
         8 -10.1733     69.3569     40.3438   1.0575822901e+02   5.9119530348e+01    0.9367227    0.3869932 -37.10  0.002741053    2.201    0.546
         9 -10.0488     76.0715     31.7052   1.0003651173e+02   5.9437910286e+01    0.4165033    0.3572398  88.58  0.001180842    1.955    0.488
        10  -8.6725    101.9942      8.3878   8.2413606085e+01   5.7389234610e+01    0.2546501    0.1728293 -30.49 0.0005191839    1.569    0.363
        11  -8.5213    104.0333      2.4580   7.9403096213e+01   5.7508642621e+01    0.3896931    0.1771202  30.21  0.001642705    2.434    0.589
        12  -9.9931    103.1824     20.5484   8.7146146894e+01   5.5793361995e+01      1.09423    0.3566821 -19.25  0.002825333    4.535    0.779
        13  -9.5802    110.1871     32.2149   8.9869432287e+01   5.2797987729e+01    0.9520637    0.2113865 -33.94  0.002896643    4.115    0.757
        14  -8.2394    111.8485     22.3782   8.5602997193e+01   5.3706229472e+01    0.4286518    0.2884265 -39.22  0.002184414    1.658    0.397
        15  -8.8340    110.7549      5.7921   7.9200070392e+01   5.5719621729e+01    0.7373163    0.2659222  -8.72  0.002375855    4.457    0.776
        16  -8.7455    115.2427      4.2695   7.7570511457e+01   5.4843910052e+01    0.3089834    0.2408426 -43.62  0.001270277    1.552    0.356
        17  -8.7871    112.3511     15.6399   8.2801524965e+01   5.4368789617e+01    0.3075644    0.2156914 -46.71 0.0006540724    1.791    0.442
        18  -9.2353    113.8611     10.1864   8.0257050348e+01   5.4599074724e+01    0.4334939    0.2361685  30.79 0.0002603119    1.911    0.477
        19 -10.6101    143.4975     26.3108   7.9880092452e+01   4.5848325580e+01    0.4264624    0.2870801  -3.14 0.0005399358    1.715    0.417
        20 -10.2473     51.1570     14.0602   1.0156951922e+02   6.5882086630e+01    0.8455944     0.416074  19.47  0.003916903    2.685    0.628
        21 -10.2159     46.2572     29.8059   1.1033970914e+02   6.4095874129e+01    0.5137676    0.2707081 -48.36 0.0009678811    1.991    0.498
        22  -8.9330    128.6288     25.2658   8.2681035279e+01   4.9541969562e+01     0.450015    0.2547208 -23.92  0.001280056    1.807    0.447
        23  -9.3220     96.6546      5.1784   8.2426443035e+01   5.8835922393e+01    0.4294121    0.3307729 -35.79  0.002010799    1.515    0.340
        24  -9.0857     96.1182     15.1848   8.6865323409e+01   5.7892571388e+01    0.6479372    0.2647578 -14.39  0.002061637    3.301    0.697
        25  -8.0253     67.9555      8.7047   9.2764661511e+01   6.3945782243e+01    0.2112805    0.1423284  34.55 0.0007512174    1.408    0.290
        26  -8.5387     64.4231      9.4733   9.4375456292e+01   6.4447151556e+01    0.1970023    0.1578644   2.86 -0.0001039961    1.020    0.019
        27  -9.5048     63.2191     21.3887   1.0024208874e+02   6.3054845042e+01    0.3762435    0.2806467 -42.68 0.0008095153    1.588    0.370
        28  -9.8341     64.2452     13.6838   9.6404984798e+01   6.3947023701e+01    0.4006832    0.2870153   2.40  0.002407369    1.288    0.224
        29  -9.3743    133.2760     11.1487   7.6462378204e+01   4.9969429698e+01    0.5640318    0.1951041 -39.34  0.002007411    3.358    0.702
        30  -9.5135    118.9599     20.2975   8.3040420033e+01   5.2360224907e+01    0.6483775    0.2703678 -17.78   0.00163358    2.833    0.647
        31  -8.7890    125.0241     13.0439   7.8876837951e+01   5.1742950890e+01    0.3966176    0.3089843  35.62   0.00149451    1.171    0.146
        32  -8.3623    120.5062      5.5581   7.6946268351e+01   5.3516172930e+01    0.3493075    0.1971726  61.32  0.001683047    1.723    0.420
        33  -9.1548    126.5398      9.4413   7.7183339012e+01   5.1741235481e+01    0.2991069    0.2364902  48.07 0.0007951803    1.148    0.129
        34  -9.2464    125.2010      5.6769   7.6019529430e+01   5.2406371908e+01    0.4069354    0.2222459  22.29  0.001816567    2.149    0.535
        35 -10.0220     73.4807     17.6351   9.4946615761e+01   6.1884090226e+01    0.9670742    0.2658194 -30.18  0.003406407    3.538    0.717
        36  -8.9486     72.1255      8.5793   9.1282214852e+01   6.3235309905e+01    0.5073708    0.2451687  -0.27  0.001978182    3.400    0.706
        37  -8.5508     76.5689      6.4857   8.8852141820e+01   6.2666623197e+01    0.2390983    0.1797492 -19.22 0.0006426427    1.279    0.218
        38  -8.8679     78.5004      3.0351   8.6635573359e+01   6.2667206599e+01    0.2840909    0.2078936 -28.64 0.0009071428    1.468    0.319
        39  -9.2574      2.1442     14.5064   1.2412363443e+02   7.0719701153e+01    0.4162346    0.1860729 -61.71  0.002028181    2.768    0.639
        40 -10.3442      5.1897      4.9294   1.1864670511e+02   7.2127387311e+01     0.441703    0.2912976 -31.30  0.001442522    1.092    0.085
        41  -9.5401     85.1769     13.0319   8.9131992738e+01   6.0312791238e+01    0.3959446     0.273765 -54.15  0.001506197    2.317    0.568
        42  -7.6919     80.4975     12.5196   9.0357406588e+01   6.1257656935e+01    0.2416526    0.1558806 -46.58   0.00123278    2.167    0.539
        43  -8.1110    141.1952     12.6905   7.5501281397e+01   4.7892813203e+01    0.2326448    0.1879063 -33.92 0.0007670883    1.343    0.255
        44  -7.7943     85.3009      2.3232   8.4279736384e+01   6.1422980887e+01    0.1372292   0.08311712  21.10 0.0007027525    1.631    0.387
        45  -8.4807     85.2647      6.1543   8.6032171851e+01   6.1048775420e+01    0.3348184    0.1867892  29.11  0.001682978    1.759    0.431
        46  -8.5781     89.0513      2.6787   8.3379701157e+01   6.0639682729e+01    0.3533507     0.224902 -19.72  0.001739971    1.543    0.352
        47  -7.5005    142.7774      5.0121   7.2484000952e+01   4.8218869113e+01    0.1685371    0.1124292 -17.47 0.0005445219    1.603    0.376
        48  -9.6785     63.7463      2.9740   9.1485361607e+01   6.5312331966e+01    0.3425315    0.2474919 -45.56  0.001844652    2.007    0.502
        49  -7.9355    138.6576      4.6922   7.3092074372e+01   4.9258317731e+01    0.1505898   0.08894582  35.40 0.0005701916    1.691    0.409
        50  -7.9728    135.6146      1.4798   7.2467216479e+01   5.0272637722e+01    0.2891272    0.1221978  63.35     0.001206    2.152    0.535
        51  -9.2514     41.0813    121.9256   1.3541129649e+02   4.5394932953e+01    0.4044071    0.1964882 -77.17  0.001381727    2.150    0.535
        52 -10.1020    199.7017    249.9207   1.2094712599e+02  -2.0204984607e+00    0.3543776    0.1261851  42.52  0.001065467    2.221    0.550
        53 -10.6847    187.1364    247.4027   1.2273825365e+02   2.0062838360e-01    0.4239634    0.2592204  31.33  0.002689058    1.366    0.268
        54 -11.2963    172.4406    249.0120   1.2546067308e+02   2.2740851780e+00     1.006814    0.3705354  31.96  0.004280234    3.242    0.692
        55  -7.9446      1.4211    115.9750   1.4483578636e+02   4.9868107003e+01    0.1801085   0.08410686 -72.83  0.001024911    1.610    0.379
        56  -8.1701    152.9042    115.5047   1.0516717089e+02   2.8638271015e+01    0.2239093    0.1485949  46.17 0.0004433002    1.509    0.337
        57 -10.0847     91.8736    113.0928   1.2006606390e+02   4.0821953858e+01    0.5375205     0.375103  78.94  0.001594841    2.070    0.517
        58 -10.1546     78.0653    113.0270   1.2382394357e+02   4.2928929059e+01    0.5070065    0.3088619 -79.18  0.001952137    2.283    0.562
        59  -7.8710     77.8041    105.3223   1.2222454781e+02   4.4689493687e+01    0.3272171    0.1840519 -35.86  0.001285422    2.121    0.529
        60  -7.2669    167.4566    114.4563   1.0160634655e+02   2.5645749855e+01    0.1494537    0.1475341 -69.58 2.182707e-05    1.095    0.087
        61  -9.0993    140.4884    112.2899   1.0729912010e+02   3.1927714392e+01    0.3591895    0.2534209  31.04  0.001661628    1.565    0.361
        62  -7.8650     63.7721     82.5492   1.2096717482e+02   5.1617248618e+01    0.1985568    0.1555935  88.63  0.000541585    1.711    0.416
        63 -10.5290     62.7639     95.7738   1.2445400923e+02   4.8846413446e+01    0.9844196    0.5202233 -78.61  0.002658729    3.534    0.717
        64  -8.9301     63.9952     86.6278   1.2192263820e+02   5.0703745727e+01    0.6305543    0.3334733 -21.95  0.002313881    3.832    0.739
        65 -10.1686     65.7256    110.9035   1.2680730650e+02   4.5080737433e+01    0.6978074    0.4334427 -80.71  0.001522713    2.037    0.509
        66  -9.1681     59.5279    109.7452   1.2831322462e+02   4.6113098838e+01    0.3485774    0.2129225 -74.43 0.0008524939    1.773    0.436
        67  -8.3516     55.9688    113.2989   1.2997307651e+02   4.5732626734e+01    0.1753632    0.1627358 -81.23 0.0006138333    1.089    0.082
        68  -9.6787     31.7942    108.8134   1.3589501475e+02   4.9212824484e+01    0.2431868    0.1465218 -39.85  0.001354013    1.870    0.465
        69 -10.1502     14.1166    111.4370   1.4105008992e+02   5.0030273397e+01    0.7071037    0.2673552 -78.81  0.003183845    2.626    0.619
        70 -10.9931     20.5835    100.6722   1.3777937513e+02   5.1943353386e+01     1.065404    0.5167342  84.97  0.004291895    3.223    0.690
        71  -9.9024     20.0727     84.6922   1.3528676741e+02   5.5508479051e+01     0.908258    0.3213165 -69.60  0.003936995    2.638    0.621
        72 -10.7337     25.7820     77.7989   1.3213720715e+02   5.6583070732e+01    0.8518655    0.4715897 -79.16  0.004348569    2.176    0.540
        73 -10.3247     32.6045     63.7642   1.2658748028e+02   5.9012549024e+01    0.9408712    0.3805403 -33.44  0.003324968    3.230    0.690
        74 -10.0719     34.5356     90.8906   1.3197812835e+02   5.2970988243e+01    0.5531705    0.2631306 -79.30   0.00193384    2.981    0.665
        75 -10.3670     36.0930     81.6034   1.2959483692e+02   5.4875920931e+01    0.9609914    0.4678517 -20.63  0.003733068    4.228    0.763
        76  -8.0156    158.8619    112.1036   1.0292778653e+02   2.8004772880e+01    0.2267295    0.2048197 -67.99 0.0005113964    1.253    0.202
        77  -8.7773     35.7851    111.3778   1.3520076315e+02   4.8275871839e+01    0.2335562    0.1456341 -67.24 0.0007225952    1.333    0.250
        78  -7.7702    186.8013    108.7451   9.6035875026e+01   2.2321311478e+01    0.2015557    0.1805891 -75.38 0.0005005966    1.338    0.253
        79  -7.9189    158.9151    107.5214   1.0172054896e+02   2.8880367849e+01    0.2505249    0.2196506 -68.46 0.0008320987    1.325    0.245
        80  -8.4855     40.1540    107.4179   1.3333513586e+02   4.8749654191e+01    0.2067151    0.1492693 -82.00 0.0004812452    1.365    0.268
        81 -10.9208     44.6611    102.5133   1.3117287469e+02   4.9401353606e+01    0.8170397    0.4449935  71.15  0.003147123    3.309    0.698
        82  -9.8876    139.2178    103.5057   1.0531891151e+02   3.3974850147e+01    0.7058025    0.3436388 -48.26  0.002046038    2.155    0.536
        83 -10.0486    243.7444    103.3749   8.4594548673e+01   1.0552131706e+01    0.3602295    0.2743156 -34.69  0.001150911    1.225    0.184
        84  -8.2611    165.9709    104.1361   9.9236392735e+01   2.7934491667e+01    0.2613534    0.2134759 -40.26 0.0004070887    1.226    0.185
        85 -10.0300    149.5041    103.3346   1.0279141223e+02   3.1781815236e+01    0.5322384    0.2941881 -52.84   0.00109014    2.147    0.534
        86  -8.7215     91.7065    104.0590   1.1801522378e+02   4.2842365946e+01    0.4360744    0.2986598   6.61  0.001746107    2.246    0.555
        87  -9.7073      5.3114    103.8604   1.4245558551e+02   5.2271383829e+01    0.3606172     0.311838  33.36  0.002446243    1.475    0.322
        88  -7.4065    190.4845    103.5467   9.3939163731e+01   2.2393276438e+01     0.152609    0.1437878   4.19 0.0001127672    1.030    0.029
        89  -7.7903     73.8080    103.0095   1.2284616958e+02   4.5771092627e+01    0.2146225    0.1473151 -82.97  0.000531804    1.925    0.481
        90  -8.8275    159.2318    101.5852   1.0006165803e+02   2.9947860844e+01    0.3050874    0.2394656 -70.68 0.0005338924    1.661    0.398
        91  -9.4694     81.4280    100.0366   1.1996715340e+02   4.5329541282e+01    0.4224671    0.2675032 -70.97  0.001023452    1.979    0.495
        92  -7.6393     82.6092     93.6809   1.1806398583e+02   4.6543567690e+01    0.2619604    0.1649671 -21.99  0.001003319    2.289    0.563
        93  -8.8722     36.2654    104.8927   1.3400281727e+02   4.9687009126e+01    0.2190128    0.1414664 -28.77 0.0007695993    2.022    0.505
        94  -9.3556     94.2597     97.2820   1.1561494006e+02   4.3898926777e+01    0.3049554    0.2541284 -72.97 0.0006105786    1.355    0.262
        95  -8.8179     96.0166     91.0107   1.1346533444e+02   4.4944932409e+01    0.4730523    0.2946064 -11.92  0.001847757    2.909    0.656
        96  -9.4054    240.4221     95.6256   8.3216126060e+01   1.2413755443e+01    0.4436284    0.2205876  32.36  0.001698183    2.872    0.652
        97  -8.0376    222.0000    248.9797   1.1709040383e+02  -5.2617513708e+00    0.1538147   0.06203344 -33.51 0.0008083351    2.983    0.665
        98 -10.4271    240.5201    122.4595   8.9639538995e+01   8.3413760782e+00    0.2799791    0.2433339  36.08 0.0008715254    1.206    0.171
        99 -10.7365      4.9701     86.2089   1.4016253969e+02   5.6142001090e+01      1.37486    0.3773232 -65.71  0.004321769    2.509    0.601
       100 -10.5834     16.2680     68.0776   1.3330750769e+02   5.9365013680e+01     1.190681    0.1866022 -59.97  0.003054999    3.751    0.733
       101 -10.9396     21.5100     53.8688   1.2808504921e+02   6.1964005639e+01    0.7601541    0.4948268 -79.72  0.002991687    2.079    0.519
       102  -9.7223    157.4020    249.0376   1.2804057089e+02   4.5870327027e+00    0.2123104    0.1737465  37.77  0.001574786    1.084    0.077
       103  -9.3667     63.8732    247.3575   1.4355577443e+02   1.8007559921e+01    0.1658818    0.1379332  78.40 0.0001222472    1.220    0.180
       104 -10.1437     14.7829     44.4830   1.2816676056e+02   6.4329917928e+01    0.6660764    0.2830749 -31.35  0.003263054    2.575    0.612
       105  -9.4918    140.6212    118.4028   1.0879625852e+02   3.0651868315e+01     0.420662    0.3054634 -76.25  0.001151202    1.980    0.495
       106  -8.2178    168.3118    237.6753   1.2471286411e+02   4.3975320138e+00    0.1131074   0.08287634  62.94 0.0007040122    1.659    0.397
       107 -10.1169      7.1176     28.3112   1.2658040480e+02   6.7931616671e+01    0.3007559    0.2682162  45.71  0.001014372    1.635    0.388
       108  -8.8158    164.3725     94.5088   9.6962705713e+01   3.0097236130e+01    0.2768498    0.2315826 -43.72 0.0006723007    1.220    0.180
       109  -8.1812    139.2929     87.7085   1.0089841003e+02   3.7071750104e+01    0.3717763    0.2390013  25.17  0.001547887    1.999    0.500
       110  -9.9557    123.2287     91.3345   1.0604461214e+02   3.9763793577e+01    0.5400548    0.3971552  35.29    0.0010299    1.428    0.300
       111  -8.8079    126.4750     83.7234   1.0298988314e+02   4.0602847686e+01    0.5772587    0.3356655  14.59  0.001917146    3.562    0.719
       112  -9.4249    157.7432     90.4211   9.7300098030e+01   3.2388690040e+01    0.4491827    0.1986475 -31.52  0.001572148    2.504    0.601
       113  -9.3232    150.3201     89.6587   9.8800409716e+01   3.4232582789e+01     0.484932    0.2422225 -31.29  0.001827304    2.187    0.543
       114  -9.2851    109.8215     90.3936   1.0940064804e+02   4.2587487506e+01    0.4124482    0.2599556  20.78  0.001746445    2.213    0.548
       115  -9.3962    138.6566     92.7251   1.0249336399e+02   3.6237638430e+01    0.3890609    0.3624904 -40.08 0.0007820548    1.075    0.070
       116  -7.6282     78.3803     90.1598   1.1842358298e+02   4.7944179148e+01    0.2039767    0.1227989 -61.48  0.000948012    1.785    0.440
       117 -10.4932     48.2832     83.0926   1.2602097593e+02   5.3334732897e+01     1.097251    0.4117567 -53.33  0.003197046    2.143    0.533
       118 -10.6051     55.2581     71.0151   1.2068359090e+02   5.5133754644e+01    0.6604087    0.3970514  56.90  0.001358602    2.692    0.629
       119  -9.5740     54.9701     62.9158   1.1847594792e+02   5.6842675635e+01    0.5930762    0.3593681  27.10  0.003168751    1.897    0.473
       120  -9.4076     87.7471     78.6334   1.1244577456e+02   4.8924576437e+01    0.5759695    0.3503531  17.13  0.001799806    2.392    0.582
       121  -7.0321    174.3348     88.6974   9.3188345919e+01   2.8804850890e+01    0.1549126    0.1229775 -75.49 0.0007036732    1.661    0.398
       122  -8.2916    163.5101     86.8798   9.4996356150e+01   3.1691069931e+01    0.2827567     0.152039 -31.38 0.0006241906    1.929    0.482
       123  -9.1572    109.7333     63.9334   1.0136512596e+02   4.7783753510e+01    0.3408639     0.261463 -51.60 0.0006554649    1.459    0.315
       124  -8.8244    110.5867     58.1110   9.9170146693e+01   4.8652448747e+01    0.3368097     0.254749 -10.96 0.0008949667    1.427    0.299
       125 -10.3138    103.9109     82.7256   1.0887433350e+02   4.5264154977e+01    0.5299863    0.3008158 -54.41 0.0009003739    1.977    0.494
       126  -9.3683    105.1190     71.4571   1.0511268930e+02   4.7272358218e+01    0.8402064    0.3683497 -32.40  0.003071406    2.630    0.620
       127  -7.2153    202.3197    112.6689   9.3990572252e+01   1.8112250049e+01    0.1499791    0.1192269 -69.84 0.0003609355    1.692    0.409
       128  -8.8559    157.7642     83.5659   9.5318102408e+01   3.3638434059e+01    0.3212149    0.2380559 -38.30 0.0008238382    1.339    0.253
       129  -9.3067    140.4063     82.0062   9.8946295057e+01   3.7906519823e+01    0.5757692    0.3213439 -32.76  0.001201234    1.841    0.457
       130  -8.7305    139.8763     75.5972   9.7136435741e+01   3.9208314922e+01    0.4780928    0.2164962 -40.33   0.00153108    2.174    0.540
       131  -7.7272    171.1512     96.1560   9.5940197935e+01   2.8217531750e+01    0.2135902    0.1825362 -62.85  0.000422327    1.355    0.262
       132  -7.4480    170.4665     83.5162   9.2527491550e+01   3.0637403118e+01    0.1521789    0.1489393 -13.35 0.0008093066    1.031    0.031
       133  -7.6235    210.8705     82.1661   8.4491559349e+01   2.1163371389e+01    0.1963201    0.1662223  19.46 -0.000275831    1.272    0.214
       134  -8.4825    149.9084     80.4330   9.6198498121e+01   3.6034766122e+01    0.3842596    0.2164726 -34.58  0.001237242    1.770    0.435
       135  -9.0246    115.0780     72.4325   1.0260792039e+02   4.5127511755e+01    0.4755913    0.2348116 -43.29 0.0006094553    1.985    0.496
       136  -8.8764    119.0327     80.5071   1.0400948762e+02   4.2770152743e+01    0.3409683    0.2424577 -52.04 0.0006551643    1.519    0.342
       137  -8.2008    119.4985     76.4598   1.0265310713e+02   4.3457810211e+01    0.2611538    0.1808641  31.68 0.0006308277    1.567    0.362
       138  -9.0744     74.1838     79.2923   1.1682144792e+02   5.0885106042e+01    0.6097113    0.2255815 -51.04  0.001959217    2.463    0.594
       139  -8.2588     68.7970     79.3002   1.1852244861e+02   5.1643486528e+01    0.2993235    0.1591405 -44.96  0.001416297    1.665    0.399
       140  -8.3374    166.1686     78.6798   9.2035029611e+01   3.2508573940e+01    0.2566477    0.2056041 -43.93 0.0004742417    1.284    0.221
       141  -8.0936    184.1555     78.1024   8.8201875929e+01   2.8250451210e+01    0.2372118    0.2031214  17.86 0.0005296434    1.246    0.197
       142  -7.6275    173.5307     78.5055   9.0438634942e+01   3.0763531239e+01    0.1519431    0.1484439  -7.78 5.804126e-05    1.021    0.020
       143  -8.9005    157.0507     76.0352   9.3244984701e+01   3.5145037389e+01    0.5869161    0.2451931 -29.75  0.001397058    2.681    0.627
       144  -8.0563    156.6820     70.1551   9.1539981744e+01   3.6245035274e+01    0.2434241    0.1855026 -50.04 0.0009607081    1.440    0.305
       145  -8.5485    130.5027     64.9847   9.6125205050e+01   4.3203658697e+01    0.3651071     0.210976 -36.54  0.001577508    1.695    0.410
       146  -9.2913    127.2480     75.2092   1.0020938660e+02   4.2064754609e+01    0.4013997    0.2776691 -59.53  0.000632116    1.868    0.465
       147  -8.5999    128.5656     69.5743   9.8097576337e+01   4.2815089613e+01    0.6208844    0.3361735  20.27  0.001999708    3.685    0.729
       148  -8.0917    162.5843     73.0568   9.1131891040e+01   3.4334756684e+01    0.3568634    0.1983333 -50.59  0.001150416    2.174    0.540
       149  -9.0826     83.9177     64.0610   1.0917802034e+02   5.2472664261e+01    0.4800704    0.2950885  -7.91  0.001866002    2.631    0.620
       150  -9.8365     81.5018     72.1954   1.1247417909e+02   5.1247594064e+01    0.4651072    0.2893366 -61.04 0.0009047841    2.012    0.503
       151  -9.4558    146.8694     69.3411   9.3521551821e+01   3.8708128498e+01    0.4219531    0.2858569 -55.90  0.001189726    1.840    0.456
       152 -10.0917     62.2706     60.9374   1.1535173897e+02   5.6311078417e+01    0.6452321    0.3020286  25.57  0.002810134    2.734    0.634
       153  -9.7099     94.6801     68.3208   1.0720523643e+02   4.9803460020e+01    0.4179229    0.2400945 -50.47 0.0009273285    1.845    0.458
       154  -9.3324     97.1842     58.7134   1.0328807537e+02   5.1153948356e+01    0.7648771    0.4183937  -9.70  0.002486154    4.122    0.757
       155 -10.0904     85.2402     86.6070   1.1543524672e+02   4.7657393182e+01    0.4545102    0.3549295  87.65 0.0008732039    1.805    0.446
       156  -7.6963    249.6792     67.3392   7.4992161373e+01   1.4482204372e+01    0.1450737   0.09637345 -58.02 0.0007050186    1.715    0.417
       157  -9.1912    138.1829     65.1681   9.4272099731e+01   4.1438272321e+01    0.6483903     0.251284 -36.35  0.001888816    2.523    0.604
       158  -9.1074    141.9303     48.6016   8.7916705412e+01   4.3230894344e+01    0.2693481    0.2090156 -35.75 0.0002694758    1.313    0.239
       159  -9.1198    146.9841     41.8631   8.4519668437e+01   4.2988591382e+01     0.354872    0.2272484   3.11   0.00150829    2.089    0.521
       160  -9.2486    138.9037     57.0703   9.1455771736e+01   4.2622914157e+01    0.3712776    0.2310128 -35.36 0.0009005996    1.593    0.372
       161  -7.9207    122.0148     61.4735   9.7176793478e+01   4.5672883382e+01    0.2808719    0.2014532  -4.14   0.00120396    1.697    0.411
       162  -8.8183    157.1974     63.5015   8.9363898826e+01   3.7225441662e+01    0.3519039    0.2406704 -32.07  0.001142158    1.456    0.313
       163  -8.9265     80.0000     46.9137   1.0456785017e+02   5.6283175342e+01    0.3299442    0.1734514 -40.76 0.0009923619    1.779    0.438
       164 -10.0570     73.0204     58.7741   1.1101050982e+02   5.5210012284e+01    0.6871518    0.2443309 -49.33  0.001561822    2.854    0.650
       165  -9.4418     76.5077     50.1468   1.0689529329e+02   5.6279179317e+01    0.4645985    0.3248482  -4.76  0.002371795    1.675    0.403
       166  -9.3373      6.8675     32.5145   1.2799936603e+02   6.7154564129e+01    0.2393661    0.1826784 -12.38 0.0008711734    1.377    0.274
       167  -8.0004    152.5338     60.4694   8.9428300160e+01   3.8842417566e+01      0.25635    0.1461987 -33.93  0.001076463    1.739    0.425
       168  -8.7870    153.1988     40.9534   8.2915186934e+01   4.1589304968e+01    0.2702888    0.2199612  71.93 0.0007147895    1.357    0.263
       169  -7.6595    150.3938     43.7818   8.4440214241e+01   4.1886612011e+01    0.2087688    0.1412023 -12.61 0.0007745387    1.671    0.402
       170  -8.7070    149.7924     48.0700   8.5995270229e+01   4.1416063889e+01     0.320849    0.2081117 -29.46 0.0007221883    1.551    0.355
       171  -8.7733    146.4777     59.0425   9.0332453752e+01   4.0521770950e+01    0.2907591    0.2345011 -78.65 0.0009259722    1.648    0.393
       172  -9.3059    147.5327     53.9829   8.8443001401e+01   4.1070150349e+01     0.494915    0.2607191 -21.23  0.001629864    2.239    0.553
       173  -8.9818    129.9195     57.7463   9.3885100134e+01   4.4568295007e+01    0.4145317    0.2010128 -42.34 0.0006027444    2.147    0.534
       174  -8.6991     87.3949     58.3155   1.0617825229e+02   5.2978159866e+01    0.3492202    0.2329511 -51.74 0.0009472955    1.675    0.403
       175  -8.2434     89.6695     53.0145   1.0363267741e+02   5.3544255063e+01    0.4034057     0.249924  10.45  0.001750605    2.364    0.577
       176 -10.2041     85.1790     48.2242   1.0335181958e+02   5.5174714098e+01    0.4039592    0.3105945 -60.82 0.0009256883    1.793    0.442
       177 -10.4872     89.6174     38.1496   9.8162241906e+01   5.6042783884e+01     0.911643    0.3903466  29.98  0.003293923    3.331    0.700
       178  -9.4354    118.3778     54.8897   9.5920201078e+01   4.7577638389e+01    0.5303901    0.2973878 -43.50  0.001101783    1.879    0.468
       179  -9.5687    121.5429     45.5047   9.1793067562e+01   4.8393223080e+01    0.7911522    0.3269992 -22.06  0.001369981    3.346    0.701
       180  -9.0362     53.5338     38.7663   1.1095406949e+02   6.1633065792e+01    0.5766682    0.1951592 -36.47  0.002264048    2.864    0.651
       181  -9.5353    188.3885    234.6094   1.2075085732e+02   1.5915558419e+00    0.2649266    0.2170281 -83.13  0.001136993    2.041    0.510
       182  -8.5807    183.3824    232.7356   1.2136661035e+02   2.6391750365e+00    0.2134521    0.1459818  34.98  0.000944773    1.178    0.151
       183  -9.4057     71.0738     25.6884   9.9270291127e+01   6.1173492364e+01    0.5171084    0.2760198  34.60  0.002582696    1.914    0.477
       184 -10.0437     49.8594     54.1604   1.1761634831e+02   5.9202558985e+01    0.6088365    0.2685114 -56.25  0.002400417    2.449    0.592
       185  -9.5654     55.8027     43.6512   1.1188807525e+02   6.0461838167e+01    0.7305806    0.3674328 -15.56  0.002672218    3.983    0.749
       186  -7.2588    130.7236    233.6935   1.3090466854e+02   1.0881154332e+01    0.1042287   0.08602957  16.48 0.0002381144    1.549    0.355
       187  -9.1818     84.7349     21.9312   9.3124630776e+01   5.9293177613e+01    0.3170377    0.2501832 -11.55  0.001041739    1.148    0.129
       188  -8.6168    193.9525     60.7568   8.1434995264e+01   2.8556680732e+01    0.2353225    0.2048335 -29.63 0.0004031524    1.136    0.120
       189  -9.5068     43.8322     53.1460   1.1951150193e+02   6.0078834590e+01    0.3519889     0.300745 -29.12  0.001368646    1.066    0.062
       190  -8.8289    162.6441     54.1281   8.5267729007e+01   3.7357058973e+01    0.4389809    0.2784948  89.77  0.001675672    2.711    0.631
       191  -8.2886    157.5128     49.4856   8.4831655199e+01   3.9315138907e+01    0.2467818    0.1705055 -66.42 0.0009040795    2.034    0.508
       192  -9.0338    105.2551     51.8234   9.8508156707e+01   5.0808058867e+01     0.571037    0.2535917 -33.98  0.001799903    2.200    0.545
       193  -7.7330     94.6979     53.5358   1.0225573765e+02   5.2540961292e+01    0.2528226    0.1197449 -38.56  0.001061651    1.989    0.497
       194  -9.0556    121.2987     66.1505   9.8905874145e+01   4.4997744368e+01    0.3451881    0.2544044 -49.48 0.0005794952    1.488    0.328
       195  -7.8632    136.1606     27.1568   8.1710813961e+01   4.7526231186e+01    0.2374328    0.1961818 -33.55 0.0004543871    1.283    0.220
       196  -9.6732    130.5304     46.4978   8.9884543469e+01   4.6215486127e+01    0.8292183    0.3331791 -22.70  0.001152678    3.309    0.698
       197  -8.8413    132.8279     36.0771   8.5655667356e+01   4.7174267104e+01    0.3866892    0.1963249 -34.12 0.0004977408    1.975    0.494
       198  -9.6674    134.0104     31.1215   8.3609485152e+01   4.7546393389e+01    0.2876319    0.2267803  27.68            0    1.249    0.200
       199  -9.9687    248.8363     46.5583   7.0030894232e+01   1.7424847257e+01    0.2611062    0.2478465  34.95 0.0008067856    1.183    0.155
       200  -8.7157    113.1743     42.2337   9.2825148459e+01   5.0710683700e+01    0.5234994    0.2922519   6.06  0.001847532    3.365    0.703
       201 -10.1219     37.7225     42.0972   1.1827551338e+02   6.2855490188e+01    0.4437925    0.3197811 -79.47  0.001471435    2.485    0.598
       202 -10.3036     35.5421     37.8954   1.1770155935e+02   6.3861261734e+01    0.5199015    0.2892053 -17.95 0.0003356781    2.201    0.546
       203  -7.4924    162.2349     46.4077   8.2888701651e+01   3.8585468824e+01    0.2006333    0.1439908  72.98 0.0004031776    1.607    0.378
       204  -9.3594    104.8669     41.0735   9.4707165039e+01   5.2621631277e+01    0.4030008    0.2379492 -41.44  0.001079811    1.791    0.442
       205  -8.3956    106.0449     36.4542   9.2629722233e+01   5.3070996827e+01    0.2625289    0.1836898  27.53 0.0008474224    1.454    0.312
       206 -10.0099     79.4185     24.0724   9.5748118644e+01   5.9973255645e+01    0.5952435    0.3076608  19.79  0.001905227    2.768    0.639
       207  -8.8127    139.5358     39.9605   8.5498099556e+01   4.5051152503e+01    0.3828057    0.2277103 -32.12   0.00137865    1.687    0.407
       208  -7.0363    164.3013     40.6825   8.0650819146e+01   3.8856061557e+01    0.1492561    0.1130562 -64.31 0.0007022871    1.620    0.383
       209  -8.5669    160.3382     38.6308   8.0738094334e+01   4.0124107252e+01    0.2954408    0.1884086 -22.26  0.001271005    1.652    0.395
       210  -8.4128    111.9759     46.8221   9.4821713940e+01   5.0251662023e+01    0.2682922    0.1955772 -38.58 0.0004503135    1.399    0.285
       211  -8.7652    144.1043     36.4321   8.3278303565e+01   4.4428695512e+01    0.2615348    0.1994789 -35.73 0.0005596174    1.363    0.266
       212  -7.1832     56.3327    232.2896   1.4371617110e+02   2.1379881276e+01   0.08541878   0.08402567  12.60 -0.0001541599    1.628    0.386
       213  -8.5326     41.6872    225.9359   1.4571446094e+02   2.4155397550e+01    0.1643899    0.1304561  55.24 0.0008014114    1.257    0.204
       214  -7.6461    109.4929    224.4874   1.3369633100e+02   1.5563109307e+01    0.1172052   0.09550332  56.43 9.685125e-05    1.008    0.008
       215  -9.4914    101.1712     31.9922   9.2287336578e+01   5.4712096215e+01    0.4396135    0.2066817 -37.64  0.001122508    2.162    0.537
       216  -9.0337    153.1832     34.9104   8.0897206113e+01   4.2395068301e+01    0.3257578    0.2024302 -15.65  0.001461115    1.801    0.445
       217  -8.7241    118.8870     34.3382   8.8399299633e+01   5.0605431343e+01    0.3193386    0.1988116 -29.28 0.0007716664    1.593    0.372
       218  -7.5854    189.8529     34.1275   7.4315823781e+01   3.3215339685e+01    0.1914773    0.1610527  29.03 0.0003310269    1.281    0.219
       219  -8.4159      7.5278    217.4665   1.5080373209e+02   2.9084709472e+01   0.09992328   0.07077973  75.08 -1.257913e-05    1.017    0.016
       220  -9.1591      6.9929    208.1946   1.5042708675e+02   3.0786465247e+01    0.2076377    0.1178967  47.13  0.001070051    1.595    0.373
       221  -9.7060     12.0364    207.1792   1.4953244815e+02   3.0515493232e+01    0.3776657    0.2245944  35.86  0.002700343    1.913    0.477
       222  -8.3030    123.9859    206.0152   1.2871988727e+02   1.6477309045e+01    0.1757687    0.1474925  55.10  0.001148068    1.032    0.031
       223  -7.4301     60.5602    202.9267   1.4057832253e+02   2.6118942264e+01    0.1381455   0.08578857 -47.79 0.0008021283    2.273    0.560
       224  -8.6937    192.4123    195.2117   1.1372418906e+02   6.4052173899e+00    0.2475993    0.1832889 -40.95  0.001434148    1.555    0.357
       225  -7.9881    190.2381    191.1928   1.1342149360e+02   7.4110359615e+00    0.3392082    0.1851919 -55.56  0.001473152    2.975    0.664
       226  -8.6667     46.5042     19.9880   1.0613075773e+02   6.5643831547e+01     0.357927    0.1750483 -25.82   0.00156677    2.012    0.503
       227  -9.9749    184.9281    194.5500   1.1503560509e+02   7.8519947442e+00    0.2105364    0.1950363   4.44  0.001138066    1.118    0.105
       228  -7.6668    185.0481    179.5797   1.1228905008e+02   1.0220308540e+01    0.1997617    0.1218875  43.32  0.000541917    1.507    0.336
       229  -8.6972     42.2498     28.0275   1.1125503751e+02   6.4875329078e+01    0.2151898    0.1511957 -22.20            0    1.221    0.181
       230  -8.4618    161.2430     27.3595   7.6876718112e+01   4.1303547344e+01    0.2656398    0.1769364  -5.12 0.0007193974    1.777    0.437
       231  -7.7968    226.3099    176.6753   1.0394067746e+02   3.0016771533e+00    0.1184491    0.1088614 -80.35  0.000561919    1.654    0.396
       232  -7.1449     59.7296    161.6948   1.3634960751e+02   3.4545872250e+01    0.1130882   0.08948104 -45.72 0.0001662416    1.536    0.349
       233  -7.8898     12.9819    153.2765   1.4566433472e+02   4.1057745488e+01    0.1450735    0.1215536  76.24 0.0004183249    1.156    0.135
       234  -9.1554     91.1547     26.1137   9.2884571843e+01   5.7512939151e+01    0.3728202    0.2303849 -40.47  0.001218341    1.793    0.442
       235  -8.4970     92.5366     20.6888   9.0217550135e+01   5.7952658224e+01     0.332649    0.1799933  25.53  0.000857654    2.146    0.534
       236  -8.4924    139.7168     22.3032   7.9226452511e+01   4.7235396803e+01    0.3020217    0.2044629 -60.52  0.000956031    2.031    0.508
       237  -9.0872    154.8935     22.4279   7.6369148222e+01   4.3466709581e+01    0.2757484     0.183169 -43.35 0.0009067947    1.659    0.397
       238  -8.5222    133.5647    146.4097   1.1675894391e+02   2.6274330569e+01    0.5096892    0.1412196 -51.38  0.001540042    4.019    0.751
       239  -7.9255    231.9745    148.0000   9.6905796912e+01   6.1628888841e+00    0.2171219   0.07597873  46.97 0.0005538295    2.892    0.654
       240  -7.0247     15.2947    147.3151   1.4463848198e+02   4.2132010746e+01    0.1084803   0.07297841 -53.98 0.0002218945    1.601    0.375
       241  -9.6224     66.9553    144.5330   1.3232796990e+02   3.7376323445e+01    0.5096841    0.2969598  57.50   0.00261302    1.898    0.473
       242  -7.2055    199.2952    143.3074   1.0192127509e+02   1.3502643551e+01    0.1477309    0.1084084   8.37  0.000651124    1.586    0.370
       243  -8.4383    135.6543    131.9321   1.1316870942e+02   2.8862572028e+01    0.4870966    0.1359328 -46.10  0.001488424    3.596    0.722
       244  -8.1799    112.1331    133.8338   1.1929404855e+02   3.2853466946e+01    0.2809924    0.2007806  79.34 0.0009246635    1.896    0.473
       245  -8.5226    194.7624    130.9731   9.9956639106e+01   1.6600680030e+01    0.2375226    0.2023622  34.35 0.0006468535    1.145    0.126
       246  -9.6594     98.8904    129.0602   1.2163395765e+02   3.6149860568e+01    0.6042703    0.3562989  69.57  0.002431724    2.799    0.643
       247 -10.3007     70.1110    126.2154   1.2852239060e+02   4.1056791234e+01    0.6015002    0.5755985 -69.83  0.002022059    1.099    0.090
       248  -9.9887     58.1420    124.5728   1.3136642327e+02   4.2931480565e+01    0.6100981    0.3411028  80.92   0.00224349    2.857    0.650
       249  -7.7801    161.2455    128.4100   1.0643346559e+02   2.4309851923e+01    0.2570666    0.1869996 -63.40 0.0009036833    1.755    0.430
       250  -8.6519    130.5562     96.7473   1.0565499570e+02   3.7161810888e+01    0.4582829    0.2705091  20.91  0.001693914    2.751    0.637
       251  -9.9459    117.2918    124.5594   1.1600418577e+02   3.3926004889e+01    0.9450401    0.5381895 -64.84  0.002600829    2.312    0.567
       252  -8.7748     40.8919     20.6427   1.0874885945e+02   6.6240702964e+01    0.2134785    0.1468316 -35.21 0.0002279832    1.276    0.217
       253  -8.2944    139.5780     18.2096   7.7788359237e+01   4.7720198797e+01     0.188489    0.1324986  -0.93 0.0004239924    1.577    0.366
       254  -9.2725    131.5526     17.4210   7.9135294158e+01   4.9741292169e+01    0.4247333    0.2707582  68.60  0.002029958    1.747    0.428
       255 -10.4751    121.7876    111.3210   1.1172689880e+02   3.5905146355e+01    0.9277653    0.5727865 -37.68  0.002221082    1.682    0.406
       256  -9.8369    120.7762    102.7174   1.0979105043e+02   3.7912631933e+01      1.07631    0.5388319 -26.22  0.003486706    3.591    0.722
       257  -9.4269    127.7910    102.4879   1.0791510417e+02   3.6559650010e+01     0.384524    0.3332513 -62.55  0.001052322    1.256    0.204
       258  -9.9966    108.4738    114.4634   1.1594806233e+02   3.7709851434e+01     0.622228    0.3759969 -70.82   0.00166524    2.437    0.590
       259 -10.6459    108.5347    100.6414   1.1251436131e+02   4.0675040361e+01     1.023208    0.7576741 -75.83  0.004874784    1.805    0.446
       260  -9.0988    127.6330    125.7856   1.1371299842e+02   3.1713211135e+01    0.4382886    0.2885444 -19.00  0.001173793    2.324    0.570
       261  -7.8818    140.4731    125.5273   1.1054680258e+02   2.9220943827e+01    0.1461544    0.1438765   2.66 0.0002613199    1.013    0.013
       262  -9.4658     27.4243    122.9368   1.3908000102e+02   4.6439076682e+01    0.4874166    0.2421252  71.62  0.002272771    2.832    0.647
       263 -10.4167    133.4145    109.8062   1.0840376077e+02   3.3903017947e+01    0.8204859    0.4258812 -43.52  0.002826507    1.896    0.473
       264  -8.9703    135.3256    122.4966   1.1106651709e+02   3.0886662064e+01    0.4033643    0.2394764 -36.57  0.001329372    1.811    0.448
       265  -9.7637    130.3491    118.8023   1.1140110944e+02   3.2650535942e+01    0.5338462    0.3747503 -88.77  0.001263052    2.320    0.569
