#   1 NUMBER                 Running object number                                     
#   2 MAG_AUTO               Kron-like elliptical aperture magnitude                    [mag]
#   3 X_IMAGE                Object position along x                                    [pixel]
#   4 Y_IMAGE                Object position along y                                    [pixel]
#   5 X_WORLD                Barycenter position along world x axis                     [deg]
#   6 Y_WORLD                Barycenter position along world y axis                     [deg]
#   7 A_WORLD                Profile RMS along major axis (world units)                 [deg]
#   8 B_WORLD                Profile RMS along minor axis (world units)                 [deg]
#   9 THETA_WORLD            Position angle (CCW/world-x)                               [deg]
#  10 FWHM_WORLD             FWHM assuming a gaussian core                              [deg]
#  11 ELONGATION             A_IMAGE/B_IMAGE                                           
#  12 ELLIPTICITY            1 - B_IMAGE/A_IMAGE                                       
         1 -11.3209    215.6369      6.0972   4.5737954990e+01   2.9450957541e+01    0.5401486    0.3254727 -32.44  0.001229448    1.584    0.369
         2 -12.9804    224.6596     12.9739   4.6787707068e+01   2.6498867750e+01     1.763287    0.8340299 -63.21  0.004897074    2.630    0.620
         3 -12.5046    244.2069     30.3511   4.9496610635e+01   1.9898316130e+01     1.624382    0.5348861 -37.22  0.006312886    2.507    0.601
         4 -12.0229    245.5019     20.3079   4.6817989759e+01   2.0708329003e+01    0.8065913    0.7002664 -29.85  0.004124811    1.125    0.111
         5 -12.5758    246.1163      5.2999   4.3003582551e+01   2.2107879893e+01     1.137661    0.9431842  13.08  0.003612658    1.490    0.329
         6 -12.3313    233.1021      3.6890   4.3589948934e+01   2.5350465451e+01     1.096774    0.7894514 -79.18  0.004788001    1.381    0.276
         7 -11.4763    190.7255     27.9644   5.5078418660e+01   3.3590510849e+01    0.7863196    0.4162452 -20.56  0.003272103    2.026    0.506
         8 -10.7772    195.1054     28.5191   5.4644599391e+01   3.2371689628e+01    0.6333932    0.3446302 -14.88  0.002043638    2.147    0.534
         9 -11.9796    214.0328     28.3016   5.2180662799e+01   2.7498594586e+01     0.670061    0.4272196 -34.50  0.001164902    1.488    0.328
        10  -9.9193    165.1098     16.0207   5.4944874445e+01   4.1757996692e+01    0.2549087    0.2338988 -11.90  0.000590063    1.139    0.122
        11 -11.3009    105.7471     13.5665   6.6007122369e+01   5.6991986144e+01    0.2932416    0.2633388 -20.64 0.0003001222    1.140    0.123
        12 -11.1334    126.4739     10.8295   5.9969544164e+01   5.2342861797e+01    0.3848022    0.3231071  53.54 0.0008555099    1.140    0.123
        13 -10.0466    201.2657     10.0038   4.8306274323e+01   3.2770986699e+01     0.297855    0.2253605 -39.61 0.0004965782    1.298    0.230
        14  -9.6383    162.5611     10.2713   5.3336579385e+01   4.3030998871e+01    0.2743112     0.132014 -28.04 0.0008286441    2.071    0.517
        15  -9.2747    119.0389     10.1774   6.1313029288e+01   5.4240622710e+01    0.2346186     0.197249  -9.56 0.0005250336    1.192    0.161
        16  -9.8562     56.1999     10.3964   8.0964292797e+01   6.7072052786e+01     0.406827    0.1813333  37.16  0.001418349    2.378    0.580
        17  -9.0775    186.6199      9.8497   4.9942711882e+01   3.6649439205e+01    0.2148233    0.1178079 -37.13  0.000941266    1.796    0.443
        18  -9.1934    156.8616      9.8457   5.4060841156e+01   4.4588989637e+01    0.2005296    0.1682037 -65.45 0.0004842389    1.306    0.235
        19 -10.4720     15.6033      6.4972   9.8862861049e+01   7.2655645515e+01    0.5044547    0.2263593 -58.55  0.002394962    2.888    0.654
        20 -10.1588    109.0521      6.6187   6.2090749280e+01   5.6998171001e+01    0.3710677    0.2424399   0.99 0.0007573137    1.679    0.404
        21  -8.6252     76.9848      7.7434   7.1810315548e+01   6.3767838152e+01    0.1801274    0.1567149  22.88 0.0003572718    1.102    0.093
        22  -9.5110     73.0171      7.0790   7.2836900599e+01   6.4606291686e+01    0.2298847    0.2211067  -9.94 0.0006542029    1.242    0.195
        23  -9.1844    176.5036      5.9712   4.9952168582e+01   3.9720682475e+01    0.2128519    0.1393876 -25.12  0.001022392    1.576    0.365
        24 -10.2289    203.4402      3.9894   4.6307725448e+01   3.2784856101e+01    0.2694739    0.2021586  76.67 0.0005467384    1.282    0.220
        25 -11.0397    127.7059      1.9962   5.6093845883e+01   5.2898640689e+01    0.3532845    0.2526573  84.04  0.001175571    1.636    0.389
        26 -10.1493      8.0124      2.1060   1.0115315350e+02   7.4020154349e+01    0.2884632    0.1909254  23.52  0.001980964    1.796    0.443
        27  -8.9629      1.4078      2.2509   1.0522546920e+02   7.4436954371e+01    0.2102127   0.07779337 -51.62  0.001118333    1.978    0.494
        28  -9.0205    183.0349      1.8567   4.7833517471e+01   3.8355128073e+01     0.248982    0.1455035 -68.91  0.001083975    2.022    0.505
        29 -11.1406     73.2121     42.6788   8.8602638346e+01   5.8963394275e+01    0.3018479    0.2948019  21.22 0.0006681393    1.167    0.143
        30 -11.1515    125.8164    248.8274   1.1445976270e+02   1.0987510715e+01    0.3601083    0.2513351  54.66  0.002092781    1.163    0.140
        31 -10.2137    115.7164    249.1743   1.1615547288e+02   1.2367375288e+01    0.2241751    0.1901015  47.21 0.0009290981    1.230    0.187
        32 -10.4172    100.6018    245.3017   1.1831932955e+02   1.4986202951e+01    0.2502131    0.1615584 -68.34  0.001828057    1.915    0.478
        33 -10.2707    236.7918    188.3599   8.7026889047e+01   8.8060321908e-01    0.4558891    0.3682374  -6.88  0.002309366    1.204    0.169
        34  -9.4029    185.2894    209.9177   9.9463065226e+01   6.8690678633e+00    0.2335097    0.1916448 -56.12  0.001344816    1.690    0.408
        35  -9.3953    248.7399    208.4025   8.8568734279e+01  -3.1614919869e+00    0.1950459    0.1469168  19.38 0.0006534745    1.027    0.026
        36 -10.4078    108.7481    241.4112   1.1662992041e+02   1.4416041520e+01    0.2158843    0.1999131  83.70  0.001361901    1.346    0.257
        37  -9.6033    145.1198    201.5375   1.0564040437e+02   1.4820500095e+01    0.3492085    0.2345537 -88.61 0.0005991263    2.433    0.589
        38  -9.9080    150.2454    208.2396   1.0559040562e+02   1.2946871558e+01    0.2887891     0.202741  78.82  0.001545823    2.068    0.516
        39  -9.7668    149.6223    203.7953   1.0510165590e+02   1.3720813189e+01    0.2758644    0.2495406 -72.83  0.001631631    1.339    0.253
        40  -8.9438    174.4699    207.5444   1.0105157572e+02   9.0016573592e+00    0.2136326    0.1222499 -42.17  0.001203762    2.147    0.534
        41  -9.1335     26.4020    207.5801   1.2838234128e+02   3.0032950768e+01    0.1833794    0.1404969 -42.52   0.00120233    2.330    0.571
        42  -9.8821    123.9089    203.6442   1.0995137439e+02   1.7936256876e+01    0.3149774    0.1841631 -56.41  0.001283054    2.030    0.507
        43  -9.4629    126.1441    198.4855   1.0887174642e+02   1.8430856669e+01    0.2944032    0.2228379  85.25  0.001847498    1.551    0.355
        44  -8.0435     98.7133    205.7003   1.1497808862e+02   2.1425001553e+01   0.09964818    0.0904124  14.10 0.0002756622    1.555    0.357
        45 -11.0100    247.3128    180.2364   8.3834480624e+01   7.3348388672e-02     1.120668    0.4163851 -38.92   0.00487076    3.366    0.703
        46 -10.1013    249.9784    203.0156   8.7468548170e+01  -2.8052586805e+00    0.3541753    0.2649212  56.01  0.001884268    2.091    0.522
        47 -10.4504    249.9772    198.7201   8.6731647938e+01  -2.3628380058e+00    0.4439905    0.3480712 -33.12  0.002496165    1.675    0.403
        48  -9.1246    213.5099    198.4848   9.2707556892e+01   3.5714335348e+00    0.2237092    0.1178887 -32.27  0.001208034    2.155    0.536
        49  -9.3381     47.1555    199.1281   1.2411165775e+02   2.9313659927e+01    0.1558369   0.09733556  68.33 0.0003554418    1.306    0.234
        50 -10.8259     53.3792    193.9998   1.2254641641e+02   2.9531769271e+01    0.3050718    0.1464445  76.11  0.001630821    2.287    0.563
        51  -9.8362    129.6918    189.2507   1.0693621500e+02   1.9410469821e+01    0.2558429    0.2168725  83.00 0.0008032387    1.271    0.213
        52  -8.4626    221.3265    189.2897   8.9785106504e+01   3.3723908368e+00    0.1283423    0.0814257  17.52 0.0003858074    1.615    0.381
        53  -8.7948    158.6178    189.2153   1.0124784433e+02   1.4441658645e+01    0.1631483    0.1207875 -30.90 0.0009537817    1.681    0.405
        54  -9.3496    206.5157    189.9280   9.2473254798e+01   5.8530496825e+00    0.2479199    0.2328386 -42.67  0.001455143    1.406    0.289
        55  -9.5374    192.1763    186.1739   9.4410357448e+01   8.9032889403e+00    0.3706766    0.1680092 -45.15  0.001702467    2.770    0.639
        56  -9.5744     61.3323    185.7098   1.2027940935e+02   3.0125340938e+01    0.2031321    0.1748753  83.40  0.000567407    1.163    0.140
        57  -9.2985    125.0900    183.5769   1.0706324498e+02   2.1167870723e+01    0.2656403    0.1848675  80.28  0.001352976    1.808    0.447
        58  -8.5505    186.1978    183.2142   9.5006931189e+01   1.0406719240e+01    0.1708361    0.1415095  56.24 0.0005298668    1.342    0.255
        59  -9.6047     11.5519    182.4597   1.2973566247e+02   3.6030728529e+01    0.2296137    0.1088052  75.21  0.001419905    1.775    0.437
        60  -9.5694    205.1679    180.9743   9.1132543681e+01   7.2871386153e+00    0.2978413    0.2114551  28.73 0.0009742823    1.248    0.199
        61  -9.0444    229.8468    176.8365   8.6067404255e+01   3.4404504418e+00    0.2163109     0.177922  17.45 0.0008324933    1.005    0.005
        62 -10.0822     43.8797    172.8741   1.2268765724e+02   3.4684956018e+01    0.2436689    0.2129997  59.32 0.0006911098    1.245    0.197
        63 -11.1750    229.5259    168.0564   8.4440909842e+01   4.6073052969e+00    0.3732736    0.2876676   3.62 0.0006433892    1.217    0.178
        64 -11.5721    221.2302    165.9933   8.5462128776e+01   6.3861973615e+00    0.6605917    0.5738488 -72.03  0.001801289    1.796    0.443
        65 -10.0574    163.2022    166.8026   9.6572125067e+01   1.7267856863e+01    0.3293503    0.2575553  82.57 0.0009533613    1.746    0.427
        66  -9.6755    150.3172    167.1398   9.9269186985e+01   1.9628355916e+01    0.5035288    0.1719383 -48.25  0.001848966    3.315    0.698
        67  -8.5426    106.6827    168.9635   1.0882985912e+02   2.6907153549e+01    0.1725586    0.1503022  88.65 0.0004280226    1.132    0.117
        68  -8.8545     51.2305    168.1699   1.2071605485e+02   3.4792462504e+01    0.1843218    0.1555503  38.97  0.001299677    1.407    0.289
        69  -8.8095    110.7903    166.7977   1.0762253656e+02   2.6658523137e+01    0.1802779    0.1375022  71.04 0.0004608471    1.323    0.244
        70  -9.0990     43.4522    166.5016   1.2221703315e+02   3.6012450899e+01    0.1152617   0.09267104  79.34 6.400236e-05    1.029    0.028
        71 -10.1443    190.5273    163.9421   9.0661190989e+01   1.2488337277e+01    0.2334199    0.2215809   5.02 0.0003531649    1.116    0.104
        72  -8.8799    183.8953    163.3825   9.1828872262e+01   1.3856844834e+01    0.2222598    0.1880031 -48.96  0.001020447    1.396    0.284
        73 -10.0932    245.0583    162.2929   8.0735658869e+01   2.5751953792e+00    0.3765629     0.246086  14.45  0.002107026    1.530    0.347
        74  -8.4150    141.5128    163.4774   1.0047544903e+02   2.1912995639e+01    0.1358407    0.1202051  57.12 0.0001417524    1.061    0.058
        75  -8.8444     88.1764    169.8680   1.1295430787e+02   2.9579179783e+01    0.1882912    0.1467152  71.21 0.0005413317    1.164    0.141
        76 -11.3431    248.5988    154.3492   7.8563245513e+01   2.9290741863e+00     0.509041    0.2639076 -27.88  0.002587115    1.858    0.462
        77  -9.7433     70.0315    170.1785   1.1690172250e+02   3.2048570852e+01    0.4201802    0.1875256 -74.81  0.002010012    2.454    0.592
        78  -8.6043    101.4358    156.0788   1.0807064316e+02   3.0310655454e+01    0.1868287    0.1244668 -62.02 0.0005597834    1.546    0.353
        79  -9.6206    227.2681    153.9963   8.2002060057e+01   6.8804715058e+00    0.3405006     0.170864 -28.19  0.001072969    2.042    0.510
        80  -9.7271     49.8743    148.8019   1.1900665430e+02   3.8974949558e+01    0.2904439     0.197292  83.73  0.001207595    1.350    0.260
        81  -8.6675    137.5207    144.0389   9.7758147422e+01   2.6332297197e+01    0.2066354    0.1388719 -51.50  0.001028041    1.587    0.370
        82 -10.8539    247.7331    139.9473   7.5672941935e+01   4.9049642970e+00    0.3460486    0.2784376 -59.41  0.001786897    1.885    0.470
        83 -11.3586    238.7344    137.5592   7.6589339848e+01   6.9182611286e+00    0.4539713    0.3164669 -29.24  0.002508336    1.400    0.286
        84 -10.6851    234.2420    130.9946   7.5868152860e+01   8.6923902229e+00    0.4315228    0.2713342 -55.96   0.00193375    2.600    0.615
        85  -8.4274     24.7713    139.3955   1.2392339981e+02   4.3560657742e+01    0.1280132    0.1123664  23.98 0.0005467571    1.528    0.346
        86 -10.9711    208.1040    131.5551   8.0524804028e+01   1.3960626869e+01    0.5195807    0.3528719 -37.29  0.002621917    1.524    0.344
        87  -8.5780    140.2161    133.2232   9.4938648278e+01   2.7921292404e+01    0.1935808    0.1666203  87.49  0.000726288    1.310    0.237
        88  -8.7584    192.7835    131.8397   8.3475183794e+01   1.7159104625e+01    0.2100759    0.1813886  14.01 0.0003560851    1.154    0.133
        89  -9.1510     24.8135    130.4503   1.2305110371e+02   4.5490913154e+01     0.232157    0.1449421  72.91 0.0009037469    1.499    0.333
        90  -9.9293    154.9601    127.0163   9.0242088098e+01   2.6095582464e+01    0.5577511    0.3263106 -49.12   0.00247376    1.847    0.459
        91  -9.1324    228.9240    127.5092   7.5959842603e+01   1.0251157017e+01    0.2036085    0.1760823  -8.77 0.0006977295    1.073    0.068
        92 -10.0595     74.7752    125.4878   1.0959259651e+02   4.0902117011e+01    0.3661435    0.2489216 -57.03  0.001153887    1.417    0.294
        93  -9.0428    171.7332    125.9522   8.6370463316e+01   2.2703767917e+01    0.2172924    0.1942614  -1.91 0.0006292339    1.185    0.156
        94  -9.8444    119.6551    121.9751   9.7417222842e+01   3.4217639028e+01     0.377367    0.2474947 -53.90  0.001047727    1.551    0.355
        95  -8.9543     98.3211    122.5921   1.0294261744e+02   3.7901616578e+01    0.3146875    0.2032146  70.53  0.001458014    2.006    0.502
        96 -10.5302    227.5264    119.1175   7.4249911048e+01   1.1745560022e+01    0.4779759    0.2360654 -39.03  0.002072456    2.061    0.515
        97  -8.6710    140.0663    122.3449   9.2576492107e+01   3.0106001291e+01     0.212317    0.1872003  54.75  0.001074294    1.112    0.100
        98  -8.3293    132.2946    122.6614   9.4489625302e+01   3.1616030463e+01    0.1469917    0.1133745  89.08 0.0007029176    1.652    0.395
        99  -8.8503     82.1002    121.0574   1.0688205393e+02   4.0819689551e+01    0.2118448    0.1503601  78.28 0.0005554946    1.621    0.383
       100 -12.2450    248.8102    112.9564   6.9464252350e+01   8.2524270176e+00    0.9552074     0.507332 -33.62  0.004164191    1.752    0.429
       101 -11.1067    247.0198     98.3024   6.6261648366e+01   1.0589349029e+01    0.6658598    0.3614672 -40.73  0.003093153    1.855    0.461
       102 -10.9270    249.6918     90.7717   6.4066762693e+01   1.1044045662e+01    0.6415188    0.2616314 -29.90  0.002636503    2.192    0.544
       103  -9.9695      4.2432    134.7895   1.2834709021e+02   4.6195992995e+01    0.2610743    0.1209868  55.49  0.001275265    2.019    0.505
       104 -10.2951    217.7498    107.3832   7.3068402786e+01   1.5586639050e+01    0.3847732    0.1692823 -39.73  0.001447537    2.289    0.563
       105  -9.7665    215.4566    101.9589   7.2105911520e+01   1.6921639780e+01    0.3199829    0.2085226 -61.32   0.00136901    2.296    0.565
       106 -10.0198    192.9377    111.6763   7.8638609372e+01   2.0469860768e+01    0.3507506    0.2765478  74.32 0.0006709665    1.609    0.379
       107 -12.1663    183.9026    104.7818   7.8662381300e+01   2.3704363011e+01    0.5872577    0.4829218 -83.40 0.0006430392    1.587    0.370
       108  -9.3837    136.1773    108.6005   9.0228584736e+01   3.3670572757e+01    0.3712693    0.2551279  76.00  0.001087315    2.103    0.524
       109  -9.7532    174.9498    107.1406   8.1095980493e+01   2.5353620611e+01    0.2345545    0.2141977 -30.33 0.0003361764    1.108    0.097
       110  -9.6846     51.9751    103.6937   1.1208623972e+02   4.8745668803e+01    0.5106521    0.1656651 -63.15  0.002026837    2.683    0.627
       111 -10.6466     47.2219    103.0251   1.1335613571e+02   4.9431556836e+01     0.376298    0.2574064 -72.32  0.001070557    1.290    0.225
       112 -10.7084    236.2632    103.9136   6.9216619435e+01   1.2075859272e+01    0.4445253    0.3219629  21.02  0.002300571    1.506    0.336
       113  -8.8158     73.7382    102.3430   1.0549948546e+02   4.6238770130e+01    0.3398277    0.1411752  49.00  0.001351952    2.810    0.644
       114  -9.0390      5.5156    102.5019   1.2526953058e+02   5.3097910406e+01    0.1151088   0.08852582 -82.99 0.0001081799    1.007    0.007
       115  -9.5365    227.3020     99.1729   6.9455296633e+01   1.4694527326e+01    0.2824545     0.218774 -36.05 0.0004617432    1.272    0.214
       116 -10.2397    132.0084     99.0584   8.8813780255e+01   3.6477299285e+01    0.3627493    0.2851433 -80.73 0.0009122834    1.614    0.380
       117  -9.1066    119.1688    100.1452   9.2383177572e+01   3.8895057131e+01    0.2040982    0.1746559 -83.47 0.0005908333    1.314    0.239
       118  -9.7619    235.1687     95.6122   6.7349361630e+01   1.3481127272e+01    0.2815084    0.2080275 -49.12  0.001272269    1.523    0.343
       119  -9.8558    214.2645     93.1481   7.0055175730e+01   1.8533786244e+01      0.43586    0.2818291 -56.53  0.001916692    2.031    0.508
       120  -9.8324    210.0080     93.8868   7.0970277919e+01   1.9406171399e+01    0.2669875    0.2419918  -2.51 0.0002682058    1.080    0.074
       121 -10.3539    212.9038     87.5908   6.8829106015e+01   1.9692403940e+01    0.4540321    0.2035399 -36.75  0.001777681    2.122    0.529
       122 -10.7363    149.2558     93.6267   8.3168782901e+01   3.3744831071e+01     0.431417    0.2895643 -36.56   0.00055566    1.516    0.340
       123  -9.6289    115.4802     94.5199   9.1895014173e+01   4.0803558405e+01    0.2638569    0.2600554  85.82  0.001512742    1.022    0.022
       124  -8.9498    158.1286     92.3240   8.0778141305e+01   3.1942086629e+01    0.2631409     0.210709 -23.20 0.0006852977    1.338    0.253
       125  -9.4784     15.6290     92.7387   1.2118934899e+02   5.4597168995e+01    0.1810806    0.1448148 -12.23 0.0008858628    1.701    0.412
       126  -8.9192    191.3408     90.3029   7.3378125132e+01   2.4387450563e+01    0.3015858     0.193391  80.63  0.001177536    2.511    0.602
       127  -9.2295    200.7966     86.5846   7.0640259592e+01   2.2718930614e+01    0.2777694    0.2191571 -53.04 0.0006053732    1.410    0.291
       128 -11.1292    196.5188     82.2712   7.0224126928e+01   2.4432258331e+01     0.547776    0.2976589 -40.52 0.0008163977    1.837    0.456
       129 -10.9460    242.6331     80.2954   6.2450682072e+01   1.3965519334e+01     0.640242     0.175095 -37.29   0.00180731    3.181    0.686
       130  -9.6079    119.4660     82.5095   8.7484955272e+01   4.2462599032e+01    0.2936688    0.2440158 -43.81 0.0005533482    1.178    0.151
       131  -9.8277    122.4525     80.4649   8.6085982447e+01   4.2242905464e+01    0.3053642    0.2797609 -81.71 0.0006493077    1.202    0.168
       132 -10.5017    147.2792     80.4878   7.9873086754e+01   3.6670657710e+01    0.4834089    0.3393359 -29.04  0.001493467    1.504    0.335
       133  -9.2987    145.9714     74.9874   7.8525214652e+01   3.7987000692e+01    0.2321549    0.2265072 -42.68 0.0003920292    1.041    0.039
       134 -10.2308    164.4176     78.6730   7.5490592741e+01   3.2892490257e+01    0.4916502    0.3336094 -74.76  0.001973336    2.316    0.568
       135  -9.2082     17.0541     78.9061   1.1870686786e+02   5.7597295887e+01    0.2205281     0.141567 -72.03  0.001118795    1.262    0.208
       136 -11.2572    249.4304     75.0209   6.0233064197e+01   1.3186618379e+01    0.3882626    0.2509509 -36.52 0.0008376254    1.417    0.294
       137  -9.3391    179.0578     77.9100   7.2268452521e+01   2.9424381675e+01    0.2275378    0.2271082  29.03 0.0004591991    1.036    0.035
       138 -11.7885    206.8362     68.9287   6.4750771171e+01   2.3940446246e+01    0.5133505    0.4417539 -54.12 0.0009892123    1.230    0.187
       139 -10.4709    174.0356     72.8059   7.1765823933e+01   3.1514481380e+01    0.4910077    0.3300726 -15.10  0.001445259    1.775    0.437
       140 -11.9597    177.7005     52.9738   6.5006483409e+01   3.3685577605e+01    0.5469515    0.3785883 -56.10 0.0006980166    1.673    0.402
       141 -11.0304    183.2515     71.5158   6.9600119340e+01   2.9419938391e+01    0.4817942    0.3867968 -27.01 0.0007838022    1.247    0.198
       142 -11.3830    185.6184     62.4198   6.6469980078e+01   3.0238620400e+01    0.3727575    0.3176797 -22.31 0.0002275533    1.183    0.155
       143 -11.1415    165.6062     69.6750   7.2540811187e+01   3.4135354925e+01    0.9495582    0.2880369 -32.79  0.002526239    3.369    0.703
       144  -8.8381    167.4370     61.5096   6.9641374624e+01   3.5008851228e+01    0.1520417     0.148652   6.27 7.941671e-05    1.013    0.013
       145  -9.8620    151.0749     71.8354   7.6373333920e+01   3.7332265025e+01    0.3280709    0.2720442  78.73 0.0007850396    1.413    0.292
       146 -10.2390    142.1990     68.5076   7.7404405179e+01   4.0048321012e+01    0.3689508     0.305281 -86.39  0.001799527    1.501    0.334
       147 -10.7946    249.8676     66.5634   5.8070344839e+01   1.4190638611e+01     0.310988    0.2247567 -24.00   0.00052163    1.278    0.218
       148 -10.8959     47.6797     63.1060   1.0460083999e+02   5.8334458943e+01    0.3365935    0.2428228 -67.09 0.0005414665    1.372    0.271
       149 -10.6733     51.0655     56.3437   1.0143091555e+02   5.9384956546e+01    0.5017025    0.3649895 -11.99  0.001991827    1.718    0.418
       150  -9.8419    161.5112     61.6259   7.0891784857e+01   3.6487303085e+01    0.3708362    0.2503751  -8.99  0.001051948    1.889    0.471
       151  -9.9011    122.2296     62.0588   8.0352001371e+01   4.5812749945e+01    0.3039326    0.2516296 -72.85 0.0008187428    1.489    0.328
       152  -9.2578      8.7956     62.6711   1.1882993986e+02   6.1726189207e+01    0.1896292    0.1387184 -71.30 0.0005839018    1.110    0.099
       153  -8.9893    112.0482     61.6789   8.3024755272e+01   4.8086954337e+01    0.2005392    0.1910833  38.00 0.0004854388    1.083    0.076
       154 -10.6742    171.0318     59.1335   6.8186919485e+01   3.4468173780e+01    0.5184523    0.3217649 -59.98 0.0007441582    2.165    0.538
       155 -10.9691    167.3334     49.8908   6.5957007161e+01   3.6823402281e+01    0.6176931    0.2779453 -28.34 0.0006133392    2.279    0.561
       156 -10.0501     18.1440     58.7954   1.1457745976e+02   6.1979638610e+01    0.4480122    0.2502066  87.72  0.002245653    2.503    0.600
       157  -9.4611    197.9428     58.8299   6.3303705937e+01   2.7635062324e+01    0.3917241    0.1974855 -35.18  0.001106199    1.891    0.471
       158  -9.8136    134.7446     58.5744   7.5970816098e+01   4.3559662216e+01    0.5055662    0.1904942 -47.56   0.00158421    3.314    0.698
       159 -11.7193    107.7527     57.1471   8.2713335338e+01   4.9830023354e+01    0.3402373    0.2904362 -25.96 0.0003275965    1.148    0.129
       160  -9.2953     24.9310     60.0681   1.1228636547e+02   6.1192897292e+01    0.1914702     0.152343 -54.83 0.0009413894    1.046    0.044
       161  -9.6894     78.4122     57.5790   9.2080257847e+01   5.5222613407e+01     0.350451    0.2618792 -89.64  0.001715529    2.110    0.526
       162  -9.9401    227.1968     55.7201   5.8136642265e+01   2.0816612577e+01    0.3512629    0.2160969 -37.62 0.0007086588    1.518    0.341
       163 -10.1702    248.6700     49.5062   5.3914421508e+01   1.6605163278e+01    0.2980157     0.233813 -21.46  0.001334282    1.224    0.183
       164 -10.8913    120.9949     49.3507   7.6276210421e+01   4.8326346412e+01    0.5453033    0.3664282  74.39   0.00185493    2.144    0.534
       165  -9.7098     73.4501     50.7222   9.1449040592e+01   5.7388026267e+01    0.2461265    0.2136151 -82.61 0.0007237676    1.481    0.325
       166  -8.9793    235.2160     48.1727   5.5114287690e+01   1.9877342035e+01    0.2053419    0.1543917 -55.23 0.0009844719    1.374    0.272
       167 -10.5368    228.0375     45.2661   5.5205056709e+01   2.1960748104e+01    0.6464944    0.2873863 -47.49  0.001871492    2.401    0.583
       168  -9.0642    202.3467     45.6732   5.8763398295e+01   2.8332146671e+01    0.3237811    0.2162166 -63.01  0.001363196    1.798    0.444
       169 -10.4429    188.8477     44.8875   6.0595127757e+01   3.1931026540e+01    0.3470695    0.2548077 -39.80 0.0004614464    1.353    0.261
       170  -9.9482    188.6783     38.7532   5.8728297286e+01   3.2789939568e+01    0.3000631    0.2491486  21.91 0.0006097648    1.334    0.251
       171 -12.1155    146.5501     39.8885   6.6771679719e+01   4.3623618304e+01    0.7044985    0.4475152 -65.23  0.001276803    2.310    0.567
       172  -9.3582    234.5491    246.3896   9.6554224673e+01  -4.6759985059e+00    0.2112892    0.1749035 -43.94  0.001648848    2.084    0.520
       173 -12.1768    214.2302    238.1850   9.8621515056e+01  -9.6546012840e-01    0.8345784    0.6638747 -37.03   0.00637508    1.762    0.432
       174 -10.8573    176.1649    240.1958   1.0513329044e+02   4.5793259337e+00    0.4087944    0.3256451 -63.36   0.00206003    1.902    0.474
       175  -9.3152    176.3611    230.8796   1.0392901264e+02   5.6624390944e+00    0.2859154    0.2251273   8.37  0.002041206    1.477    0.323
       176  -9.6237     79.8200    243.5155   1.2160352636e+02   1.7985033606e+01    0.1961231    0.1115841  79.01  0.001268169    1.908    0.476
       177 -10.8271    122.2627    241.0770   1.1432033299e+02   1.2542332540e+01     0.202571     0.174859  65.34  0.001049454    1.212    0.175
       178  -9.0653    163.5996     42.4493   6.4220454343e+01   3.8868812743e+01    0.2825427    0.1840533 -23.62 0.0009042002    1.600    0.375
       179  -9.0100    124.0227     41.0116   7.2432738630e+01   4.8977479980e+01    0.1825621    0.1735388  23.21  0.001008693    1.028    0.027
       180 -10.8140     96.3446     39.3165   7.9562632053e+01   5.5318564076e+01    0.2969913    0.2828327  -4.76 0.0004984759    1.052    0.049
       181 -10.6711    194.3542     37.3131   5.7432815884e+01   3.1488777512e+01    0.4352026    0.3330736 -45.39  0.001146806    1.314    0.239
       182  -9.5730    194.7784     20.9769   5.2381709692e+01   3.3321820867e+01    0.3014585    0.2669283  23.09 0.0003822095    1.234    0.190
       183 -10.3348    245.9938    238.0106   9.3609453682e+01  -5.5389224252e+00    0.2702776    0.1672552  12.11  0.001673409    1.447    0.309
       184 -10.3768    249.2876    234.1491   9.2537201312e+01  -5.6598713791e+00    0.2920872    0.2022687  -4.45   0.00218708    1.399    0.285
       185  -9.6079     89.4663     38.2649   8.1327467433e+01   5.6851315240e+01    0.2890204    0.2444198 -85.97  0.001044813    1.664    0.399
       186  -9.7752    225.1373     36.3975   5.3137267340e+01   2.3761169346e+01    0.4164536    0.2071119 -31.23  0.001061157    1.848    0.459
       187 -10.5566    226.5793     29.8868   5.1195550685e+01   2.4174721402e+01    0.7050967    0.2437778 -29.18  0.002633853    2.579    0.612
       188 -11.7185    180.7923     35.1539   5.8832046783e+01   3.5330475254e+01    0.6073388    0.4457974  11.80  0.001802751    1.653    0.395
       189 -10.2157    172.9926     36.3584   6.0509562290e+01   3.7234259687e+01    0.4114306    0.3694259  49.79  0.001478597    1.096    0.087
       190 -10.2705    164.0171     37.0376   6.2324764034e+01   3.9505593126e+01    0.5418189    0.3236218  82.28  0.002153307    2.261    0.558
       191  -9.8841    200.3453     35.3457   5.5987241139e+01   3.0174973226e+01     0.262509    0.2459106  28.32 0.0004744219    1.124    0.111
       192  -9.4601    215.4163     33.9950   5.3631680237e+01   2.6475548652e+01    0.2646087    0.2413047  19.24 0.0006960167    1.198    0.166
       193  -9.9995    100.5707    232.8394   1.1726313084e+02   1.6810172075e+01    0.2262792    0.1259191  58.17 0.0009250078    1.542    0.351
       194  -9.7311    118.1929     29.6232   6.9525819949e+01   5.2033226913e+01    0.2961248    0.2589865 -49.34 0.0004617036    1.276    0.216
       195  -9.4714    116.5799     24.9112   6.8035988837e+01   5.3057381610e+01    0.2536773    0.2087797  50.61 0.0003576084    1.209    0.173
       196  -9.1273    109.4915     30.0758   7.2009696130e+01   5.3963478943e+01    0.2199026    0.1999948 -62.84 0.0008810579    1.307    0.235
       197  -9.2573    171.3787     28.3725   5.8137570584e+01   3.8672943183e+01    0.2878183    0.2438452 -58.87  0.001106627    1.259    0.206
       198  -9.2923    103.7537     28.2884   7.2881339843e+01   5.5492237673e+01    0.2266885    0.2163543 -72.24 0.0006250451    1.252    0.201
       199  -8.6924    163.9389     27.6914   5.9156477000e+01   4.0728371328e+01    0.2080646    0.1890409  60.03  0.000424735    1.072    0.067
       200  -9.3606    176.9335     25.2759   5.6236904007e+01   3.7566442397e+01    0.2412787    0.2108274 -28.75 0.0004406536    1.166    0.143
       201  -8.6855     85.7853     26.4595   7.7621093048e+01   5.9471952771e+01    0.2481181    0.1364053  52.73  0.001131048    2.066    0.516
       202  -8.7163    127.7017     23.5914   6.4836032509e+01   5.0554765060e+01    0.2728685    0.1291212  53.84  0.000815669    1.978    0.494
       203 -10.2641     73.3035     21.4572   7.9696926854e+01   6.2557841779e+01    0.3729567     0.298632  84.62  0.001242243    2.103    0.525
       204 -10.6837    183.9300     21.4027   5.3962876578e+01   3.6148056731e+01    0.2757396    0.2629484  42.59 0.0003549873    1.068    0.064
       205 -10.2257    208.3365     27.0034   5.2489799099e+01   2.9105982096e+01    0.2988054    0.2512966  11.73 0.0005885731    1.356    0.262
       206  -9.3710    158.0682     19.7015   5.7377181409e+01   4.3223634741e+01    0.2644112    0.1994235 -36.94  0.001320902    1.366    0.268
       207  -9.5180    123.2462     19.3510   6.4158971159e+01   5.2171103843e+01    0.2642135    0.2250894 -44.69 0.0005731923    1.294    0.227
       208  -9.2032    111.2640     20.3317   6.7494347397e+01   5.4893752414e+01    0.3096873    0.1895477  66.38  0.001399393    1.949    0.487
       209  -8.3556    151.6629     19.7336   5.8509268906e+01   4.4907274078e+01    0.1552731    0.1029996  35.95 0.0003016644    1.592    0.372
       210  -9.5647     23.7320     18.3271   9.9831133372e+01   6.9821865414e+01    0.2359073    0.1801588 -17.46  0.001013949    1.256    0.204
       211  -9.4466     59.3345     17.3393   8.3112406384e+01   6.5535943513e+01    0.2234285    0.1974273 -14.61 0.0005009668    1.082    0.076
       212  -9.1689     26.9911    233.0198   1.2953224382e+02   2.5715635449e+01    0.1258804    0.1152659 -66.91  0.001135984    1.757    0.431
       213  -8.4937      1.0000     15.9767   1.1082666148e+02   7.1894007943e+01    0.1871141   0.04968167 -60.89 0.0007042675    2.931    0.659
       214 -10.7439    247.4834    226.6174   9.1675514917e+01  -4.7262984399e+00    0.3250891    0.2219408 -34.69  0.002269638    2.011    0.503
       215  -8.9748    183.3309     13.7377   5.1592599260e+01   3.7132558058e+01    0.3219951    0.1458516 -71.44 0.0009704126    4.186    0.761
       216 -10.9737    249.2800    218.1774   9.0075965399e+01  -4.1959143029e+00    0.6115804    0.2097724 -34.06  0.003032794    3.413    0.707
       217 -10.9681    150.7427    219.6122   1.0697734391e+02   1.1214106787e+01    0.5077171    0.4170513  44.34  0.003022231    1.045    0.043
       218  -9.4010    181.1774    222.6700   1.0200778957e+02   5.9127036424e+00    0.2692313    0.2084052  61.48  0.001277906    1.588    0.370
       219  -9.6316    177.0535    218.8555   1.0220170684e+02   7.0642886396e+00    0.2092078    0.1923397 -60.26  0.000528269    1.461    0.316
       220  -8.8390    219.1111    221.8276   9.5471303509e+01  -7.8068485099e-03    0.1633067    0.1337204  36.01 0.0006192628    1.253    0.202
       221 -10.1589    119.9023    217.7206   1.1233655049e+02   1.6312864766e+01    0.2611775    0.2057597  88.22 0.0007229183    1.437    0.304
       222 -11.6142     36.0152    214.8410   1.2711781907e+02   2.7772123705e+01     0.512785    0.3784386  66.15  0.003008884    1.053    0.050
       223  -9.0754     61.5104    216.0094   1.2273367154e+02   2.4646425692e+01    0.2294425   0.09586856 -80.95  0.001221289    2.792    0.642
       224  -9.7505     11.0646    216.5050   1.3139167011e+02   2.9984075852e+01    0.2203333    0.1538857  41.44  0.001048796    1.551    0.355
       225 -10.8937    209.6469    223.8822   9.7341305572e+01   1.2435344383e+00    0.5786031    0.3011571 -42.58  0.003322909    2.648    0.622
       226  -9.0536    222.6124    213.8140   9.3660007692e+01   3.1172885555e-01    0.2944938     0.223639 -23.36  0.002056867    1.506    0.336
       227  -9.9060    218.9819    208.7499   9.3459562232e+01   1.4572280122e+00    0.1980636    0.1611164  -0.47  0.001340952    1.232    0.188
       228 -10.5333    221.4216    206.2132   9.2640528708e+01   1.3517258114e+00    0.2753102    0.2149676 -36.73  0.001862334    1.657    0.396
       229  -9.2869    234.1566    211.7386   9.1440691539e+01  -1.2728054368e+00    0.2464638    0.2101844  63.76  0.001692644    1.940    0.485
       230 -10.6805    228.6174    211.7535   9.2344699346e+01  -4.1014840125e-01    0.2950427    0.1991566 -38.74  0.001893826    1.971    0.493
       231 -10.8233    228.9219    205.1519   9.1219594093e+01   2.6288129839e-01    0.3988736    0.1800487 -28.96  0.002095856    2.483    0.597
       232 -11.0922    232.6089    195.1306   8.8911760904e+01   7.9291708283e-01    0.6761281    0.3084741 -31.92  0.003510739    2.388    0.581
