#   1 NUMBER                 Running object number                                     
#   2 MAG_AUTO               Kron-like elliptical aperture magnitude                    [mag]
#   3 X_IMAGE                Object position along x                                    [pixel]
#   4 Y_IMAGE                Object position along y                                    [pixel]
#   5 X_WORLD                Barycenter position along world x axis                     [deg]
#   6 Y_WORLD                Barycenter position along world y axis                     [deg]
#   7 A_WORLD                Profile RMS along major axis (world units)                 [deg]
#   8 B_WORLD                Profile RMS along minor axis (world units)                 [deg]
#   9 THETA_WORLD            Position angle (CCW/world-x)                               [deg]
#  10 FWHM_WORLD             FWHM assuming a gaussian core                              [deg]
#  11 ELONGATION             A_IMAGE/B_IMAGE                                           
#  12 ELLIPTICITY            1 - B_IMAGE/A_IMAGE                                       
         1 -12.4549      3.0827     62.6863   1.1338953033e+02   6.2679365175e+01    0.6607993    0.3250946 -82.37  0.003229182    2.557    0.609
         2 -13.9531    218.2913     26.6369   4.2433314929e+01   2.7533475786e+01     1.389647    0.9554112  37.66  0.007176864    1.984    0.496
         3 -13.3483    240.7397      5.4685   3.5525322405e+01   2.4830416206e+01    0.7168987    0.5117801 -71.04  0.002754726    1.186    0.157
         4 -10.9743      2.1893      4.7355   9.5663515256e+01   7.3791181185e+01    0.4206083    0.1048461 -48.78  0.001875991    3.256    0.693
         5 -11.0290    147.8448    238.6447   1.0284449089e+02   4.7940100642e+00    0.2201317    0.1658301 -14.06  0.001193386    1.888    0.470
         6 -16.1944      7.0272    239.6541   1.2894443931e+02   2.3616349659e+01     11.72314     7.109742  88.39   0.07048257    1.346    0.257
         7 -12.8675    154.8946    228.7258   1.0009927305e+02   5.2601907422e+00    0.9335214     0.279556  35.18  0.003293145    3.447    0.710
         8  -8.9905     77.2609    235.3314   1.1618175094e+02   1.6131340689e+01   0.09909067   0.09320515 -36.31 0.0002197863    1.570    0.363
         9 -14.8920      9.9443    208.0284   1.2690806020e+02   2.9430814673e+01     2.555601     1.168315 -59.46   0.01424985    2.530    0.605
        10 -11.5643     54.8690    184.0039   1.1578186968e+02   2.9728834585e+01    0.3533283    0.2654715 -37.37  0.001684117    1.926    0.481
        11 -11.6141     61.1089    177.6066   1.1363266044e+02   3.0390087359e+01    0.2820607    0.2389811 -60.85 0.0004373277    1.300    0.231
        12 -10.1207    231.2768    170.9548   7.4743869508e+01   1.4797506992e+00    0.1945563    0.1605154 -15.97 0.0004621166    1.094    0.086
        13  -8.8692    195.3512    168.6758   8.1176579339e+01   8.5656475549e+00    0.1417644      0.11747  87.10 -1.989639e-05    1.755    0.430
        14 -10.9874     72.0177    167.1348   1.0967155818e+02   3.1353295094e+01    0.2637724    0.2287134 -76.79 0.0003429702    1.097    0.088
        15 -13.1185     58.4052    163.8556   1.1257469029e+02   3.3947493258e+01    0.5158457    0.3051675 -48.98  0.001569087    1.917    0.478
        16 -12.5236     54.0204    119.8265   1.0698998898e+02   4.5173688777e+01     0.959514    0.3950345 -76.13  0.003199583    3.676    0.728
        17 -12.5575     78.8794    159.1900   1.0678241423e+02   3.2249601267e+01     1.167743    0.6142344  62.55  0.002891566    2.439    0.590
        18 -13.0510     67.8765    144.1196   1.0725446131e+02   3.7455432189e+01    0.7849539    0.5326438  70.58  0.002522632    1.663    0.399
        19 -12.8435     58.3090    134.1550   1.0824247594e+02   4.1142802401e+01     1.109568    0.4513608 -78.17  0.003561211    3.974    0.748
        20 -10.3670     94.6639    145.5816   1.0032221668e+02   3.3041929406e+01     0.298579    0.2658093  83.16 0.0008803347    1.104    0.094
        21  -9.3336     98.1596    142.0157   9.8698439291e+01   3.3310717621e+01    0.2321032    0.1849793 -18.42 0.0006287087    1.679    0.404
        22 -12.0323     82.7169    144.0343   1.0323733703e+02   3.5325766222e+01    0.2963917     0.257586 -60.50 0.0004667079    1.120    0.107
        23 -12.1874     33.5538    156.8669   1.1784313935e+02   3.8433018194e+01    0.4454905    0.3000016  77.59  0.002584303    1.395    0.283
        24 -12.4924     18.6606    219.4746   1.2594874979e+02   2.6283766280e+01     0.524428    0.3379452  63.15  0.001483923    1.198    0.165
        25 -12.8383     24.9261    213.1054   1.2440790255e+02   2.6909889954e+01    0.3796733    0.3250025  82.33 0.0007793712    1.236    0.191
        26 -10.7182     35.0568    139.9517   1.1546071852e+02   4.2322894189e+01      0.20629    0.1695492 -81.06 0.0006917244    1.012    0.012
        27 -10.6580    106.9184    132.3012   9.4301656018e+01   3.4090336330e+01    0.3925939    0.3772212 -86.48  0.001482054    1.016    0.016
        28 -10.3765     94.2786    129.4708   9.7190835956e+01   3.6995987023e+01    0.2801835    0.2485378 -34.17 0.0004514717    1.232    0.188
        29 -11.2067     82.8062    230.8282   1.1469773273e+02   1.6197187329e+01    0.2641999    0.1992621  85.51  0.001043721    1.290    0.225
        30  -9.7481    114.3957    126.8197   9.1023176242e+01   3.3986027673e+01    0.2230715     0.138482 -40.77 0.0005483522    1.708    0.414
        31  -9.0423    134.3260    148.6727   9.0712798005e+01   2.5012152652e+01     0.158166    0.1199544  81.44 0.0005531834    1.698    0.411
        32  -9.5043    105.0504    120.9441   9.2237424895e+01   3.7133259227e+01    0.2182271    0.2111683 -54.97 0.0003229446    1.029    0.028
        33 -11.4045     27.9850    112.9710   1.1367522455e+02   4.9485218165e+01    0.3968063    0.1948358  68.80  0.001618244    3.250    0.692
        34 -11.1095     22.9515    111.5049   1.1497486738e+02   5.0247919525e+01    0.2414929    0.1625883  -4.66  0.001353974    2.084    0.520
        35  -9.2626    203.9539    111.2093   6.6196599211e+01   1.7563550024e+01    0.2501622    0.1711423  23.91  0.001080628    1.950    0.487
        36 -11.1509     52.3066    105.5902   1.0475935449e+02   4.8828530825e+01    0.2996078    0.2264406 -66.87  0.001666426    1.208    0.172
        37  -9.1452    168.0488    113.0977   7.4076429948e+01   2.5455516481e+01    0.2540291     0.195186 -80.76  0.001117287    1.738    0.425
        38  -8.8317     45.9805     91.4950   1.0381567870e+02   5.2881713976e+01    0.1822221    0.1021944  54.07 0.0008100604    2.515    0.602
        39 -10.3784     52.7904     89.8191   1.0108752349e+02   5.2502936847e+01    0.2382145    0.2075521 -41.92 0.0006549143    1.066    0.062
        40  -8.6343     63.4613     83.4739   9.5769182666e+01   5.2599299367e+01    0.1388362    0.1255447 -47.92 0.0001347855    1.050    0.047
        41 -15.1844     33.4582    204.4991   1.2216185160e+02   2.7768485278e+01     2.292331     1.568631  52.08  0.009401131    1.308    0.236
        42 -10.4015     13.2055     60.1719   1.0877544719e+02   6.2675950342e+01    0.1539264    0.1320425 -77.51 0.0006160531    1.321    0.243
        43 -11.7060    199.4435     43.7921   4.9189646662e+01   2.9874966649e+01    0.7358387    0.2750587 -42.64   0.00277235    2.526    0.604
        44 -11.3167     70.5267    242.0661   1.1801628162e+02   1.5811545804e+01    0.4426236    0.2113193  86.56  0.002180561    2.782    0.641
        45  -9.5059    189.7281     15.4114   4.2735368285e+01   3.5829739590e+01     0.189803    0.1139743  61.61 0.0008789734    1.544    0.352
        46 -11.5109     64.6370    242.4165   1.1912199740e+02   1.6526094582e+01     0.278644    0.1945848 -64.09  0.001264634    1.696    0.410
