#   1 NUMBER                 Running object number                                     
#   2 MAG_AUTO               Kron-like elliptical aperture magnitude                    [mag]
#   3 X_IMAGE                Object position along x                                    [pixel]
#   4 Y_IMAGE                Object position along y                                    [pixel]
#   5 X_WORLD                Barycenter position along world x axis                     [deg]
#   6 Y_WORLD                Barycenter position along world y axis                     [deg]
#   7 A_WORLD                Profile RMS along major axis (world units)                 [deg]
#   8 B_WORLD                Profile RMS along minor axis (world units)                 [deg]
#   9 THETA_WORLD            Position angle (CCW/world-x)                               [deg]
#  10 FWHM_WORLD             FWHM assuming a gaussian core                              [deg]
#  11 ELONGATION             A_IMAGE/B_IMAGE                                           
#  12 ELLIPTICITY            1 - B_IMAGE/A_IMAGE                                       
         1 -14.3508    240.1207     86.7512   2.0988121123e+00   1.7618559975e+01     2.144496     1.054466 -37.91   0.01205523    1.563    0.360
         2 -14.8769    242.9697     48.4636   3.5412810949e+02   2.2227610827e+01     3.585548     1.347148 -40.32   0.01898312    1.885    0.469
         3 -14.4479    247.0520     12.7875   3.4680130581e+02   2.5622706666e+01     1.333251     0.999194  67.40  0.008506624    1.765    0.433
         4 -13.8990    247.3324      4.0415   3.4509333858e+02   2.6471187032e+01     1.380843    0.7537083  60.06  0.008898497    2.583    0.613
         5 -12.6159    208.2011     18.8976   3.5013380406e+02   3.2142667470e+01     1.105065    0.3911939 -33.57  0.005263551    2.370    0.578
         6 -13.1109    204.2911      5.5266   3.4728423179e+02   3.4342171790e+01    0.7809341    0.6300899 -88.31  0.005603558    1.257    0.205
         7 -11.0456    229.3067      7.5690   3.4652334802e+02   2.9300514582e+01    0.2501386    0.2068199 -27.68  0.001629027    1.490    0.329
         8 -12.8569    223.3074      3.2258   3.4587297613e+02   3.0854554286e+01     0.767893    0.3421335  86.39   0.00403303    2.250    0.555
         9 -12.1803    185.8825      5.1724   3.4824633817e+02   3.8237691849e+01    0.3876275     0.209512 -72.40  0.002152219    1.651    0.394
        10 -11.2724    117.1780      6.4856   3.5496723877e+02   5.4371445221e+01    0.2147227    0.1603383 -63.51 0.0003843037    1.289    0.224
        11 -10.2499     91.3762      7.1958   3.5952600473e+02   6.0768188198e+01    0.1795859     0.115785 -40.60 0.0005019032    1.642    0.391
        12 -11.7114    191.7812      2.4128   3.4721946170e+02   3.7243878628e+01    0.3648945    0.2049324  79.71   0.00213712    1.716    0.417
        13 -10.0221    227.9066    203.2705   2.5113925393e+01   2.3146441693e+00    0.2644258    0.1345933  35.25 0.0009751742    2.267    0.559
        14 -11.5434    219.9495    242.4781   3.2211520203e+01  -1.9880068536e+00    0.3384269    0.2342115 -45.58  0.002401463    2.123    0.529
        15 -12.9076    211.8401    242.9408   3.3593275941e+01  -1.2891080831e+00    0.5019455    0.2926825 -27.63  0.003482669    1.491    0.329
        16 -13.1459    223.1746    249.1300   3.2611582416e+01  -3.0774535304e+00     1.060265    0.2257048  29.41   0.00472994    4.310    0.768
        17 -13.2178    234.4807    237.0868   2.9188918093e+01  -2.6485789364e+00    0.6963025    0.6467333  49.45  0.005624965    2.350    0.575
        18 -12.6035    238.4377    231.3492   2.7772921645e+01  -2.3137200443e+00    0.6004652    0.5159538 -63.24  0.004352622    2.844    0.648
        19 -12.1709    246.9397    119.3311   7.7222515112e+00   1.1984050800e+01    0.5401093    0.2818851 -38.25  0.002631304    1.444    0.307
        20 -10.8493    225.6134    120.2131   1.0489142291e+01   1.4943932790e+01    0.1921407    0.1363103 -36.08  0.001208358    1.134    0.118
        21 -10.8829    222.9955    117.4938   1.0285616838e+01   1.5765665742e+01    0.2301324    0.1412648 -60.89   0.00107901    2.140    0.533
        22 -10.1140    201.9934    115.4875   1.2814385652e+01   1.9517261200e+01    0.1688464    0.1136785  87.05 0.0008105236    2.600    0.615
        23 -11.1347    196.1819    113.4085   1.3249615301e+01   2.0876555463e+01     0.350968    0.1597772 -45.73  0.001581681    1.957    0.489
        24 -10.2132     25.0079    111.7203   6.1789802874e+01   5.1418981664e+01    0.2383061    0.2031966 -76.67 0.0004425904    1.102    0.093
        25 -11.0720    198.4477    108.0832   1.1735981496e+01   2.1370993663e+01    0.2888959      0.21254 -32.83  0.001171675    1.256    0.204
        26 -10.0275     85.9102    107.0469   3.7463556573e+01   4.3913053260e+01    0.2294728    0.2179343  80.50 0.0003636179    1.049    0.047
        27 -11.3017    208.3690    104.5397   9.5430428976e+00   2.0208935766e+01    0.3851556    0.2651594 -72.44  0.001946663    1.956    0.489
        28  -9.7129    169.0198     97.9870   1.4189733725e+01   2.8742294053e+01    0.2205204     0.174057   1.29 0.0009686573    1.781    0.438
        29  -8.8108     47.6898     97.7158   4.9595959355e+01   5.2611781207e+01    0.1522226    0.1139977 -27.32 0.0002418756    1.571    0.363
        30 -11.0368    180.1911    249.4074   3.9958158811e+01   9.8925676748e-01    0.2662596    0.1229455  40.36  0.001390739    2.842    0.648
        31 -12.6693    247.9146     55.2792   3.5513435225e+02   2.0560644170e+01     1.216491    0.4105333 -27.31  0.004643331    4.324    0.769
        32 -12.0699    227.2413    242.5759   3.1073054948e+01  -2.6600688979e+00    0.5081289    0.2689786 -14.25  0.003356789    1.709    0.415
        33 -12.7887    244.3901    225.4329   2.6035711339e+01  -2.1336343905e+00    0.6055154    0.3185585 -20.59  0.004107349    1.558    0.358
        34  -8.7535    144.7095    200.3089   4.0055345837e+01   1.3064944848e+01    0.1201296    0.1017942  61.60 0.0002867888    1.580    0.367
        35  -9.3872    127.4982     90.0705   2.0766608857e+01   3.9130169779e+01    0.2191181    0.1445634 -45.04 0.0004586861    1.472    0.321
        36 -10.6809      5.3950     90.2358   6.7502503401e+01   5.8786239253e+01    0.2932582    0.2025537   0.61 0.0009847656    1.627    0.386
        37  -9.3199    161.4739     83.5018   1.1862944026e+01   3.2911314237e+01    0.1423655    0.1290175 -57.78 0.0007176403    1.011    0.010
        38  -9.5126     36.5208     80.5293   5.0439575016e+01   5.8567892286e+01    0.1450812    0.1395338 -48.45 4.900712e-05    1.011    0.011
        39 -10.2056     12.6337     79.1988   6.2171770876e+01   6.1277223730e+01    0.2072074    0.1129967 -59.88 0.0009412175    1.626    0.385
        40 -10.0646    177.5336     71.5726   6.1839663487e+00   3.1471407188e+01    0.2374661    0.1976151 -50.60 0.0005522466    1.060    0.056
        41  -9.6905    172.3585     65.8503   5.4610779470e+00   3.3486128418e+01    0.1952097    0.1236072 -28.79 0.0009490611    1.746    0.427
        42  -9.6495    154.7802     66.2099   8.3463516759e+00   3.7345131205e+01    0.2455494    0.1585627 -68.68  0.001143207    1.783    0.439
        43 -10.7624    150.8658     60.9286   7.5168891011e+00   3.9101396775e+01     0.431426    0.2839961 -84.48    0.0019166    1.837    0.456
        44 -11.4369    116.9112     62.5765   1.5002550616e+01   4.6824376569e+01    0.5728614    0.4727381  39.29  0.002482618    1.368    0.269
        45  -9.3174    181.2155     61.6303   3.1430814308e+00   3.2224408318e+01    0.1722671    0.1209127  57.28 0.0007466812    1.597    0.374
        46  -9.2870     26.3286     60.7008   5.0216088599e+01   6.4729795963e+01    0.1417049    0.1055967  60.45 0.0006296291    1.639    0.390
        47  -9.2195      1.3201     60.6711   6.5088522089e+01   6.6758842283e+01    0.1376522   0.09487633  57.18 0.0003480874    1.688    0.408
        48  -9.1250     76.9297     59.0000   2.5764604873e+01   5.6595825123e+01    0.4122786   0.08254075  46.61  0.001045152    4.878    0.795
        49  -9.5429    173.6435     57.3007   3.0296561257e+00   3.4510205335e+01    0.1454076   0.09104928 -67.37 0.0007037417    1.708    0.415
        50 -10.3749    167.1939     55.6011   3.4679130333e+00   3.6196771563e+01    0.1891738    0.1216458  55.61 0.0009583175    1.702    0.412
        51  -9.5894     48.1974     52.6003   3.5595003568e+01   6.3458166083e+01    0.1992504    0.1341129  24.97 0.0006254973    1.624    0.384
        52 -10.9300     79.9786     49.0000   2.0803855958e+01   5.7821059641e+01    0.7979015    0.2244865  50.59  0.002483999    3.414    0.707
        53 -10.4567     75.5066     46.9912   2.1576413156e+01   5.9168815540e+01    0.3642021    0.2665325 -70.50  0.001740477    1.772    0.436
        54  -9.5752     27.4909     47.5129   4.5032357294e+01   6.7657703214e+01    0.1344015    0.1298811 -10.32  0.000809934    1.052    0.049
        55  -9.1798     49.2192     45.6402   3.2216865007e+01   6.4707530172e+01    0.2011648     0.128376  30.36 0.0009419852    1.646    0.392
        56  -9.6403     61.0014     43.2453   2.5721127245e+01   6.2911001065e+01    0.1916001    0.1746675  43.13 0.0002509147    1.056    0.053
        57  -9.8764     81.6120     41.3333   1.7119139920e+01   5.8764624230e+01    0.3661536    0.1168382  49.69  0.001235835    2.919    0.657
        58  -9.8845     91.1291     34.1158   1.1235334285e+01   5.7634037518e+01    0.2215097    0.1859613  29.88  0.001123048    1.361    0.265
        59 -10.3597    138.9837    240.1541   4.6798533499e+01   6.8694701673e+00    0.2026048    0.1179832   3.15  0.001075276    1.989    0.497
        60  -9.5745     39.2239    238.3732   6.8990735516e+01   1.8455061657e+01     0.179766   0.08423956  36.61 0.0004071654    1.622    0.383
        61  -9.4937     30.0000     27.9528   3.4650431888e+01   7.1303668709e+01    0.2087391   0.07404367 -47.21 0.0007960097    2.898    0.655
        62 -10.7683      5.1105     26.5087   5.2591604548e+01   7.4555441958e+01    0.1950547    0.1800057  80.36 0.0007696632    1.354    0.261
        63 -10.8641    219.3456     17.7183   3.4919341265e+02   3.0093181093e+01    0.2993292    0.1218619 -56.66  0.001555582    2.020    0.505
        64 -12.4473    235.0223    248.9696   3.0757417744e+01  -4.0794152857e+00    0.5307176    0.2773584   7.14  0.003651085    1.735    0.424
        65 -10.3342      4.6695    219.3331   7.6262394562e+01   2.5579668446e+01    0.1393868   0.06478221  52.57 0.0007052089    1.724    0.420
        66 -11.0632    245.2755    200.0972   2.2046357903e+01   9.5352245273e-01    0.5781607    0.3754188 -58.69  0.003032213    4.089    0.755
        67 -12.3241    246.3771    211.9130   2.3725787595e+01  -6.5723726078e-01    0.5162448    0.3556335 -22.66  0.003985149    1.116    0.104
        68 -10.1126    198.4233    204.3529   3.0136156081e+01   5.4640247610e+00    0.2638158    0.2013716  57.80  0.001580031    2.439    0.590
