#   1 NUMBER                 Running object number                                     
#   2 MAG_AUTO               Kron-like elliptical aperture magnitude                    [mag]
#   3 X_IMAGE                Object position along x                                    [pixel]
#   4 Y_IMAGE                Object position along y                                    [pixel]
#   5 X_WORLD                Barycenter position along world x axis                     [deg]
#   6 Y_WORLD                Barycenter position along world y axis                     [deg]
#   7 A_WORLD                Profile RMS along major axis (world units)                 [deg]
#   8 B_WORLD                Profile RMS along minor axis (world units)                 [deg]
#   9 THETA_WORLD            Position angle (CCW/world-x)                               [deg]
#  10 FWHM_WORLD             FWHM assuming a gaussian core                              [deg]
#  11 ELONGATION             A_IMAGE/B_IMAGE                                           
#  12 ELLIPTICITY            1 - B_IMAGE/A_IMAGE                                       
         1 -13.9451    217.3611    210.6957   9.9029197545e+01   2.8977543553e+00     4.978588     1.702977 -43.62    0.0212955    4.813    0.792
         2 -14.2970    244.4150    187.9966   9.1031149524e+01   8.5134799694e-01     5.513687     2.237799 -45.85   0.01915546    6.723    0.851
         3 -14.8356    247.1310    141.9839   8.1734737333e+01   5.5210046113e+00     4.734409    0.8557482 -28.17   0.01324196    6.085    0.836
         4 -16.2626    246.7511     55.5450   6.0966910902e+01   1.6472167309e+01     9.996271      3.11655 -22.79   0.03310093    3.293    0.696
         5  -8.5801     15.2611     17.7384   1.0871138249e+02   6.9931241129e+01   0.09691893   0.08130457 -75.75 0.0006814138    1.447    0.309
         6  -9.2922    249.0204    250.5466   9.9854435615e+01  -5.3495040222e+00    0.1490617   0.07089914  38.84 0.0005871774    1.506    0.336
         7 -10.1160    224.6618    249.7902   1.0329116270e+02  -1.8964929329e+00    0.1572022    0.1489256  17.21  0.001216014    1.525    0.344
         8 -10.1185    209.1328    249.5027   1.0556262006e+02   3.5796460500e-01    0.1868274    0.1635436   8.88  0.001644223    1.353    0.261
         9 -10.1207    191.7101    249.1748   1.0815238266e+02   2.9268473408e+00    0.2608297    0.1712699  63.23  0.001758724    2.182    0.542
        10 -13.9991    236.2797    191.4412   9.2907933257e+01   1.8354506139e+00     3.275141    0.8351736 -32.74    0.0132119    4.301    0.767
        11 -10.8326    233.1598    246.5093   1.0162152509e+02  -2.8312018350e+00    0.2553395    0.2137075  -3.85  0.001461363    1.435    0.303
        12 -14.3355    235.0966    146.9840   8.4709736040e+01   7.1821382196e+00     4.495186     1.928591 -11.01   0.01390615    5.353    0.813
        13  -9.6675    175.8972    247.2990   1.1036057822e+02   5.4391003426e+00    0.1529434    0.1346456  62.84  0.001306014    1.395    0.283
        14 -10.8009    242.4627    247.5815   1.0040600773e+02  -4.2225110501e+00     0.217724    0.1735013  -4.48  0.001135714    1.443    0.307
        15  -9.3731    184.5011    227.9745   1.0672324566e+02   6.2369330247e+00    0.1318781    0.1107922 -32.98 0.0008862031    1.563    0.360
        16  -9.8388    162.8445    227.3969   1.1016914733e+02   9.6683715742e+00    0.1640696     0.144533  71.32  0.001178024    1.346    0.257
        17  -9.1811    138.3289    228.6900   1.1433539402e+02   1.3227855734e+01    0.1099165   0.06835153  63.02 0.0004559532    1.664    0.399
        18 -10.1643    223.1156    226.5908   1.0043843322e+02   4.0375775665e-01    0.2078294    0.1770705  22.51  0.000946265    1.216    0.178
        19 -10.4711    205.8976    225.3029   1.0295349005e+02   3.1870265037e+00    0.2239317    0.1617047 -36.13    0.0012625    1.823    0.451
        20 -10.0781    190.3940    226.0240   1.0552491177e+02   5.5334849550e+00    0.2051356    0.1653309 -42.56   0.00105805    1.681    0.405
        21 -10.9218    216.9764    223.4864   1.0095598045e+02   1.6489425155e+00    0.2868966    0.2275867 -53.50  0.001418449    2.086    0.521
        22  -9.1564    170.0165    224.9930   1.0870579777e+02   8.8453320895e+00    0.1337375    0.1064634  42.04 0.0007634608    1.054    0.051
        23  -9.1369    155.4638    225.4843   1.1115936971e+02   1.1044591461e+01    0.1117274    0.0843704  47.38 0.0001894905    1.030    0.029
        24  -9.4356    128.6635    225.3046   1.1558153789e+02   1.5112955253e+01    0.1117185   0.06746659  63.17 0.0007039328    1.669    0.401
        25 -10.1124    180.3305    223.1893   1.0679073197e+02   7.4382691437e+00    0.1982151    0.1341388 -45.64  0.001144032    1.978    0.494
        26 -10.3945    148.0403    223.1835   1.1212742175e+02   1.2482270889e+01    0.2023911    0.1624433 -68.98  0.001473259    1.617    0.382
        27  -9.5183    174.7534    222.8137   1.0765720949e+02   8.3627986654e+00    0.1466125     0.115043  58.93  0.001059571    1.367    0.269
        28 -10.0579    185.8054    221.3170   1.0565254653e+02   6.7882122515e+00    0.2190475    0.1611636 -46.44  0.001120392    1.840    0.457
        29 -10.8768    202.0957    218.4807   1.0261958238e+02   4.5110232467e+00    0.3402563      0.22759 -46.06  0.002260891    2.122    0.529
        30 -10.0647    200.0402    210.5449   1.0182278407e+02   5.7280549484e+00    0.2129175    0.1681388 -28.18 0.0008068555    1.553    0.356
        31 -10.9647    193.4118    218.7984   1.0407278632e+02   5.8628670577e+00    0.2924817    0.2575578 -84.88  0.001628925    1.713    0.416
        32 -10.6204    210.7411    218.4875   1.0123242463e+02   3.1359888060e+00     0.265995     0.205843 -42.86   0.00181685    1.817    0.450
        33 -10.1756    209.7409    212.2884   1.0049422165e+02   3.9566864097e+00    0.2256212     0.189486  18.85 0.0008868934    1.152    0.132
        34 -10.5478    205.8101    207.8644   1.0047870162e+02   5.0861752410e+00    0.2720983    0.2175055  -6.68  0.001109023    1.409    0.290
        35  -9.7490    205.8316    202.8106   9.9709513371e+01   5.6588712536e+00    0.1869597    0.1664654 -42.81 0.0006995034    1.515    0.340
        36 -10.1261    158.5092    219.4938   1.0994411282e+02   1.1335288934e+01    0.1824266    0.1137062 -48.30 0.0009159229    2.088    0.521
        37  -8.7064     56.2697    220.2766   1.2711082137e+02   2.5451958896e+01   0.07928909   0.07301717  67.26            0    1.485    0.326
        38 -10.7283    170.8030    216.4594   1.0750231315e+02   9.7680020247e+00    0.2630309     0.170231 -43.43   0.00167648    1.998    0.499
        39  -9.5369    119.6675    218.6891   1.1641799495e+02   1.7363849054e+01    0.1000762     0.080213  23.91 0.0007043363    1.675    0.403
        40 -10.0741    179.0435    216.8219   1.0617351166e+02   8.3998842325e+00    0.1737775    0.1621917  28.07 0.0008555952    1.224    0.183
        41  -9.7967     55.9379    216.2137   1.2690502717e+02   2.6130223715e+01    0.1848646    0.1062145 -86.40 0.0005226217    1.687    0.407
        42  -9.8127    185.5533    215.2684   1.0488357663e+02   7.5359489298e+00    0.1723258    0.1131674 -46.40  0.001010728    2.036    0.509
        43 -10.2254    165.1438    215.7068   1.0835780271e+02   1.0769721515e+01    0.1659315    0.1519723  79.77 0.0007775757    1.337    0.252
        44 -10.3659    142.5035    215.9549   1.1223269932e+02   1.4307685518e+01    0.1413806    0.1126678 -55.48  0.001032937    1.594    0.373
        45  -9.8679    131.7550    214.9870   1.1396260210e+02   1.6093444789e+01    0.1221678   0.09514951 -62.25 0.0008822737    1.587    0.370
        46 -10.4835    154.2883    214.0187   1.0998922583e+02   1.2721795489e+01    0.1528564     0.134535  51.92  0.001160218    1.137    0.121
        47  -9.4122    204.2515    212.7636   1.0145511597e+02   4.7927927764e+00    0.1545263    0.1081825  24.84 0.0004960676    1.297    0.229
        48 -10.5682    176.7757    210.5556   1.0571221435e+02   9.5407019901e+00    0.2534019    0.2088833 -53.13   0.00132975    1.605    0.377
        49 -11.0382    160.9551    210.6749   1.0842605293e+02   1.2100744506e+01    0.2177635    0.1770609 -46.25  0.001311009    1.566    0.361
        50 -10.5800    192.8516    209.8435   1.0291200610e+02   6.9883140843e+00    0.2258763    0.1867468 -56.41  0.001048962    1.727    0.421
        51  -9.9879    186.0267    210.6612   1.0416816032e+02   8.0112796858e+00    0.1957073    0.1434728  17.69 0.0008142159    1.499    0.333
        52 -10.2352    145.5188    208.9720   1.1088060540e+02   1.4808844303e+01    0.1457513    0.1151173 -51.17  0.001029265    1.594    0.373
        53 -10.8512    171.3552    207.2217   1.0618138538e+02   1.0858017410e+01    0.1814322    0.1595752   2.95  0.000984891    1.356    0.262
        54 -10.3837    172.8316    203.2176   1.0537162068e+02   1.1138505802e+01    0.1946298    0.1714066 -33.21   0.00102681    1.409    0.290
        55  -9.9669    182.9605    207.0159   1.0417149714e+02   8.9650100028e+00    0.1800433    0.1441637  34.29 0.0007683976    1.067    0.062
        56 -10.7121    156.1709    206.3358   1.0869104545e+02   1.3464979976e+01    0.1751867    0.1575699 -25.18  0.001182239    1.431    0.301
        57 -10.5815    149.9200    206.6907   1.0982814146e+02   1.4426870832e+01    0.1708451    0.1250366  47.75  0.001085639    1.087    0.080
        58 -11.0339    197.6505    203.7360   1.0121415341e+02   6.9172810752e+00     0.331317    0.2266572 -22.91  0.001431342    1.802    0.445
        59 -10.5621    139.4968    205.0258   1.1145292257e+02   1.6331151918e+01    0.1492824    0.1153431 -55.42  0.001032948    1.594    0.373
        60 -10.8325    186.6907    202.9592   1.0295200243e+02   8.8495023154e+00    0.2417653    0.2119143 -80.71  0.001385298    1.623    0.384
        61 -10.4180    178.8487    203.4817   1.0437056005e+02   1.0098124496e+01    0.2022155    0.1722091 -16.33  0.001363124    1.434    0.303
        62 -10.2518    192.7304    202.2276   1.0181723080e+02   7.9247534209e+00      0.20425    0.1735317 -38.13 0.0008487268    1.485    0.326
        63 -10.0200    191.0234    197.7448   1.0143065684e+02   8.7706606858e+00    0.2085986     0.170407  -8.65  0.000850153    1.427    0.299
        64 -10.8233    194.2414    194.4040   1.0036128907e+02   8.6396801601e+00    0.2401219    0.2258246 -19.33  0.001037887    1.288    0.224
        65 -11.2313    164.6539    201.8271   1.0660294841e+02   1.2689167388e+01    0.2467055    0.1894674   5.87  0.001584339    1.764    0.433
        66  -9.4387    144.3817    201.7564   1.1017715282e+02   1.6027941087e+01    0.1384341     0.111257 -36.20 0.0009228988    1.647    0.393
        67 -11.4206    132.3591    200.0066   1.1211068383e+02   1.8210208963e+01    0.3202473    0.2280131 -18.12  0.001826394    2.694    0.629
        68 -10.9284    139.6419    198.1967   1.1057092839e+02   1.7321841392e+01    0.2645356     0.181275 -28.80 0.0002032504    2.321    0.569
        69 -11.3397    184.2541    196.1491   1.0235630045e+02   1.0133090854e+01    0.3419046    0.2407416 -13.51  0.002078201    1.914    0.478
        70 -10.6518    185.1474    190.2842   1.0129525084e+02   1.0751725257e+01    0.3342349    0.2442495 -62.24  0.002004477    2.043    0.510
        71 -10.6338    176.1065    197.1346   1.0392537386e+02   1.1395591481e+01    0.2481429    0.1804197 -34.82  0.001108142    1.695    0.410
        72 -10.4579    170.0224    197.4579   1.0504206427e+02   1.2385815137e+01     0.205403    0.1661415  -8.89  0.001365501    1.596    0.373
        73 -10.2615    149.0531    197.9806   1.0884846086e+02   1.5819692428e+01    0.1780426    0.1377639  17.07 0.0009049543    1.677    0.404
        74 -10.3862    156.5998    197.2316   1.0739438477e+02   1.4677160304e+01    0.1441051    0.1138036 -28.68  0.000946277    1.666    0.400
        75 -10.7199    201.9956    197.0360   9.9454138617e+01   6.9864848075e+00    0.2689516    0.2344738  25.72  0.001140609    1.110    0.099
        76  -9.6908    152.2935    193.3445   1.0763106434e+02   1.5965159040e+01    0.1141348   0.08906227  14.92 0.0005126987    1.663    0.399
        77 -10.5664    146.4202    192.3046   1.0855756502e+02   1.7101997083e+01    0.1954932    0.1169916 -44.03  0.001122172    2.080    0.519
        78 -10.5271    172.1352    190.5501   1.0364528018e+02   1.2980566053e+01     0.232485    0.1787192 -46.51  0.001076695    1.591    0.371
        79 -11.0454    192.8608    187.9014   9.9563605164e+01   9.7138520532e+00     0.306732    0.1854203  26.86  0.001679902    1.744    0.427
        80 -10.5130    178.9832    189.3985   1.0224677279e+02   1.1948244651e+01    0.2766559    0.1823718 -34.68  0.001307326    1.843    0.458
        81 -11.1715    161.8643    191.6044   1.0564945408e+02   1.4599176591e+01    0.2374379    0.1765155 -39.03  0.001373485    1.653    0.395
        82  -9.8810    156.6412    187.6702   1.0602566608e+02   1.6073098148e+01    0.1832377    0.1381573  16.76  0.001103126    1.696    0.410
        83 -11.0381    166.5992    185.2451   1.0383646127e+02   1.4704687815e+01    0.2434903    0.1877915 -21.71  0.001108152    1.675    0.403
        84  -9.9222    150.6071    186.2018   1.0692545601e+02   1.7328292609e+01    0.1494682    0.1167153 -32.83 0.0009417627    1.644    0.392
        85  -9.6832    189.5710    184.6876   9.9617295698e+01   1.0720497205e+01    0.2028146    0.1207877 -30.18 0.0008263953    2.049    0.512
        86 -10.5724    190.7308    178.6631   9.8405592974e+01   1.1327889761e+01    0.3225863    0.2809303 -17.43  0.001574497    1.292    0.226
        87  -9.7895    192.7553    172.3705   9.6951800067e+01   1.1824711335e+01    0.2706745    0.1808946 -22.85  0.001254574    1.797    0.444
        88  -9.5214    173.2147    184.7898   1.0256165217e+02   1.3606880077e+01    0.1684252    0.1339335  21.09 0.0005939151    1.344    0.256
        89 -10.5887    183.5208    182.3602   1.0031273291e+02   1.2116823122e+01    0.3063562    0.2304626 -25.63  0.001312041    1.585    0.369
        90  -9.5286    154.5958    183.1653   1.0573576712e+02   1.7109070063e+01    0.1546788    0.1177977 -30.18 0.0009126482    1.696    0.411
        91 -11.0422    176.7715    180.7752   1.0127330945e+02   1.3548955008e+01    0.2718857    0.1804737 -31.67  0.001289257    1.837    0.456
        92  -9.1568    145.4765    179.4942   1.0690448005e+02   1.9259767159e+01    0.1240722    0.1062297  46.54  9.11983e-05    1.050    0.048
        93 -11.0037    169.1409    177.3293   1.0211508550e+02   1.5424096537e+01    0.2023333    0.1727178 -12.60 0.0009598779    1.406    0.289
        94 -10.2009    150.4759    177.4736   1.0564821370e+02   1.8716112154e+01     0.204993    0.1178388 -34.67  0.001034787    2.414    0.586
        95 -10.5133    182.4126    175.3064   9.9334774057e+01   1.3311849336e+01    0.2688318    0.2087707  -6.14  0.001093206    1.576    0.365
        96 -10.4306    101.0046    175.9839   1.1506092176e+02   2.7045407201e+01    0.1689951    0.1382027  66.10            0    1.029    0.028
        97 -10.6038    161.8219    174.4449   1.0301731835e+02   1.7180349511e+01    0.2275657    0.1600204   7.15  0.001187994    2.204    0.546
        98  -9.3630    175.4972    171.4915   9.9957230503e+01   1.5139423581e+01    0.1295593    0.1102601  34.96 0.0001450505    1.055    0.052
        99  -9.6218    187.5402    171.7691   9.7788729837e+01   1.2873716784e+01    0.2138322    0.1260574 -30.90  0.001008215    2.018    0.504
       100 -10.5392    199.4810    164.0704   9.4233255669e+01   1.1720728410e+01    0.3395879    0.2239968 -17.95  0.001328227    1.827    0.453
       101 -10.5903    179.0032    167.8773   9.8674983568e+01   1.5028906642e+01    0.3165903    0.1916478 -27.82  0.001622645    2.096    0.523
       102 -10.0209    169.8913    167.8230   1.0037874375e+02   1.6733027096e+01    0.1991808    0.1644071  23.05 0.0008430229    1.266    0.210
       103 -10.6515    191.6300    164.6506   9.5762051278e+01   1.3125478502e+01    0.3756466    0.2474197 -13.53  0.001873837    2.016    0.504
       104  -9.5607    150.6626    167.6615   1.0405631212e+02   2.0274081780e+01    0.1276092   0.09804354  12.57 0.0007051143    1.756    0.431
       105  -9.9665    184.6295    164.7150   9.7061917957e+01   1.4441085263e+01    0.2726623    0.1918894 -10.10   0.00119512    1.878    0.468
       106  -9.3059    172.4945    163.0037   9.9034919683e+01   1.6994199404e+01    0.1799086    0.1307929 -36.85  0.001014911    1.565    0.361
       107  -9.9274    176.7696    158.3552   9.7370105040e+01   1.6904262747e+01    0.2534396    0.1828693 -23.80  0.001392914    1.666    0.400
       108  -9.8953    187.5250    155.0204   9.4703630833e+01   1.5331810816e+01     0.278626    0.1313581 -30.44  0.001193454    2.631    0.620
       109 -10.0022    205.6974    153.7099   9.1119908333e+01   1.1973117978e+01    0.2785923    0.1908917  12.89 0.0009629172    1.706    0.414
       110  -9.1625    192.5016    153.5000   9.3480495975e+01   1.4585442432e+01    0.1351166    0.1177723  28.69 0.0008104998    1.031    0.030
       111  -8.8737    171.3533    153.3085   9.7466807096e+01   1.8750190369e+01    0.1379262   0.09970306  17.30 0.0007043244    1.720    0.419
       112  -9.5768    202.4450    150.5960   9.1081449539e+01   1.3052226158e+01    0.2192347    0.1258781 -19.73 0.0008860143    2.202    0.546
       113  -9.6492    196.8101    149.4633   9.1881552498e+01   1.4332189613e+01    0.2565347     0.169785 -12.88  0.001141569    1.909    0.476
       114  -9.0913    208.5236    149.0026   8.9667152387e+01   1.2078666546e+01    0.1917585    0.1296909 -26.81 0.0007416042    1.574    0.365
       115 -10.3861    197.2013    156.4484   9.3192473235e+01   1.3237146999e+01    0.3411926    0.2228606 -16.87  0.001341495    1.887    0.470
       116  -9.2077    191.2235    147.6910   9.2561077488e+01   1.5709935069e+01    0.1963719    0.1087448 -24.11 0.0008716289    2.303    0.566
       117 -10.1112    208.1180    144.3358   8.8776044271e+01   1.2818737006e+01    0.2775724    0.1931376   3.99  0.001063919    1.717    0.418
       118  -9.5442    200.4614    144.5148   9.0198700893e+01   1.4330950906e+01    0.2299169     0.128812 -20.55   0.00102441    2.275    0.560
       119  -9.1900    176.4593    145.0595   9.4856627114e+01   1.9078106153e+01    0.1839473    0.1186641  -9.49 0.0008080353    2.466    0.594
       120  -9.7548    214.0755    141.8263   8.7192060438e+01   1.1977877227e+01    0.2693024     0.185178 -21.46  0.000782482    1.529    0.346
       121 -13.7453    236.1753    216.9370   9.7017125619e+01  -6.8387878239e-01     2.326912     1.390223 -53.18   0.01169549    4.409    0.773
       122  -9.2202    181.7409    140.9754   9.2992548045e+01   1.8670621302e+01    0.1739065    0.1198464 -35.86 0.0008929801    1.566    0.361
       123 -10.2539    218.5508    137.6382   8.5514836884e+01   1.1658330506e+01    0.3100741    0.2226256 -10.41  0.001050491    1.480    0.324
       124  -8.9974    215.3229    135.2966   8.5568276656e+01   1.2640799616e+01    0.2117754    0.1368496 -21.73 0.0007944945    1.637    0.389
       125  -9.1742    217.7394    132.6509   8.4565379021e+01   1.2517512359e+01    0.2144096    0.1148053  38.89 0.0005809551    1.786    0.440
       126  -9.7897    208.7223    137.2931   8.7171495201e+01   1.3706265291e+01    0.2697546       0.1806 -18.52  0.001122657    1.642    0.391
       127  -9.4647    198.7146    136.4570   8.8813632132e+01   1.5888957949e+01      0.27105    0.1644343 -18.10  0.001160454    2.053    0.513
       128  -9.2674    192.6240    136.1429   8.9884937851e+01   1.7197445725e+01    0.1928449    0.1290951 -19.84 0.0009425399    1.744    0.426
       129 -10.4616    225.7382    132.9935   8.3271791753e+01   1.0839434735e+01    0.3048947     0.211146  -8.17  0.001016552    1.543    0.352
       130  -8.7646    187.6760    134.6641   9.0507919606e+01   1.8456801666e+01    0.1459712    0.1041365  14.51  0.000705104    1.715    0.417
       131  -9.4358    179.4693    131.5115   9.1421210487e+01   2.0679814036e+01     0.247969    0.1356346 -25.35  0.001035416    2.380    0.580
       132  -9.4423    205.7807    130.2001   8.6142907554e+01   1.5354559103e+01    0.1935884    0.1536871   9.02 0.0007902604    1.316    0.240
       133  -9.6933    211.9992    128.2820   8.4597307673e+01   1.4331513022e+01     0.249965    0.1919387 -24.94  0.001280036    1.321    0.243
       134  -9.5446    192.4390    128.2722   8.8187849672e+01   1.8467225514e+01    0.2534909    0.1383415 -28.63  0.001110051    2.044    0.511
       135 -10.0263    201.7825    242.4239   1.0581204952e+02   2.0981280170e+00    0.1842789    0.1428158 -60.85  0.001374158    2.251    0.556
       136  -9.2302    217.5113    125.0378   8.2893974049e+01   1.3640062821e+01    0.2016373    0.1333505 -25.85 0.0006609286    1.529    0.346
       137  -9.1360    188.0000    122.9347   8.7824817158e+01   2.0269365020e+01    0.2258631   0.08117965 -36.38 0.0007966887    2.903    0.655
       138  -9.2085    179.6178    123.2129   8.9534851779e+01   2.2027244106e+01    0.2018917    0.1354756 -24.26  0.000955084    1.710    0.415
       139  -9.4873    212.5106    122.0359   8.3078725937e+01   1.5132212880e+01    0.2101942    0.1355967 -28.08 0.0008999295    1.573    0.364
       140  -9.2747    203.0000    120.9684   8.4541917965e+01   1.7335649629e+01    0.2252155    0.0799137 -33.77  0.000795583    2.895    0.655
       141 -10.0144    219.6847    114.7207   8.0112464140e+01   1.4647942428e+01    0.3044155     0.151241 -33.85  0.001041029    1.995    0.499
       142  -9.2694    194.6501    112.8504   8.4164810777e+01   2.0430643097e+01    0.2085827    0.1289977 -42.78  0.000948087    1.738    0.424
       143  -9.5172    218.6043    109.2159   7.8971606720e+01   1.5672569130e+01    0.2014777    0.1312647 -14.90 0.0009443833    1.667    0.400
       144 -10.2858    240.0159    240.3492   9.9794411703e+01  -3.3017592634e+00    0.1963714    0.1722667 -31.66   0.00124027    1.781    0.438
       145  -9.0988    169.2949    242.6762   1.1087613986e+02   6.9143750383e+00    0.1003385   0.06895931  61.06 0.0004010386    1.620    0.383
       146 -10.0344    219.7677    239.9292   1.0275818824e+02  -3.3042443659e-01    0.1770349     0.138005 -34.64 0.0009761664    1.809    0.447
       147 -11.0904    216.1514    233.8676   1.0250896103e+02   7.6811008469e-01    0.2994272    0.2612494  62.86    0.0015836    1.684    0.406
       148  -9.6066    221.0000     97.8739   7.5752800573e+01   1.6766670659e+01     0.229624   0.07920686 -29.96 0.0007373038    2.832    0.647
       149  -9.8510    214.1315    240.7696   1.0372071095e+02   4.2413003835e-01    0.1467729    0.1378053  22.71 0.0008947681    1.416    0.294
       150  -9.2817    195.4636     97.0103   8.0024898906e+01   2.2762272270e+01    0.2286603    0.1436903 -31.56  0.001031588    1.594    0.373
       151  -9.8899    183.5369    240.1441   1.0836059017e+02   5.0584534921e+00     0.213155    0.1621714  68.62  0.001569054    1.798    0.444
       152  -9.1967    128.0072     91.0535   9.3069120906e+01   3.8954574172e+01    0.1671822    0.1638848 -60.19 0.0009556666    1.002    0.002
       153  -9.8378    159.1722    238.9209   1.1206062918e+02   8.8485631393e+00    0.1823066    0.1460718 -84.29  0.001414811    1.758    0.431
       154  -8.9462    203.2758     90.3431   7.6844520595e+01   2.1970227983e+01    0.1530354    0.1112363  12.80 0.0004855964    1.622    0.384
       155  -9.0814    148.3448    240.6666   1.1396004217e+02   1.0242544785e+01    0.1076895    0.0662422  62.60  0.000452148    1.763    0.433
       156 -11.3622    230.5909    236.4767   1.0066789254e+02  -1.6133437367e+00    0.3433918    0.2826602  67.90  0.002079251    2.139    0.533
       157 -14.0559    246.9721    216.8576   9.5361869583e+01  -2.3161777933e+00     2.453336    0.4928402 -33.27  0.009796091    5.707    0.825
       158  -9.7936    215.0221     79.9125   7.2039244578e+01   2.0729674993e+01    0.2637134    0.2123922  -4.81 0.0007607984    1.279    0.218
       159  -8.9066    200.6544     83.2941   7.5410752369e+01   2.3668757408e+01    0.1500601    0.1178678 -70.78 0.0007030906    1.667    0.400
       160 -10.8201    191.1107    235.8887   1.0666128053e+02   4.3614213263e+00    0.3266494    0.2579176 -88.04  0.002325821    2.249    0.555
       161  -8.7780    206.3200     78.2989   7.3051271277e+01   2.3052908432e+01    0.1553564    0.1108666  21.37 0.0003371245    1.620    0.383
       162  -9.3747    201.0232     77.7642   7.3818449396e+01   2.4417052684e+01    0.2111298    0.1966227 -11.80 0.0009480147    1.042    0.040
       163  -9.2261    189.0000     77.9484   7.6046992666e+01   2.7320374229e+01     0.247668   0.08509593 -31.76 0.0007948742    2.890    0.654
       164  -9.9251    211.3099     76.0216   7.1587438502e+01   2.2179419477e+01    0.3535362    0.1753349 -28.78  0.001006071    1.961    0.490
       165  -9.1624    210.6091     71.7547   7.0520244256e+01   2.2962272235e+01    0.2143815    0.1309625 -37.70 0.0007270972    1.611    0.379
       166  -9.1664    174.5203     77.4995   7.8731675009e+01   3.0918271239e+01    0.1506228     0.147027   5.66 0.0008103286    1.009    0.009
       167  -9.1278    206.2085     73.8110   7.1823789280e+01   2.3739205584e+01     0.207953    0.1695976  12.86 0.0006658281    1.313    0.238
       168 -10.9219    205.1606    235.7189   1.0444798718e+02   2.2471620054e+00    0.2974924    0.2323014  64.74  0.001892134    1.845    0.458
       169  -9.6550    163.4543     71.0184   7.9104822966e+01   3.4682064883e+01    0.2402234    0.1484321 -33.26  0.001035584    1.611    0.379
       170  -9.4052    214.1452     69.8605   6.9423499826e+01   2.2368676062e+01    0.2273676    0.1930479 -48.57 0.0006912304    1.260    0.206
       171  -9.2973    170.5780     70.2230   7.7385656382e+01   3.3078330977e+01    0.2134115    0.1475772 -18.56 0.0009461749    1.605    0.377
       172  -9.2200    208.4200     64.0254   6.8691570547e+01   2.4597610199e+01    0.2287123    0.1413268 -28.19 0.0006712172    1.567    0.362
       173  -9.3064    212.4536     65.9807   6.8604647374e+01   2.3326222314e+01    0.2282831    0.1422118 -26.49 0.0006795509    1.561    0.359
       174  -9.7241    203.3415     66.2021   7.0146482141e+01   2.5550600978e+01    0.2770945    0.1820171 -37.00  0.001169966    1.497    0.332
       175  -9.8248    206.5949     58.7004   6.7447154994e+01   2.5796858505e+01    0.2863544    0.1459975 -22.45  0.001124354    2.048    0.512
       176  -9.4605    164.7591     59.0027   7.5109828889e+01   3.6330083478e+01    0.2058301    0.1277047 -31.08 0.0008722708    1.599    0.374
       177 -11.0434    217.0415     57.7384   6.5569459730e+01   2.3318382608e+01     0.269183    0.1818708  -9.05 0.0006968997    1.643    0.391
       178 -10.1478    176.6683    236.0054   1.0895473791e+02   6.5457010409e+00    0.2056681    0.1454715 -45.62  0.001522061    1.943    0.485
       179  -8.9671    175.4825     55.4781   7.1874790298e+01   3.4173440804e+01    0.1518425    0.1478244   6.70 0.0002098741    1.001    0.001
       180  -8.9589    169.3293     55.3148   7.3014559679e+01   3.5758907022e+01    0.1620101    0.1153593  22.47  0.000704487    1.676    0.403
       181  -8.9486    192.2946     54.6645   6.8596883543e+01   2.9994974668e+01    0.1573606    0.1143338 -59.44 0.0004227209    1.645    0.392
       182  -9.7203    172.2726     50.0474   7.0750894864e+01   3.5801709458e+01    0.2095281    0.1910055 -28.58            0    1.090    0.083
       183  -9.5622    144.8072    232.8190   1.1371244514e+02   1.1731731202e+01    0.1506794    0.1037082  59.49  0.001076066    1.360    0.264
       184  -9.6084    208.0000     47.9520   6.4075624409e+01   2.6889894212e+01    0.2442503   0.08294957 -26.34 0.0007537642    2.871    0.652
       185 -11.0254    225.1671    242.5130   1.0228419170e+02  -1.3481864364e+00    0.3040334    0.2037826 -28.92   0.00231555    1.942    0.485
       186 -10.3657    211.6271    227.4510   1.0234425536e+02   2.0808253389e+00    0.2120526    0.1772625 -25.55  0.001056831    1.541    0.351
       187  -9.3402    170.4773    234.9630   1.0981812164e+02   7.6041627085e+00    0.1274106    0.1095725 -44.78  0.001028034    1.581    0.368
       188 -10.2269    198.9620    226.9859   1.0428068783e+02   4.0911923213e+00    0.1961209    0.1643961 -45.18 0.0009726338    1.686    0.407
