#   1 NUMBER                 Running object number                                     
#   2 MAG_AUTO               Kron-like elliptical aperture magnitude                    [mag]
#   3 X_IMAGE                Object position along x                                    [pixel]
#   4 Y_IMAGE                Object position along y                                    [pixel]
#   5 X_WORLD                Barycenter position along world x axis                     [deg]
#   6 Y_WORLD                Barycenter position along world y axis                     [deg]
#   7 A_WORLD                Profile RMS along major axis (world units)                 [deg]
#   8 B_WORLD                Profile RMS along minor axis (world units)                 [deg]
#   9 THETA_WORLD            Position angle (CCW/world-x)                               [deg]
#  10 FWHM_WORLD             FWHM assuming a gaussian core                              [deg]
#  11 ELONGATION             A_IMAGE/B_IMAGE                                           
#  12 ELLIPTICITY            1 - B_IMAGE/A_IMAGE                                       
         1 -12.3142    171.7600     59.5074   6.0116272956e+01   3.4432752304e+01     1.398053    0.8516155   1.26  0.005001975    3.037    0.671
         2 -15.0572    190.3937     44.1768   5.2361377489e+01   3.1976049428e+01     2.060936     1.554464 -25.04  0.006781165    1.426    0.299
         3 -13.6829    204.9514     37.3999   4.8401192012e+01   2.9226475799e+01     1.503518     0.482406 -35.65  0.004835763    2.779    0.640
         4 -13.7804     73.9105     20.5219   7.0915904311e+01   6.2415643199e+01     1.133928    0.8170322   9.43  0.005146736    1.356    0.263
         5 -14.3898     79.1195      5.1594   6.2066578829e+01   6.3179559266e+01     2.780503      1.13955  64.06   0.01001259    4.273    0.766
         6 -14.4805     65.7944     41.6929   8.2913643129e+01   6.0557214252e+01     1.471877    0.9017179  -7.68  0.004451919    2.175    0.540
         7 -14.1156     86.1232     52.4991   7.9802064741e+01   5.5213479942e+01     1.658739    0.9937482  44.41    0.0067895    1.782    0.439
         8 -13.7739     77.8764     38.4412   7.7199067314e+01   5.9092484065e+01    0.9563657    0.6974286   7.85  0.004325698    1.462    0.316
         9 -14.6512    100.7235     39.5794   7.0243828695e+01   5.4494802456e+01    0.9910051    0.9083174  -9.46  0.003585685    1.061    0.058
        10 -14.3397     91.5424     38.5179   7.2655675055e+01   5.6522606706e+01     1.006289    0.6218327 -34.72  0.003211192    1.587    0.370
        11 -14.9142     99.6141     27.0671   6.5570619520e+01   5.6492278151e+01     1.293192     1.013814 -54.98  0.006591479    1.683    0.406
        12 -14.1667      8.2805     45.5128   1.0843183165e+02   6.5870742173e+01    0.7195572    0.6091088 -28.14  0.003086605    1.190    0.160
        13 -12.6695     18.3680     40.9728   1.0260260912e+02   6.6125830920e+01    0.8584917    0.2537478 -48.86  0.001812099    2.383    0.580
        14 -13.9718     24.4330     14.0616   8.9047057625e+01   7.0379857048e+01     1.008593    0.7284691 -60.49  0.003928189    2.413    0.586
        15 -16.3794     12.5024      5.9465   9.1449693173e+01   7.2738238328e+01     2.278588     1.251909  16.41  0.008385631    1.890    0.471
        16 -12.4659    137.4329     28.2744   5.6736710967e+01   4.7569327914e+01     1.109915    0.5484528  33.83  0.004274644    2.583    0.613
        17 -12.7869    232.8534     27.5951   4.2704897159e+01   2.3746599854e+01    0.8134232    0.4442232 -81.21  0.002456122    2.159    0.537
        18 -10.8116    146.3268      7.3129   4.7776747408e+01   4.7579530007e+01     0.481178     0.296922  59.73  0.002430204    1.423    0.297
        19 -11.5734    206.1329      3.7944   3.9345600772e+01   3.2831681637e+01     0.417403    0.3604395 -10.55  0.002271977    1.431    0.301
        20 -12.0872    236.0273      3.0848   3.6672795193e+01   2.5828940152e+01    0.4520883    0.2965183  69.62  0.001916267    1.506    0.336
        21 -10.5198    135.0866      2.4018   4.7925737414e+01   5.0805853269e+01    0.4189641    0.2280393  70.99   0.00197639    1.781    0.439
        22 -10.8752    220.4680      1.6326   3.7549580793e+01   2.9592705108e+01    0.2567938    0.1436687  82.05    0.0011294    1.668    0.400
        23 -10.9319    176.9705    133.4955   7.9444916037e+01   1.9190055806e+01    0.4820323    0.2755835  56.79  0.001914016    2.055    0.513
        24 -15.5340    117.6336    203.2976   1.0616865964e+02   1.6374525740e+01     3.043164     1.103261  41.24    0.0123109    2.447    0.591
        25 -15.1212     33.6848    247.3853   1.2619099463e+02   1.9714103787e+01    0.7261007    0.4276342  55.54  0.003798873    1.267    0.211
        26 -17.5816      8.8724    178.0271   1.2649137400e+02   3.5907179463e+01     3.930313    0.9032143 -80.21   0.01457714    4.065    0.754
        27 -16.1417     83.5000    173.5894   1.0956256131e+02   2.8178909389e+01     2.202976    0.9013692 -63.32  0.007918699    2.395    0.582
        28 -17.1604    119.3491    175.7779   1.0156264952e+02   2.1795279782e+01     3.173814     2.472368  41.63   0.01413014    1.254    0.203
        29 -11.3807    179.4919    121.4064   7.5903914977e+01   2.1058555340e+01     0.476178    0.2963093 -45.95  0.001519299    1.616    0.381
        30 -13.7587    188.3551    108.6292   7.0749843361e+01   2.1515126244e+01      2.14213     1.046539  51.58   0.00816462    2.124    0.529
        31 -11.9586    197.4772     97.5013   6.6021706514e+01   2.1447738711e+01     0.929822    0.6992651  -3.25  0.003911539    1.719    0.418
        32 -11.0467    212.9532     96.6553   6.3012064645e+01   1.7971424959e+01    0.4518881    0.3381025  82.28   0.00213486    1.717    0.418
        33 -10.2214    185.8579     95.0097   6.7602595324e+01   2.4692138763e+01    0.2847507    0.2347549  51.60  0.001375971    1.247    0.198
        34 -15.9960     49.3100    144.0845   1.1378593667e+02   3.9684161206e+01     3.214142     1.378276 -56.70   0.01447348    2.084    0.520
        35 -11.9392     15.7519     83.8341   1.1410675409e+02   5.7070967456e+01    0.5311149    0.4379489   6.39  0.003229289    1.518    0.341
        36 -11.5324     20.6768     82.6608   1.1219411475e+02   5.7000959389e+01    0.3126964    0.1481218 -44.83  0.001541983    1.882    0.469
        37 -10.9169    209.1432     85.0293   6.0627394211e+01   2.0879593317e+01    0.4985847    0.3323433  78.22   0.00218381    1.953    0.488
        38 -11.4605    123.5088     81.5969   7.8319533300e+01   4.2066201366e+01    0.7142428    0.4633486  68.04   0.00288377    2.221    0.550
        39 -10.2835    166.2103     79.8710   6.7365950729e+01   3.2318594746e+01    0.3192013    0.2996928 -24.84  0.001013676    1.078    0.072
        40 -11.0941    158.5471     80.3753   6.9201646806e+01   3.4110965048e+01    0.4972198     0.378312 -11.84  0.001929898    1.597    0.374
        41 -11.9496    164.4884     73.3817   6.5795900385e+01   3.3918927673e+01    0.6730472     0.598753  15.69  0.002652163    1.242    0.195
        42 -15.9196     47.3052    204.9208   1.2084770872e+02   2.6213332943e+01     1.838061    0.4838897 -76.08  0.006543641    4.537    0.780
        43 -10.4130    190.4698     67.9924   5.9174298516e+01   2.8319070075e+01    0.2964402    0.2192581  85.96  0.001202062    1.606    0.377
        44 -16.3539     33.8162    222.8119   1.2470354003e+02   2.4208345151e+01     1.883478    0.7037836  72.37   0.00850575    3.166    0.684
        45 -14.7605     93.9095    144.5263   1.0223012001e+02   3.3336600224e+01     1.305625    0.8661585 -70.89  0.003847695    1.569    0.363
        46 -11.3051      1.5187    225.9852   1.3040662168e+02   2.6904798574e+01    0.2526441   0.09655063 -87.99  0.001229299    2.196    0.545
        47 -16.9691     54.7683    233.7027   1.2171490393e+02   1.9665908799e+01     2.533403     1.030753  70.34   0.01169982    3.012    0.668
        48 -10.0918     95.1083    129.3174   9.8870877831e+01   3.6776471460e+01     0.281696    0.2047333 -66.03 0.0007093035    1.364    0.267
        49 -17.1322    120.6237    139.7745   9.4357284047e+01   2.9683259224e+01     4.146968     3.044328  19.43   0.01636604    1.785    0.440
        50 -17.6951     36.6824    105.3957   1.1122980880e+02   5.0336691328e+01     3.862484      3.39754  42.77   0.01898356    1.334    0.251
        51 -12.6674    173.2404    161.4293   8.6599491109e+01   1.4373046815e+01    0.6678233    0.4527252 -40.93  0.002223533    1.516    0.340
        52 -11.7969    168.4982    158.0035   8.6907211782e+01   1.6028733225e+01    0.4049859    0.2940338  55.90  0.001930743    1.500    0.334
        53 -10.6662     27.2161    163.2572   1.2136594357e+02   3.7518191231e+01    0.2677175    0.1374177 -79.47  0.001067851    1.646    0.393
        54 -10.4532     28.1334    154.6714   1.2030354924e+02   3.9407154814e+01    0.3081793    0.1783824  86.21  0.001193801    1.613    0.380
        55  -9.4693     26.4913    150.4899   1.2025958404e+02   4.0535305395e+01    0.1728392   0.09650935 -66.63 0.0005929471    1.503    0.335
        56 -15.9731    113.9227    115.0695   9.0381419746e+01   3.6716841508e+01     3.264501     1.970108  29.50   0.01337146    2.049    0.512
        57 -11.9209    159.0471    147.2670   8.6682707332e+01   2.0213833079e+01    0.6527785    0.4157869  35.32  0.002104076    1.660    0.398
        58  -9.9503    182.2355    148.5988   8.1844959385e+01   1.5034357188e+01    0.2146906    0.1390678  34.27  0.000944812    1.625    0.385
        59 -18.0625     74.0875    211.0657   1.1609726981e+02   2.1489484742e+01     4.046549     2.579196  79.78    0.0210936    1.562    0.360
        60 -11.0810     31.3015     30.8952   9.3051857804e+01   6.6885196401e+01    0.3053461    0.2104186 -12.97  0.001489136    1.392    0.281
        61 -14.5707    222.7800    127.2285   6.8864133584e+01   1.0407110201e+01     1.799736     1.349683 -12.49   0.00571036    1.457    0.314
        62 -13.5290    209.7501    115.4922   6.8365550609e+01   1.5326835676e+01     1.178006    0.6495497  56.82   0.00486816    2.072    0.517
        63 -13.6460    208.8673    108.2126   6.6694844321e+01   1.6847907014e+01     1.095469    0.5898409  55.96  0.004224707    2.050    0.512
        64 -11.4217    201.5417    123.4124   7.1890653257e+01   1.5691222835e+01    0.3225563    0.2698329 -84.92  0.001206762    1.538    0.350
        65  -9.3676     18.9984    136.9798   1.2066219609e+02   4.4356502346e+01     0.299472   0.09830816 -61.05  0.001328015    2.377    0.579
