#   1 NUMBER                 Running object number                                     
#   2 MAG_AUTO               Kron-like elliptical aperture magnitude                    [mag]
#   3 X_IMAGE                Object position along x                                    [pixel]
#   4 Y_IMAGE                Object position along y                                    [pixel]
#   5 X_WORLD                Barycenter position along world x axis                     [deg]
#   6 Y_WORLD                Barycenter position along world y axis                     [deg]
#   7 A_WORLD                Profile RMS along major axis (world units)                 [deg]
#   8 B_WORLD                Profile RMS along minor axis (world units)                 [deg]
#   9 THETA_WORLD            Position angle (CCW/world-x)                               [deg]
#  10 FWHM_WORLD             FWHM assuming a gaussian core                              [deg]
#  11 ELONGATION             A_IMAGE/B_IMAGE                                           
#  12 ELLIPTICITY            1 - B_IMAGE/A_IMAGE                                       
         1 -14.0364    220.5381      2.9915   4.2322984764e+01   2.8429930778e+01     2.290408    0.9672739  59.61  0.007556065    2.453    0.592
         2 -13.6607    179.3905     47.0498   5.9972298064e+01   3.3845104444e+01     1.059571    0.7834961  -3.70 0.0009026939    1.549    0.354
         3 -13.9710    190.8367     36.7458   5.5120906471e+01   3.2261248571e+01      1.14796    0.9827317 -40.16  0.003170066    1.114    0.102
         4 -14.8207    198.4571     27.6001   5.1404489899e+01   3.1401446206e+01      2.01265     1.417857  26.81  0.001270976    1.715    0.417
         5 -10.8534    189.7831     15.0125   4.8470325598e+01   3.4929741334e+01    0.2419407    0.2078955  80.18 0.0006000607    1.178    0.151
         6 -12.6287     60.7531      4.7417   7.0934136626e+01   6.8527488965e+01    0.4901926    0.3465933  18.36   0.00262529    1.522    0.343
         7  -9.8811     72.3237    230.4428   1.1859297537e+02   2.1336729111e+01    0.1338592   0.07412142  46.06 0.0003296994    1.315    0.239
         8 -16.3526     71.4411    147.9876   1.1092062386e+02   3.6569791397e+01     8.213108     3.888286  75.13   0.01766863    4.073    0.755
         9  -9.9189     43.8838    219.9179   1.2321687880e+02   2.6209877280e+01    0.1522801    0.1376303  21.99  0.001044091    1.540    0.351
        10 -12.1213     38.7567    211.7887   1.2375443468e+02   2.8112345661e+01    0.3766153    0.1434205  62.97  0.002001972    2.510    0.602
        11 -12.3991    107.5920    210.6806   1.1021440357e+02   1.9875383389e+01    0.4667822    0.2277227  45.21  0.001554723    1.632    0.387
        12  -9.6299     51.4263    215.4744   1.2153322958e+02   2.6127889857e+01    0.1685237    0.1250576  78.03 0.0008685467    1.280    0.219
        13 -12.8036    107.3766    203.4430   1.0948705865e+02   2.1056313286e+01    0.5099072    0.2841065  46.26  0.001488611    1.464    0.317
        14  -8.6039     43.5909    207.6694   1.2258432844e+02   2.8311085214e+01    0.4619642    0.2327421 -79.82  0.002197564    2.099    0.524
        15  -9.6065     30.3407    210.4984   1.2530555332e+02   2.9189742230e+01    0.1439209   0.06744056  47.97  0.000874371    1.545    0.353
        16 -10.0199     32.8729    205.3985   1.2456296965e+02   2.9823225552e+01    0.1428069    0.1134763  68.87 0.0005447036    1.122    0.109
        17 -10.3536     58.2374    214.1476   1.2013783615e+02   2.5582009375e+01    0.4150293     0.308364  32.20  0.001569698    1.424    0.298
        18 -11.0884     96.3784    200.5524   1.1139557600e+02   2.3063583169e+01    0.2871898    0.2219479   0.03 0.0008106694    1.991    0.498
        19 -11.8281    135.4425    199.2644   1.0342454798e+02   1.7600201481e+01    0.2895814     0.190334 -64.30  0.001680759    2.102    0.524
        20 -11.9381    193.0331    194.6358   9.2016647675e+01   9.3190475703e+00    0.7274317    0.4160886 -59.79  0.002948635    5.431    0.816
        21 -13.5434    112.4874    196.8923   1.0771448403e+02   2.1392696275e+01    0.5529829    0.4203942  28.51  0.003639228    1.329    0.248
        22 -10.9292     44.7602    198.8223   1.2180804646e+02   2.9749265405e+01    0.2190515    0.2074135  87.67  0.001782309    1.356    0.263
        23 -10.8509     36.1025    197.8327   1.2350847693e+02   3.0844338862e+01    0.1712299    0.1105493  50.77 0.0004800029    1.194    0.163
        24 -12.4794     31.3174    197.7487   1.2447297412e+02   3.1345683269e+01    0.2038176    0.1386548  50.22 0.0005334352    1.155    0.134
        25 -10.8706    208.6881    197.0065   8.9715846050e+01   6.6578431822e+00    0.1576671    0.1275665   3.55 0.0004939064    1.142    0.124
        26 -19.4091      8.3437    136.3545   1.2626909015e+02   4.5804642367e+01     17.05532     1.865636 -80.88   0.04000178   10.094    0.901
        27 -10.6282     80.4993    194.4147   1.1405661252e+02   2.6256511539e+01    0.3924928    0.1477845  45.31  0.001367426    2.117    0.528
        28 -13.0779     65.8995    190.0413   1.1673789866e+02   2.8903957927e+01    0.6206115    0.5829146  70.74  0.003155668    1.235    0.190
        29  -9.0023     79.4933    217.4944   1.1628686705e+02   2.2490092716e+01    0.1107672    0.0848444  50.09 0.0008105711    1.017    0.017
        30 -10.4174     38.6080    192.8327   1.2269678798e+02   3.1499281331e+01    0.4223933    0.1238959  47.96  0.002051087    2.496    0.599
        31  -9.6410     49.8766    193.0760   1.2036320163e+02   3.0230690930e+01    0.2027765   0.07956941  53.60  0.001035504    2.169    0.539
        32 -12.2380    130.4145    212.7070   1.0604568365e+02   1.6342331243e+01    0.2906202    0.2182831 -86.85  0.001303651    1.920    0.479
        33 -16.6021     66.8155    247.0802   1.2062168300e+02   1.9526029121e+01      8.18835     2.427231  28.42   0.02916945    6.397    0.844
        34  -9.8732     73.8445    189.8027   1.1502291848e+02   2.7949463880e+01    0.1601142    0.1319371  51.78 0.0002159071    1.065    0.061
        35 -11.2828     69.5156    208.6351   1.1753069037e+02   2.5177296988e+01     0.234223    0.1817188  52.35  0.001127684    1.026    0.025
        36 -11.2546     99.4286    180.7612   1.0851935420e+02   2.6091252579e+01     0.246492    0.1859375  42.37 0.0005870088    1.150    0.131
        37 -10.1595    149.2065    180.1952   9.7974763217e+01   1.8382015578e+01    0.1688401    0.1376514  58.01 0.0008780097    1.352    0.260
        38  -9.3487    169.0359    177.8193   9.3694783572e+01   1.5453065310e+01    0.1572369    0.1404015 -78.49  0.000554751    1.573    0.364
        39  -9.5775    218.7179    177.6374   8.4799134451e+01   7.3675261890e+00    0.1244771   0.07795461   7.81 0.0007016471    1.679    0.404
        40 -12.4511    150.0955    189.8384   9.9250871499e+01   1.6753589653e+01    0.5284182    0.3591321 -89.93  0.002616008    3.121    0.680
        41 -10.2465     48.5055    173.5896   1.1916425832e+02   3.4116239294e+01    0.2638351    0.1879348  88.49  0.001735997    1.327    0.246
        42 -10.3501    201.5296    169.4887   8.6258211147e+01   1.1160273645e+01    0.3143763    0.1903808 -43.34  0.001717881    2.067    0.516
        43 -10.2595    204.9877    166.3478   8.5078363527e+01   1.0991145775e+01    0.4764362    0.2128923 -29.78  0.002277791    2.394    0.582
        44 -10.7343     42.1769    171.4879   1.2043842557e+02   3.5235433608e+01    0.4790737    0.1625513  49.81  0.002243601    2.461    0.594
        45 -10.4055    164.0568    170.2205   9.3381075221e+01   1.7439246715e+01     0.200923    0.1859313 -53.40 0.0004866336    1.328    0.247
        46 -10.5967     74.4118    207.0114   1.1642635996e+02   2.4849654073e+01     0.279492    0.2498441  16.20  0.001387664    1.477    0.323
        47 -11.0951    193.0963    165.3894   8.7011003434e+01   1.3139724118e+01    0.3341567    0.2638225 -46.41  0.001634368    1.623    0.384
        48 -10.6813    230.1703    166.1729   8.0871108622e+01   6.9007049893e+00    0.1497164    0.1380429  -3.19 0.0005577567    1.331    0.249
        49 -10.0645    158.4817    162.4874   9.3144829995e+01   1.9630708043e+01    0.1306877    0.1155598  32.29 1.426299e-05    1.019    0.019
        50 -12.5434     94.6331    154.5777   1.0609652025e+02   3.1835139494e+01    0.5851504    0.4367522 -21.04  0.003141797    2.059    0.514
        51 -10.8011    188.7684    154.9376   8.5825249961e+01   1.5379593144e+01    0.4404834    0.2225272  42.52  0.002132698    1.824    0.452
        52 -11.4408    133.7202    144.7760   9.5221119372e+01   2.7169596011e+01      1.04666    0.2751175 -53.88  0.002870631    6.024    0.834
        53  -9.1607    113.3643    151.6656   1.0117112810e+02   2.9409088761e+01    0.1423778    0.0969859  69.31  0.000703522    1.821    0.451
        54 -10.7348    174.5157    149.1354   8.7409719022e+01   1.8859872310e+01    0.2488634    0.2305171  -1.60 0.0009828655    1.089    0.082
        55 -10.8676    144.3605    146.6223   9.3194201081e+01   2.4883712357e+01    0.3518261    0.2390526 -73.53  0.001650806    2.353    0.575
        56  -9.3494    107.5368    145.9810   1.0160846110e+02   3.1508054270e+01     0.185003    0.1321835 -59.29 0.0003362884    1.500    0.333
        57 -10.4415     52.7682    209.6097   1.2090352670e+02   2.6969710239e+01    0.2367425    0.1197876  52.95 0.0007932907    1.548    0.354
        58 -10.7365    105.6829    141.3341   1.0126261692e+02   3.2760869067e+01    0.3001617     0.239714  60.53 0.0009723458    1.234    0.190
        59 -10.5553    107.4954    138.0457   1.0022679109e+02   3.3129202827e+01    0.3117159    0.2287686 -30.22  0.001035637    1.786    0.440
        60 -12.6185     94.5780    139.9263   1.0381218334e+02   3.4867986248e+01    0.2930126    0.2614625  21.67 0.0004686157    1.290    0.225
        61 -11.1827    105.9668    130.4549   9.9198208919e+01   3.4967645939e+01    0.3795254    0.3012617 -67.20  0.002061705    1.333    0.250
        62 -11.1101    101.6398    126.5169   9.9561149840e+01   3.6546976072e+01    0.2549514    0.2276574 -11.32 0.0008654574    1.376    0.273
        63 -10.9639    114.1699    130.3706   9.7100583863e+01   3.3537760926e+01    0.2936634    0.2631453  13.99 0.0007966283    1.272    0.214
        64 -10.1497    160.5142    127.6410   8.5754025248e+01   2.5135321927e+01    0.3407328    0.2360573 -58.68  0.001647077    1.874    0.466
        65 -10.5816    135.7835    127.6482   9.1284040732e+01   3.0032654016e+01    0.4361862    0.1158068 -46.35  0.001352759    3.971    0.748
        66 -10.8755    119.5999    124.1581   9.4463220816e+01   3.3813045378e+01    0.3387161    0.2335783 -17.10    0.0015135    2.281    0.562
        67  -9.7724    135.0000    119.9651   8.9770087998e+01   3.1672491977e+01    0.2295934   0.08202696 -45.23 0.0007971139    2.906    0.656
        68  -9.1745    152.4759    119.5161   8.5646304568e+01   2.8216572712e+01     0.141195    0.1368728  43.65 0.0001167829    1.056    0.053
        69 -10.2078    109.7570    119.0900   9.5907181523e+01   3.6686580653e+01    0.2233194    0.1931097  48.82 0.0003574479    1.119    0.107
        70 -13.7464     56.5063    203.6096   1.1975346719e+02   2.7583930930e+01     0.655875    0.4145585  42.32   0.00259215    1.295    0.228
        71  -9.9760    167.9006    112.7867   8.0740635430e+01   2.6179332214e+01    0.3143687    0.2270471 -89.17  0.001387054    2.356    0.576
        72 -11.2522    119.0254    110.8377   9.1628879400e+01   3.6660048490e+01    0.4451219    0.2803416  60.21  0.001978307    1.887    0.470
        73 -10.0994    205.6072    110.1031   7.3044021129e+01   1.8692717377e+01    0.2528584    0.1911836  35.78 0.0006376202    1.313    0.238
        74 -10.6982     59.8728    229.1642   1.2078873722e+02   2.2973742256e+01    0.1529568    0.1112304  62.36 0.0003609085    1.153    0.132
        75  -8.8020    166.2982     93.6681   7.6160724872e+01   2.9802351389e+01    0.1482073    0.1167304 -69.95 0.0007030269    1.645    0.392
        76 -11.1591     41.9391     91.7848   1.1103834425e+02   5.3174878661e+01    0.2318089    0.2175005 -54.56 0.0007159675    1.163    0.140
        77  -9.5917    185.9992     85.7264   7.0224515434e+01   2.6595350766e+01    0.2052568    0.1934786  33.72 0.0007649615    1.077    0.072
        78  -8.9513    155.2931     80.3376   7.4717851894e+01   3.4638577027e+01     0.154767    0.1175764  10.61 0.0006010327    1.646    0.393
        79  -9.5591     67.6678     71.1023   9.6962549900e+01   5.4649256561e+01    0.1961861    0.1667078 -55.01 0.0004031693    1.094    0.086
        80 -11.2746    161.0725     62.4554   6.8069602353e+01   3.6205053623e+01    0.3725537    0.2851661 -82.24  0.000824014    1.672    0.402
        81  -9.6599     47.7693    217.0110   1.2232203717e+02   2.6273062330e+01    0.2542109    0.1293125  42.16  0.001251548    1.485    0.327
        82 -12.2180     48.8505    233.0345   1.2300251827e+02   2.3587294176e+01    0.2072552    0.1270953  62.00 0.0004829693    1.323    0.244
        83  -9.5758     36.0850    233.9479   1.2531522671e+02   2.4776838152e+01    0.1415695    0.1022828  58.13 0.0004201067    1.057    0.054
        84 -10.6908     53.5769    231.3583   1.2206173251e+02   2.3333861141e+01    0.1719158    0.1286098  67.33 0.0009011695    1.189    0.159
        85 -11.2797    162.7382     55.5478   6.5543228878e+01   3.6852351402e+01    0.3014269    0.2645648  46.33 0.0007124513    1.156    0.135
        86 -10.0459     52.0046    227.0257   1.2210433569e+02   2.4185330428e+01    0.1599208   0.08232096  58.14            0    1.578    0.366
