#   1 NUMBER                 Running object number                                     
#   2 MAG_AUTO               Kron-like elliptical aperture magnitude                    [mag]
#   3 X_IMAGE                Object position along x                                    [pixel]
#   4 Y_IMAGE                Object position along y                                    [pixel]
#   5 X_WORLD                Barycenter position along world x axis                     [deg]
#   6 Y_WORLD                Barycenter position along world y axis                     [deg]
#   7 A_WORLD                Profile RMS along major axis (world units)                 [deg]
#   8 B_WORLD                Profile RMS along minor axis (world units)                 [deg]
#   9 THETA_WORLD            Position angle (CCW/world-x)                               [deg]
#  10 FWHM_WORLD             FWHM assuming a gaussian core                              [deg]
#  11 ELONGATION             A_IMAGE/B_IMAGE                                           
#  12 ELLIPTICITY            1 - B_IMAGE/A_IMAGE                                       
         1 -14.2079     68.7131    144.3325   9.8162756866e+01   3.7456857553e+01     4.568282     2.372291  74.58     0.004107    4.516    0.779
         2 -13.6173    204.1573     41.7174   3.9844080463e+01   2.9679305428e+01     1.464601     1.285526  18.86  0.007562162    1.607    0.378
         3 -13.5117    216.1522     30.6686   3.6020965852e+01   2.8460304146e+01    0.9411817    0.8386012  26.72  0.003783943    1.624    0.384
         4 -12.1042    244.9729      6.2449   2.8739796341e+01   2.5361715570e+01    0.6014465    0.4091696 -39.95  0.004102279    1.497    0.332
         5 -11.9845    238.7603      5.8945   2.9065794603e+01   2.6625352379e+01    0.6130364    0.3025485 -41.57  0.003604798    1.781    0.439
         6 -10.1154      2.5601      4.1467   8.4524009925e+01   7.4292148017e+01    0.2606002    0.1138832 -39.10  0.001508581    1.983    0.496
         7  -8.5351     56.4918      1.4881   5.6290306126e+01   6.7196523476e+01    0.1199084   0.09628305  26.23 5.893491e-05    1.020    0.020
         8  -9.7473    122.2128    198.6327   9.3325721321e+01   1.5565031114e+01    0.3617169    0.2565561 -78.40  0.001661641    1.803    0.445
         9  -9.9661    102.2782    250.0870   1.0476334310e+02   8.0736934592e+00    0.2488769    0.1721433  53.48 0.0009977807    1.329    0.248
        10 -15.0876      4.8455    153.7606   1.1769876618e+02   4.1687871342e+01     6.886238     1.507189 -75.47    0.0229524    3.811    0.738
        11 -10.0652    147.5041    187.4678   8.5338802605e+01   1.3617898275e+01    0.4826299    0.2949164 -70.12  0.001929264    2.546    0.607
        12 -10.4354     81.0389    181.9307   1.0097270653e+02   2.6117029696e+01    0.3286273     0.304495 -51.14  0.001004326    1.169    0.144
        13  -9.4107     99.3431    180.8662   9.6073935521e+01   2.3518694025e+01    0.2625424    0.2148149  28.22 0.0006375795    1.301    0.231
        14  -8.7576     86.8778    177.1692   9.8713283118e+01   2.6407280901e+01    0.1892013     0.172188 -24.89 0.0003921111    1.280    0.219
        15 -10.0394    186.9731    175.1788   7.4083585219e+01   9.0274524998e+00    0.3422899    0.3037273 -48.23  0.001274315    1.207    0.172
        16 -11.4349     64.7718    172.8205   1.0390900792e+02   3.0702255595e+01    0.4599431    0.3249187 -32.37  0.002234961    1.857    0.462
        17 -11.2991     69.5283    168.0172   1.0191353301e+02   3.1264852090e+01    0.3769867     0.288444 -30.82  0.001002869    1.634    0.388
        18 -14.6761      9.3428    207.5303   1.2070138658e+02   2.8508358888e+01     1.500053     1.055096 -48.63  0.006272862    1.855    0.461
        19 -12.4166     78.6830    159.1603   9.7932743075e+01   3.2193704345e+01     1.175666    0.6234048  56.04  0.000381424    2.344    0.573
        20 -12.7889     66.3044    154.8394   1.0070306085e+02   3.5084007147e+01    0.5910037    0.4238573 -46.90  0.001047204    1.431    0.301
        21 -10.8152    119.0933    245.7483   1.0073546498e+02   6.4226157725e+00    0.3667682    0.2422126 -27.64  0.001909518    2.218    0.549
        22 -10.2197     34.8825    160.8936   1.1038664556e+02   3.7297718532e+01    0.3587075    0.1908662  42.16  0.001252414    1.926    0.481
        23 -10.4486     32.1931    155.5270   1.1046411247e+02   3.8935581177e+01    0.3016546    0.2309693  31.16  0.001264767    1.475    0.322
        24 -11.4350     85.9781    152.8833   9.4732198367e+01   3.2666874472e+01    0.6210961    0.4376673 -23.78  0.001719613    1.931    0.482
        25 -10.3901    133.7531    144.5019   7.9849925725e+01   2.6069002126e+01     1.131637    0.2883609 -54.60  0.002548183    5.814    0.828
        26 -10.6116    192.9692    194.8749   7.6735575460e+01   4.1789914940e+00    0.9566096    0.5166335 -65.88   0.00266577    6.708    0.851
        27 -10.8151     56.0054    146.9090   1.0237932024e+02   3.8486250084e+01    0.6145776    0.4391208   7.20  0.003011591    1.850    0.459
        28  -9.4442     48.4185    145.1690   1.0434173176e+02   3.9854077344e+01     0.279774    0.2169727 -32.45  0.001480808    1.498    0.332
        29 -10.0151     32.0829    144.1681   1.0901121939e+02   4.1851508730e+01    0.3791013    0.1673186  44.93   0.00161149    2.475    0.596
        30  -9.8114     99.6689    139.7005   8.8113222054e+01   3.3701644805e+01    0.3518295    0.3020657  15.45  0.001224742    1.315    0.239
        31  -8.9736    102.6710    136.6417   8.6569590458e+01   3.3926759226e+01    0.2751852    0.2293801 -21.40 0.0008084173    1.379    0.275
        32 -11.6732     87.8423    138.1938   9.1251014704e+01   3.6101645190e+01    0.3180456     0.266185 -45.70 0.0004061667    1.176    0.150
        33  -9.9284    105.9120    130.8872   8.4311406105e+01   3.4751205600e+01    0.4026077    0.3046585 -59.33   0.00139289    1.334    0.250
        34  -9.5201    110.1905    129.5878   8.2774285885e+01   3.4262159130e+01    0.3793428    0.2704867   7.07 0.0008832247    2.009    0.502
        35 -14.4446     39.2046    197.6785   1.1327333222e+02   2.7747387101e+01     2.868963     1.297598  69.14   0.00530613    2.772    0.639
        36 -10.1947    134.8559    128.8437   7.5853682765e+01   2.9503280439e+01    0.3677029    0.3407867  18.25  0.001884473    1.145    0.127
        37  -9.9083    240.3970    169.2534   6.2817498909e+01   1.1228854704e+00    0.1821762    0.1090419 -44.18   0.00051355    1.576    0.366
        38 -10.1730     97.4988    125.3922   8.5486506926e+01   3.7638080928e+01      0.30938    0.2681309   2.29 0.0008345781    1.320    0.242
        39  -8.3109    110.5269    167.4904   9.0774104281e+01   2.4884518738e+01    0.1522458    0.1449976  80.24 0.0001850644    1.051    0.048
        40 -10.4413     45.0089    124.0919   1.0180438206e+02   4.5660620237e+01    0.2342918     0.208098   6.11   0.00135246    1.291    0.225
        41  -9.2177    135.0000    120.0275   7.3603775250e+01   3.1487955631e+01     0.264505   0.08857001 -46.11 0.0007987778    2.917    0.657
        42  -9.1005    106.9677    118.6362   8.1014264633e+01   3.7512452379e+01    0.2430959    0.2027979 -36.05 0.0005218044    1.212    0.175
        43 -13.7622     48.9946    187.6634   1.0987025792e+02   2.9019698977e+01     2.378427     1.150132  56.14   0.01040989    2.215    0.549
        44  -8.4690     81.5449    116.4689   8.8283165132e+01   4.2568484108e+01    0.1507703    0.1430177 -56.21 0.0004533553    1.035    0.033
        45  -9.9976    231.2088    113.8506   5.2681306980e+01   1.2452169643e+01    0.2872134    0.2370407 -48.14 0.0008307601    1.064    0.060
        46  -9.8342     21.8505    114.0580   1.0771571452e+02   5.0393230397e+01    0.2189459    0.1560509  44.27 0.0006264328    1.626    0.385
        47 -16.7594     15.8933    242.9711   1.2146094834e+02   2.0308832982e+01     6.659395     2.584564  23.58   0.02898668    4.007    0.750
        48  -9.3429    205.4039    110.2772   5.6015261819e+01   1.8228945148e+01      0.28787    0.2337455  34.85  0.001153964    1.451    0.311
        49 -10.1966     33.3280    109.2306   1.0293426151e+02   5.0602453294e+01    0.2844011    0.1923937  83.80 0.0008441129    1.894    0.472
        50 -11.4326    248.7958    101.7928   4.7672605022e+01   1.1262016913e+01    0.4890504    0.2141676 -32.41  0.002083035    2.415    0.586
        51  -8.8700    118.9875    103.5155   7.3537794674e+01   3.8568116596e+01    0.2334132    0.1541828  44.44  0.000568661    1.542    0.351
        52  -9.9620     38.9924    101.7461   9.9402269779e+01   5.1883714107e+01    0.2995036    0.1987143  57.87   0.00145825    2.015    0.504
        53  -9.0663     32.9032     96.7424   1.0054310565e+02   5.3694771975e+01    0.2452691    0.1685713  82.96 0.0008749521    2.026    0.506
        54 -11.1998    245.9503     95.6018   4.6738296065e+01   1.2797669244e+01     0.323371    0.1620732 -45.96  0.001579309    1.661    0.398
        55  -9.9146     12.0713     93.0031   1.0754441970e+02   5.6225140442e+01    0.1972166    0.1630682 -54.38  0.000463931    1.014    0.013
        56  -8.7633    152.0223     83.9838   5.9688617084e+01   3.5159990586e+01    0.2412889    0.1805146 -77.50 0.0005374239    1.692    0.409
        57  -9.6419     72.0300     83.1807   8.2548829357e+01   5.1846404108e+01     0.405295    0.2426891  57.43  0.001575823    2.598    0.615
        58  -8.9441     92.6049     67.0645   7.0382837649e+01   5.1400023677e+01    0.2336498    0.1989312  54.42 0.0006238478    1.306    0.234
        59 -13.3821     16.3190    216.3862   1.1980954772e+02   2.5871290833e+01    0.8407729    0.5306149  29.87  0.005058243    1.792    0.442
        60 -10.5062     13.4528     60.2659   9.9695049679e+01   6.3518519369e+01    0.2729135    0.1994018 -52.90 0.0008617413    1.212    0.175
        61 -12.7834    194.3729     48.4096   4.2692297654e+01   3.0984490906e+01    0.8645093     0.745866  30.22  0.001037454    1.526    0.345
        62 -11.1481     95.1489    242.2648   1.0540175433e+02   1.0591624859e+01    0.4425882    0.2193657 -63.31  0.002050987    2.278    0.561
        63  -8.6142    234.4509     45.4864   3.7434806473e+01   2.2658506783e+01    0.1260854    0.1026502 -64.64 9.200314e-05    1.010    0.010
        64  -9.3805     32.9474    210.2005   1.1580423450e+02   2.5530676246e+01    0.2052019    0.1544825 -87.81 0.0003665988    1.172    0.147
        65  -9.0801    198.0759     23.5299   3.6221386802e+01   3.3336907604e+01    0.1900053    0.1552474 -52.58 0.0005450116    1.195    0.163
        66  -8.2555     73.1342     55.3749   7.2964643544e+01   5.7129234985e+01    0.1894505    0.1254326  48.53  0.000643237    1.713    0.416
        67 -10.7004    117.6468    236.9917   9.9945285485e+01   8.2938543119e+00     0.344934     0.194318 -55.50   0.00174983    1.999    0.500
        68  -8.5190    168.8935    235.8569   8.8855559089e+01   6.3693533685e-01    0.1553185    0.1496151  46.57 0.0004383542    1.274    0.215
        69 -10.0690    110.9996    203.2684   9.6744836524e+01   1.6382834167e+01    0.2202871    0.1820659  64.13 0.0004059178    1.251    0.200
