#   1 NUMBER                 Running object number                                     
#   2 MAG_AUTO               Kron-like elliptical aperture magnitude                    [mag]
#   3 X_IMAGE                Object position along x                                    [pixel]
#   4 Y_IMAGE                Object position along y                                    [pixel]
#   5 X_WORLD                Barycenter position along world x axis                     [deg]
#   6 Y_WORLD                Barycenter position along world y axis                     [deg]
#   7 A_WORLD                Profile RMS along major axis (world units)                 [deg]
#   8 B_WORLD                Profile RMS along minor axis (world units)                 [deg]
#   9 THETA_WORLD            Position angle (CCW/world-x)                               [deg]
#  10 FWHM_WORLD             FWHM assuming a gaussian core                              [deg]
#  11 ELONGATION             A_IMAGE/B_IMAGE                                           
#  12 ELLIPTICITY            1 - B_IMAGE/A_IMAGE                                       
         1 -13.1165    155.1792     48.0803   8.1072083872e+01   4.0784485239e+01     1.315618     1.180591 -16.49  0.003909967    1.196    0.164
         2 -13.1088    166.0236     16.8537   6.9017312570e+01   4.1937261681e+01     1.024582    0.9549155 -86.66  0.003728786    1.056    0.053
         3 -10.9851    189.0649     14.9471   6.5362167092e+01   3.6128722202e+01    0.3918278    0.2593071 -13.43  0.001931785    1.877    0.467
         4  -9.6100    234.0576      8.0153   5.9139978118e+01   2.5663614326e+01    0.3072329     0.156576 -39.00  0.001193742    1.768    0.434
         5  -9.5823    191.8382      1.8115   6.1338354727e+01   3.6728143352e+01    0.1952811    0.1428145 -70.33 0.0006852328    1.319    0.242
         6 -10.6273    187.5250    233.3692   1.1736926550e+02   5.0015549196e-01    0.2966085    0.2169228 -43.74  0.000772398    1.711    0.416
         7 -10.6318    149.6590    248.4641   1.2629326566e+02   4.5404585011e+00     0.421858    0.3802148 -29.87  0.002124276    1.463    0.317
         8 -14.5362    112.0739    212.0854   1.2904603476e+02   1.6706743250e+01    0.9423164    0.5422779  58.92  0.004922933    1.675    0.403
         9 -19.0809     81.4517    231.4437   1.3704898287e+02   1.7806402527e+01      5.41682     4.252896  65.71   0.02323586    1.041    0.040
        10 -10.0431    229.6898    166.3422   9.7599926148e+01   2.9590013498e+00    0.2446709    0.1186836 -35.04  0.001090361    2.028    0.507
        11  -8.2804      9.4555    169.4298   1.4628660876e+02   3.8806611986e+01    0.1130702   0.08709849  89.53 0.0007137574    1.085    0.079
        12  -9.5765    192.0238    158.7888   1.0314778966e+02   1.1681167426e+01    0.3442967    0.2406163  27.61  0.001657148    1.552    0.356
        13 -11.3061    180.0914    193.9157   1.1241918703e+02   7.8561440570e+00    0.7462196    0.3992544  49.50  0.003150734    1.833    0.454
        14  -8.9115     22.8718    156.8614   1.4232479235e+02   4.0381209254e+01     0.169785    0.1398055 -78.64 0.0004713341    1.172    0.147
        15 -12.1961    163.6420    189.4696   1.1498523893e+02   1.1743579759e+01     1.120036    0.6836702  69.19  0.004704082    2.683    0.627
        16 -11.1709    170.2521    184.0773   1.1264931544e+02   1.1453594530e+01    0.5668808    0.3114984  38.17  0.002185473    1.720    0.419
        17 -10.8731    172.2625    189.3317   1.1318551631e+02   1.0127920408e+01    0.3961262    0.3382849 -64.08  0.001254013    1.405    0.288
        18 -12.0110    133.7666    146.4265   1.1342636984e+02   2.6328475293e+01     1.411784    0.3711599 -55.41  0.003482545    5.636    0.823
        19 -10.5854    175.9253    187.1224   1.1203946565e+02   9.8173518902e+00    0.3562409    0.2910135 -70.27  0.001107757    1.579    0.367
        20  -9.2821    153.3030    152.1166   1.1004698118e+02   2.1099548817e+01    0.2038734    0.1912885 -75.17 0.0003892793    1.112    0.101
        21 -11.9042    143.6033    146.2294   1.1103950653e+02   2.4358991599e+01     1.040575    0.4254308 -59.95  0.003097316    4.026    0.752
        22  -9.8111    139.1462    149.6400   1.1281334533e+02   2.4542102712e+01    0.2531375    0.2415217 -41.58 0.0007253963    1.129    0.114
        23 -11.4645     28.9777    145.5322   1.3973926658e+02   4.2381925031e+01    0.6501479    0.4151837 -39.95  0.003629105    2.165    0.538
        24  -9.3063     31.9195    136.8363   1.3799758436e+02   4.4112485541e+01     0.238027    0.1387561 -57.40 0.0008492796    1.612    0.380
        25  -8.7771     20.8852    147.8086   1.4194098904e+02   4.2606469664e+01    0.2056877    0.1590837 -37.97  0.001208051    1.771    0.435
        26  -8.6809    187.1237    138.8786   9.9717695012e+01   1.6432282791e+01    0.2115145    0.2010163  86.20  0.001148096    1.155    0.134
        27  -9.6591     23.1723    192.5204   1.4508402460e+02   3.2641929174e+01    0.2751988    0.1660389 -51.28 0.0009707362    2.330    0.571
        28 -11.5661    135.2809    123.5080   1.0787795130e+02   3.1056007500e+01     1.006237    0.2676477 -50.52  0.002720874    4.191    0.761
        29  -8.9535     14.8472    188.9171   1.4648024445e+02   3.4202990201e+01    0.1679228    0.1215054 -74.36  0.001186353    1.368    0.269
        30 -12.4221    194.4493    168.9037   1.0477158359e+02   9.3852494402e+00     0.988025    0.6176441 -52.09  0.002199097    1.950    0.487
        31 -10.4072    233.2623    131.5590   8.9373086436e+01   7.8287358402e+00    0.2532073    0.2336243 -16.44 0.0003694051    1.009    0.009
        32 -12.0594    204.5983    177.0826   1.0443081566e+02   6.0055988339e+00    0.8076738    0.5673006 -56.72  0.003969573    1.933    0.483
        33 -10.7851    160.4052    128.7396   1.0312326210e+02   2.4417201489e+01    0.4632688    0.4403139  46.77  0.002471388    1.041    0.039
        34 -10.7427    102.4946    127.5770   1.1737529982e+02   3.6609199196e+01    0.6084147    0.2943361  51.35  0.001790077    2.283    0.562
        35 -11.5468    203.6435    168.6821   1.0291987631e+02   7.5947818091e+00    0.8043454     0.519578 -42.80  0.003552662    1.657    0.396
        36  -9.7457    187.4966    174.9416   1.0737815436e+02   9.7083793588e+00    0.3550051    0.2249676 -64.54  0.001394784    2.577    0.612
        37  -9.2244     87.1675    119.1385   1.1978371175e+02   4.1217604017e+01    0.2033453    0.1952347 -32.54 0.0006727439    1.168    0.144
        38 -10.0287     38.0090    116.7729   1.3355573338e+02   4.8228108214e+01    0.2536542    0.2266349  26.94 0.0009321524    1.372    0.271
        39  -9.2427    173.3851    151.3880   1.0543925049e+02   1.7000030304e+01    0.4197367    0.2701316 -89.27  0.001465134    3.484    0.713
        40  -8.0231     15.3332    116.3101   1.3995752374e+02   5.0295774625e+01    0.1222037    0.0759306 -48.17 0.0007043008    1.675    0.403
        41 -10.0976    134.6910    112.9960   1.0539743417e+02   3.3481381688e+01    0.4748313    0.2002262 -50.79  0.001637203    2.509    0.601
        42 -10.5298    134.5384    106.2419   1.0366011402e+02   3.4973424754e+01    0.6438307    0.2147127 -45.44  0.002017969    2.979    0.664
        43  -9.9886     75.5370    113.9610   1.2202525238e+02   4.4252859390e+01    0.2069509      0.19258  53.82 0.0004405063    1.153    0.133
        44 -10.2864    107.5342    115.4181   1.1322254768e+02   3.8489367887e+01    0.2915586    0.2598738 -27.84   0.00071468    1.259    0.206
        45  -8.9423    250.6153    112.9282   8.2349400771e+01   7.2833123246e+00    0.2020932    0.1206064 -33.03 0.0003101631    1.505    0.336
        46  -9.6421     52.9596    110.0242   1.2795796850e+02   4.8197599000e+01    0.2014511     0.176602 -77.17 0.0003516268    1.050    0.048
        47  -9.8411    173.4058    175.9799   1.1047441672e+02   1.2315012713e+01    0.2614053    0.1855395  56.22 0.0005067212    1.494    0.331
        48  -9.1450    123.8331     96.1930   1.0371279333e+02   3.9459717897e+01     0.210209    0.1845293  -4.32 0.0003825907    1.325    0.245
        49  -9.8916    113.2177     95.4277   1.0642698799e+02   4.1847166830e+01    0.2774584    0.2080346 -46.20 0.0005075407    1.297    0.229
        50 -15.3084     70.7722    207.6415   1.3687664936e+02   2.3821999189e+01     1.209691    0.3748293  49.01  0.005160982    2.706    0.630
        51  -9.2502    141.1834     82.1190   9.5076772267e+01   3.8397316211e+01    0.2352294    0.2135575  11.83 0.0005188297    1.209    0.173
        52 -12.8008    145.6532     62.6197   8.7882092792e+01   4.0870452102e+01     1.275027     1.050262 -60.34  0.006347679    1.339    0.253
        53 -12.1076     11.4075    206.6086   1.4815478498e+02   3.0965655452e+01    0.4543136    0.3193227  29.27  0.002422858    1.948    0.487
        54 -11.9388    159.1638     38.5644   7.7186552290e+01   4.1107696287e+01    0.5590392    0.5037314 -41.23 0.0007273712    1.151    0.131
        55  -8.2539    188.3707     68.9076   8.1128733980e+01   2.8948689431e+01    0.1866049    0.1459925 -19.52 0.0002721318    1.442    0.306
        56  -9.7460    243.8493     56.5298   6.9846012691e+01   1.7281136789e+01     0.237352    0.2286178 -80.54 0.0006030332    1.124    0.110
        57  -9.7416    129.1509     56.6094   8.9874824337e+01   4.5889392063e+01    0.2477096    0.2021075 -45.82 0.0005236582    1.278    0.218
        58  -8.5456    248.4425     52.4483   6.8354939272e+01   1.6817163861e+01    0.1340073    0.1202215 -53.43 0.0001654963    1.047    0.045
        59 -10.2694    139.8434     33.0933   7.9155198274e+01   4.6779384697e+01     0.230404     0.209232  48.96 0.0002715548    1.040    0.039
        60  -9.0510    162.8176    244.1432   1.2337135770e+02   3.0428252091e+00     0.205031    0.1586018   6.46  0.001091791    1.675    0.403
        61 -10.1278     13.0521    240.5668   1.4949591111e+02   2.4503185143e+01    0.2021071    0.1457505  79.21 0.0009920297    1.166    0.142
        62  -9.7270    167.9519    236.4556   1.2141102237e+02   3.3039564220e+00    0.1870483    0.1776701 -18.23 0.0002758378    1.286    0.223
