#   1 NUMBER                 Running object number                                     
#   2 MAG_AUTO               Kron-like elliptical aperture magnitude                    [mag]
#   3 X_IMAGE                Object position along x                                    [pixel]
#   4 Y_IMAGE                Object position along y                                    [pixel]
#   5 X_WORLD                Barycenter position along world x axis                     [deg]
#   6 Y_WORLD                Barycenter position along world y axis                     [deg]
#   7 A_WORLD                Profile RMS along major axis (world units)                 [deg]
#   8 B_WORLD                Profile RMS along minor axis (world units)                 [deg]
#   9 THETA_WORLD            Position angle (CCW/world-x)                               [deg]
#  10 FWHM_WORLD             FWHM assuming a gaussian core                              [deg]
#  11 ELONGATION             A_IMAGE/B_IMAGE                                           
#  12 ELLIPTICITY            1 - B_IMAGE/A_IMAGE                                       
         1 -12.5245    197.2414     40.4473   4.4625429082e+01   3.0850811422e+01     1.026911    0.9355885 -55.05  0.003621263    1.103    0.093
         2 -12.6527    206.8912     30.9313   4.0989227610e+01   2.9737810487e+01    0.8291019    0.7631903  23.13  0.001510161    1.371    0.270
         3 -11.3877    233.6711      6.6757   3.2877633738e+01   2.6384591933e+01    0.6285931     0.542626 -21.75  0.004310822    1.504    0.335
         4 -11.3198    227.9956      6.2688   3.3224977220e+01   2.7672526199e+01    0.6410014    0.3611781 -39.01  0.003630043    1.690    0.408
         5 -10.1061     54.4136      3.4019   6.4647588741e+01   6.7716411062e+01    0.2132842    0.1852273  16.85  0.001481322    1.211    0.174
         6 -10.3241     30.4259      3.4875   7.5804551850e+01   7.1281243684e+01    0.2917822    0.1668828   8.60  0.001682116    1.741    0.425
         7  -9.2835     62.8189      3.0018   6.1191996631e+01   6.6277573885e+01     0.216962    0.1197653  14.08 0.0008108526    2.002    0.500
         8  -9.8546     63.2845    200.2363   1.1277093746e+02   2.4963245470e+01    0.4695474    0.1894203 -59.95 0.0008645927    2.449    0.592
         9  -9.1790    102.1192    249.7378   1.0972761800e+02   9.6986890768e+00     0.280653    0.1880393 -86.69  0.001482269    1.885    0.469
        10 -12.0760     57.0742    187.6338   1.1283596680e+02   2.8587157418e+01    0.7681603    0.6373018 -82.32  0.002926825    1.126    0.112
        11 -15.2235     47.0065    199.8471   1.1636725813e+02   2.7063038906e+01     13.69311     5.432653  65.03   0.04738772    3.456    0.711
        12  -9.1696     66.5069    195.5242   1.1151758049e+02   2.5585015455e+01    0.3233812      0.23022  84.81  0.001822261    1.399    0.285
        13  -9.6942    194.4131    197.6354   8.2651203819e+01   3.7540614284e+00    0.4975182    0.2512832 -55.49  0.001898369    3.427    0.708
        14  -8.1850    120.0202    194.0382   9.8695821454e+01   1.7706914138e+01    0.2117083    0.1616625  72.89 0.0003934123    1.539    0.350
        15 -14.9711     19.2222    250.1946   1.2518650245e+02   2.0024198759e+01     2.130743    0.7811534  26.49  0.007770475    4.448    0.775
        16 -16.1292      5.3397    213.6995   1.2587880513e+02   2.8389199053e+01     19.96206     1.152414 -76.70   0.01435639   10.742    0.907
        17  -8.7692     99.6348    180.6101   1.0152237019e+02   2.4089083096e+01    0.2455941    0.2165566 -58.60 0.0007443692    1.187    0.158
        18  -9.1672    164.6274    216.1702   9.2221437452e+01   5.6699300266e+00    0.1984776    0.1591038  37.48   0.00114542    1.132    0.117
        19 -13.6963     56.3142    239.6425   1.1778684776e+02   1.7764572163e+01    0.9803098    0.9599602  81.93  0.004640344    1.391    0.281
        20 -10.3792     70.5771    174.1704   1.0787566560e+02   2.9957711688e+01    0.3349731    0.2724057 -39.95  0.001105191    1.469    0.319
        21 -10.6714     75.0153    168.9583   1.0600166331e+02   3.0579167320e+01     0.472528    0.2967219 -37.42  0.002182056    2.109    0.526
        22  -9.2401    107.7597    203.9801   1.0304423371e+02   1.7633490316e+01    0.2488212     0.197343 -63.30 0.0004344959    1.366    0.268
        23 -10.1829    104.0199    172.2249   9.9046211168e+01   2.5300246805e+01    0.4585813    0.2418473  37.63  0.001820075    1.833    0.455
        24  -9.2631     93.9900    167.9555   1.0091414544e+02   2.7949331718e+01    0.2263272      0.21436  64.33  0.001098352    1.025    0.025
        25  -9.7320    109.6340    200.8754   1.0216889175e+02   1.7985688673e+01    0.2955351    0.2176775  80.64  0.001068399    1.625    0.385
        26  -9.8946     32.4385    165.2632   1.1639478822e+02   3.6578958598e+01    0.2875354    0.1766835 -59.18 0.0009189596    1.555    0.357
        27 -11.7279     56.4562    146.8744   1.0769414620e+02   3.8413172284e+01     1.049921    0.4335429 -49.58   0.00421732    2.449    0.592
        28 -12.0842     58.5243    130.6154   1.0441322100e+02   4.2184786470e+01     1.469523    0.5582474 -75.67  0.004072586    5.152    0.806
        29 -12.0398     71.9340    154.9698   1.0467533164e+02   3.4400415236e+01    0.5388072    0.4944039 -44.94  0.001302434    1.184    0.156
        30 -12.3224     68.5007    144.2145   1.0385618898e+02   3.7520087964e+01     1.105586    0.7709216  85.73  0.003634823    1.692    0.409
        31 -10.6606     90.3250    153.2760   9.9342931160e+01   3.2061408649e+01    0.6482272    0.4684602 -17.12  0.002975808    2.001    0.500
        32  -9.7266    134.0000    144.0039   8.5644639089e+01   2.6313737902e+01    0.6731809     0.273076 -58.41  0.002011042    3.605    0.723
        33  -9.3793     40.8329    146.7172   1.1201563549e+02   4.0208680086e+01     0.252548    0.2042727 -58.96  0.001105589    1.187    0.158
        34  -9.6211    103.2006    139.1975   9.2974210371e+01   3.3307196496e+01    0.5521443    0.3374815 -22.29  0.002045786    2.767    0.639
        35 -10.7023     91.0744    138.6885   9.6331623706e+01   3.5498710350e+01    0.2949934    0.2696599 -31.80 0.0004551758    1.163    0.140
        36  -8.4482     44.3075    138.6793   1.0991471822e+02   4.1820156054e+01    0.1389112   0.09510824  71.58 0.0007033138    1.640    0.390
        37  -9.0316    105.7466    130.6563   9.0367552012e+01   3.4901287321e+01    0.3406212    0.2712016 -56.04  0.001670894    1.254    0.202
        38 -10.0381     44.3757    130.2321   1.0860324380e+02   4.3898145980e+01    0.2473033     0.161617 -76.22  0.001267536    1.475    0.322
        39  -9.5769    112.8015    129.4748   8.8078131939e+01   3.3865235879e+01      0.41561    0.2933303   6.07  0.001276104    2.046    0.511
        40  -7.8357     49.4809    160.4769   1.1148809586e+02   3.5910390506e+01     0.133501    0.1182212 -85.59 0.0008098577    1.018    0.018
        41  -8.6769    135.5006    127.4854   8.1359185634e+01   2.9759041646e+01    0.1563015    0.1546956  12.23 0.0008104857    1.012    0.012
        42  -9.2149     99.5391    125.7084   9.1044293733e+01   3.7205207832e+01     0.300081    0.2415688  -6.92 0.0007995042    1.527    0.345
        43 -10.2540     39.9710    123.4951   1.0885861524e+02   4.6008396599e+01    0.2677344    0.1808363 -66.21  0.001439169    1.294    0.227
        44  -8.3801     67.3001    125.3371   1.0074302387e+02   4.2354092759e+01    0.1493177    0.1039829 -32.39 9.768258e-05    1.661    0.398
        45  -9.7009    117.9791    123.8439   8.5261876793e+01   3.4179468257e+01    0.4246998    0.2566546  15.27  0.001507505    2.772    0.639
        46  -8.3862    108.2469    118.7676   8.6814437470e+01   3.7253680940e+01    0.2064157    0.1776368  -9.38 0.0003263873    1.305    0.234
        47 -11.7034     43.4236    109.2781   1.0524605755e+02   4.9140544057e+01    0.5778011    0.3959728 -71.79  0.002946358    1.427    0.299
        48  -8.1446    205.3974    110.3400   6.1208050797e+01   1.7687305145e+01    0.2220874    0.1754703   8.55  0.001081962    1.563    0.360
        49  -9.2923    114.5480    109.9932   8.2716846267e+01   3.8048797728e+01     0.243313    0.1517183 -46.67  0.000550528    1.587    0.370
        50 -10.8581     83.2963    160.3233   1.0247193022e+02   3.1444844522e+01    0.6548166    0.4321996  57.31 0.0006188867    1.637    0.389
        51 -10.3150     33.2881    100.6567   1.0702135619e+02   5.2183214446e+01    0.2967813    0.2089261 -61.60  0.001307192    1.221    0.181
        52  -9.8749     53.2425     93.9240   9.8568461105e+01   5.1731228428e+01    0.3936303     0.268966 -85.46  0.001866029    2.078    0.519
        53 -15.2698      3.3420    247.2083   1.2773308340e+02   2.2133270276e+01      1.30228     1.115816  -9.54  0.007859744    2.180    0.541
        54 -10.6971     48.8931    216.3587   1.1741114014e+02   2.3305083316e+01    0.4897102    0.4652406  79.96  0.003556088    1.272    0.214
        55  -9.0175     58.4404     67.1545   8.9231403043e+01   5.7013015515e+01    0.2527753    0.1538088  49.76  0.001161198    2.315    0.568
        56 -12.2484    186.3319     49.0351   4.8516808868e+01   3.2360535142e+01    0.9556012    0.7145016  34.16 0.0009180953    1.615    0.381
        57  -9.9373    119.2410    245.6100   1.0585622890e+02   7.8680676316e+00    0.2396247    0.1889951 -39.78  0.001525656    1.635    0.388
        58  -9.4293     95.2848    241.7654   1.1027871373e+02   1.2107699432e+01     0.278287    0.1577522 -70.39  0.001346916    2.107    0.525
        59 -10.1664    145.9756     50.5502   5.6471235934e+01   4.2227865046e+01    0.5502928    0.3524855 -82.48  0.001581767    2.613    0.617
        60 -10.7433     32.0866     15.6044   8.1062645934e+01   6.9449498729e+01    0.2440661    0.2215277  70.01  0.001611301    2.176    0.541
        61  -7.7882     73.6907     55.2975   7.9353226008e+01   5.7023948465e+01    0.1261306       0.1144  85.83 0.0002758012    1.595    0.373
        62  -8.9028     91.2999    214.9244   1.0816822034e+02   1.7901234898e+01     0.358007    0.2018223  82.91  0.001587783    2.634    0.620
        63  -8.8257     32.7374    205.0513   1.1987363347e+02   2.7527464474e+01    0.1989975    0.1715152  39.41 0.0006892555    1.347    0.258
        64  -7.6228    168.8364    235.6050   9.4378853318e+01   1.7207905977e+00    0.1724067    0.1036138  42.80 0.0003027556    1.516    0.340
        65  -8.7905    201.0041    201.4848   8.2021360566e+01   1.9678834798e+00    0.2030841    0.1062531  18.11 0.0008103887    2.607    0.616
        66  -9.8010     58.8835    229.7566   1.1649285053e+02   1.9355961214e+01    0.2760939    0.1763939 -74.76 0.0007554505    1.599    0.375
