#   1 NUMBER                 Running object number                                     
#   2 MAG_AUTO               Kron-like elliptical aperture magnitude                    [mag]
#   3 X_IMAGE                Object position along x                                    [pixel]
#   4 Y_IMAGE                Object position along y                                    [pixel]
#   5 X_WORLD                Barycenter position along world x axis                     [deg]
#   6 Y_WORLD                Barycenter position along world y axis                     [deg]
#   7 A_WORLD                Profile RMS along major axis (world units)                 [deg]
#   8 B_WORLD                Profile RMS along minor axis (world units)                 [deg]
#   9 THETA_WORLD            Position angle (CCW/world-x)                               [deg]
#  10 FWHM_WORLD             FWHM assuming a gaussian core                              [deg]
#  11 ELONGATION             A_IMAGE/B_IMAGE                                           
#  12 ELLIPTICITY            1 - B_IMAGE/A_IMAGE                                       
         1 -11.8961    249.3641     55.2665   2.0468623165e+00   1.7783287254e+01    0.6694863    0.1901974 -33.25  0.002844107    2.682    0.627
         2 -10.2667     41.0560     13.7519   3.2513469061e+01   7.2829576330e+01     0.263275    0.2042644  19.73 0.0002100617    1.241    0.194
         3  -9.9020     97.8686     11.9477   8.7800963064e+00   5.9682842268e+01    0.3177955    0.2093972  -0.92 0.0009661548    1.979    0.495
         4  -8.2628     80.3838     12.1906   1.3638553054e+01   6.4220214961e+01    0.1900531    0.1284186 -40.01 0.0007200214    1.643    0.392
         5  -9.9557      3.1855     11.9678   6.4157620975e+01   7.7863974576e+01    0.1743103    0.1701949  73.99  0.001217938    1.288    0.224
         6  -8.4762     61.9735      9.9618   1.9045636557e+01   6.8956761871e+01    0.1689532    0.1505237  37.78 0.0005431849    1.008    0.008
         7  -8.3973     65.1183      4.8267   1.4588228478e+01   6.8783117619e+01    0.1912915    0.1427768  32.53 0.0003267202    1.309    0.236
         8  -9.7007      2.6919      2.9145   5.9888564046e+01   7.9764445897e+01    0.2170299    0.1454041  -9.51 0.0007918103    1.386    0.279
         9  -9.2750     67.5370      1.3722   1.1570519852e+01   6.8529333822e+01    0.2524936    0.1172607  61.74 0.0001571977    1.891    0.471
        10 -11.9035     95.2112    217.8264   6.3670731777e+01   1.7223086438e+01    0.6010606     0.353529  38.66  0.001870325    1.359    0.264
        11 -10.7130    221.7988    241.1612   4.0898176545e+01  -2.5183287437e+00    0.4424505    0.4030793 -21.74  0.002474789    1.863    0.463
        12 -11.5090    246.0009    247.5957   3.7936267365e+01  -5.6236581967e+00    0.4838859    0.3165915  23.58  0.002449047    1.518    0.341
        13 -11.1610    249.3386    239.2792   3.6252889464e+01  -5.1205956761e+00    0.4456336    0.2079576 -34.84  0.002894887    2.340    0.573
        14 -11.8750    237.2935    241.5140   3.8434309463e+01  -4.1625757295e+00    0.6964088    0.3234804  29.77  0.004512067    1.930    0.482
        15 -10.0847    242.8700    223.8714   3.4971609515e+01  -2.8622730083e+00    0.2131858    0.1191235 -17.87 0.0008047849    1.501    0.334
        16 -11.8140    231.3816    234.5306   3.8374783249e+01  -2.8131631733e+00    0.5122337    0.2844419  -2.86  0.002289331    1.636    0.389
        17 -11.8067    238.6002    230.1530   3.6579939343e+01  -3.0965897130e+00    0.5458238    0.2455912  17.74  0.002294683    2.086    0.521
        18 -10.5206    212.3599    248.8849   4.3558381359e+01  -2.3524019991e+00    0.3709162    0.2232986  35.32  0.002510632    1.873    0.466
        19  -9.7281    205.3189    249.7939   4.4894984297e+01  -1.6889993856e+00    0.2817864    0.1158197  33.35  0.001421782    2.115    0.527
        20 -11.6636    166.3696    248.0654   5.1846145654e+01   3.0439041868e+00    0.8019239    0.2581084  35.03   0.00379519    2.454    0.593
        21 -11.4624    173.5536    244.7828   5.0046746818e+01   2.5935355692e+00    0.5239569     0.414269 -23.15  0.003869708    1.436    0.304
        22 -11.8679    167.0539    242.0834   5.0958502930e+01   3.7480179111e+00    0.7821417    0.2724434  28.81  0.003328279    2.313    0.568
        23 -10.4849    169.7057    224.8794   4.8116294851e+01   5.7890347772e+00    0.4184444    0.2231969  42.51   0.00187753    2.064    0.515
        24 -11.6882    168.8519    234.0086   4.9544607430e+01   4.6167551025e+00    0.6413205    0.4343847  32.32  0.003144928    1.321    0.243
        25 -11.4690    162.3206    225.7349   4.9728306597e+01   6.6502873665e+00    0.5647201    0.3045793  23.08  0.002760818    1.592    0.372
        26  -9.5044     56.6697    246.6755   7.4826176792e+01   1.6727356561e+01    0.1971362    0.1474773  45.96 0.0008842264    1.074    0.069
        27 -10.1306     12.9940    250.1119   8.4201414877e+01   2.0546100826e+01     0.277224    0.1161723  37.83  0.001638179    1.579    0.367
        28 -11.3573     19.2378    247.7717   8.2851470890e+01   2.0382261643e+01    0.5517865    0.2345294  50.37  0.003229524    1.671    0.401
        29  -9.1926      3.9790    249.3771   8.6013708222e+01   2.1470787392e+01    0.1864689    0.1085232  58.20  0.000656599    1.315    0.240
        30 -10.7079     73.7069    244.4296   7.0955876365e+01   1.5156961096e+01    0.2457457    0.2011587  32.68 0.0006075731    1.130    0.115
        31 -11.2018     97.9942    241.4364   6.5362620594e+01   1.2685944343e+01    0.4074341    0.2725644  26.33  0.001037771    1.227    0.185
        32  -9.8962      7.8262    242.5458   8.5089073792e+01   2.2352330912e+01    0.2252308    0.0988728  63.45  0.001309734    1.894    0.472
        33 -10.7691     53.4414    249.5178   7.5684289616e+01   1.6592470761e+01    0.3835411    0.2317026  24.16  0.001698897    1.513    0.339
        34 -10.4757    100.0024    217.4786   6.2496078874e+01   1.6636602267e+01    0.3472733    0.1740109  41.99 0.0008819993    1.670    0.401
        35 -11.9330    126.8269    221.6843   5.6801473998e+01   1.2170139569e+01    0.6361888    0.4848258 -76.69  0.002724893    1.972    0.493
        36 -10.7031    121.7638    222.6052   5.8052993757e+01   1.2717074506e+01    0.2611571    0.2376647  35.33  0.001779639    1.184    0.156
        37 -11.3081    249.0591    225.6531   3.4293324112e+01  -3.6914682232e+00    0.5380412    0.2146382 -28.49  0.003197829    2.207    0.547
        38  -9.2896    145.0369    227.3222   5.3543334995e+01   8.7462010104e+00    0.2468305    0.1607028 -23.84  0.001417268    1.852    0.460
        39  -9.5567    116.5279    227.0893   5.9758839601e+01   1.2670460012e+01    0.1982588    0.1827384  -9.30 0.0008045541    1.264    0.209
        40  -8.8855    191.6948    227.0041   4.4172628570e+01   2.6624399656e+00    0.1568199    0.1206502   3.61 0.0003280822    1.070    0.066
        41 -10.4319    182.1488    226.3891   4.5890569644e+01   3.9530523357e+00     0.363991    0.1623243  35.06  0.001908075    1.953    0.488
        42 -10.1318     66.4033    223.1468   7.1018421944e+01   1.9908413429e+01    0.2825895    0.1801777  69.01  0.001119224    1.732    0.423
        43  -9.4567    157.5074    221.6116   5.0148173389e+01   7.9196475535e+00    0.2212725    0.1708336  18.67 0.0007308686    1.025    0.024
        44 -10.9308    130.9239    215.5729   5.5096976198e+01   1.2633560005e+01    0.6538193    0.4200824 -82.26  0.003057157    3.263    0.694
        45  -8.9194    218.4647    220.4495   3.8414873228e+01   2.4052370328e-01    0.1136608   0.08381382   3.79 0.0001775942    1.011    0.011
        46  -8.6341    149.3899    219.7598   5.1604492356e+01   9.3309356213e+00    0.1558065    0.1114838 -25.91 0.0009335798    1.571    0.364
        47  -9.3726    151.4975    216.0330   5.0633496517e+01   9.6268501740e+00    0.2685309    0.1823691   9.72 0.0009813159    1.465    0.317
        48  -9.7768     75.2980    219.3518   6.8581514164e+01   1.9540862531e+01    0.2570691    0.1739754  44.97 0.0009159966    1.215    0.177
        49 -10.0169    190.4392    215.9459   4.2758175385e+01   4.3047917454e+00    0.3861373     0.245878 -25.69  0.002385799    1.575    0.365
        50 -10.0086    176.0193    216.0468   4.5570810095e+01   6.2164583669e+00    0.2498128    0.1587179 -29.85  0.001128233    1.666    0.400
        51 -10.3435    170.7859    215.1496   4.6486330123e+01   7.0650326990e+00    0.2780471     0.205607  13.93 0.0007376165    1.122    0.109
        52  -9.5830    115.2040    220.8209   5.9332454661e+01   1.3935651925e+01    0.1901698    0.1480439  37.85 0.0005042579    1.120    0.107
        53 -10.2209    112.9930    212.6832   5.8866441953e+01   1.5709278662e+01    0.5505385    0.3316904   2.26  0.002508224    2.538    0.606
        54 -10.4758     64.3518    213.3503   7.0728522014e+01   2.2093094100e+01    0.5474927    0.1621537  44.82   0.00216234    2.682    0.627
        55  -8.5181    228.4863    214.4759   3.5813637719e+01  -2.0875076550e-01    0.1122033   0.08341246   0.72 0.0001142324    1.034    0.033
        56 -10.8753     20.3936    211.9469   8.1359741682e+01   2.7149274852e+01    0.3700878    0.2032045  26.12  0.001878927    1.667    0.400
        57 -10.2695    238.0057    210.3797   3.3636685570e+01  -8.1240104611e-01    0.2016056    0.1557928  33.18  0.001002646    1.732    0.423
        58 -10.4796    211.8946    208.0382   3.7601944712e+01   2.5986445142e+00    0.4464154    0.3445164 -12.69  0.003148336    1.167    0.143
        59 -11.4404    106.0898    223.7841   6.1765321160e+01   1.4661252936e+01    0.6479156    0.4299917  27.47  0.003432167    1.248    0.199
        60 -11.0115     12.6014    205.3195   8.2990606844e+01   2.9244324025e+01    0.4226525    0.2071088 -78.58  0.002261143    2.138    0.532
        61 -11.6042     16.0546    196.6843   8.1813834523e+01   3.0807057596e+01    0.5158415    0.2895489 -42.43  0.001473464    2.722    0.633
        62  -8.2277    224.4115    205.4301   3.5041421373e+01   1.3790185646e+00    0.1138867    0.0865125  -0.79 0.0001015304    1.025    0.024
        63 -11.3175    176.3147    185.6164   4.0579559626e+01   1.0874575005e+01     0.754128    0.4390213 -48.30   0.00381243    2.106    0.525
        64 -11.2470    178.4114    196.9269   4.2078284180e+01   8.7569231376e+00    0.6969969    0.4233062  -7.60  0.002188088    2.034    0.508
        65  -9.4679    129.5124    201.0369   5.3420772113e+01   1.5425487669e+01    0.3114087    0.2003624  42.31  0.001392101    1.447    0.309
        66 -10.1574    250.1145    199.7241   3.0063473712e+01  -9.3252953944e-01    0.3064843     0.147946 -31.62  0.001810701    1.823    0.451
        67 -10.5280    249.3696    195.1518   2.9420110467e+01  -3.1547813642e-01    0.4788911     0.198653 -21.64  0.002485005    2.422    0.587
        68  -8.5564     91.2270    201.5818   6.2851156604e+01   2.0953150104e+01    0.1880289    0.1174436  21.79 0.0006274296    1.596    0.373
        69  -9.6965    166.6253    199.2867   4.4886809209e+01   1.0123623481e+01    0.2555589    0.2004866 -10.82 0.0008232974    1.257    0.204
        70  -9.7945     58.7957    200.0159   7.1013047827e+01   2.5560250609e+01    0.3275443    0.1704732  24.40  0.001553407    1.855    0.461
        71  -8.4540    135.7983    208.7816   5.3070556657e+01   1.3102110202e+01    0.1697957    0.1358622  44.55 0.0002611117    1.308    0.236
        72  -9.0278    112.8373    198.1095   5.7020001823e+01   1.8499603638e+01    0.3415362     0.163638  55.33  0.001306657    3.076    0.675
        73  -8.5352    113.0597    194.3075   5.6441449482e+01   1.9216701738e+01    0.1923358    0.1508505  32.29 0.0003264869    1.085    0.078
        74  -9.5447    105.2643    197.5591   5.8825621743e+01   1.9738988126e+01    0.2708908    0.2189319   5.03 0.0009195705    1.378    0.274
        75  -9.5987     51.5191    197.8378   7.2726374428e+01   2.6902707570e+01      0.29486    0.1198195  41.63  0.001231384    1.918    0.479
        76  -8.9220     44.1416    198.6876   7.4709930515e+01   2.7557644343e+01    0.2744715   0.07443516  34.78  0.001066693    2.569    0.611
        77  -9.6996    126.6775    196.6468   5.3455576875e+01   1.6676113197e+01     0.298304    0.2024126   6.41  0.001268242    1.771    0.435
        78  -9.2106    131.4820    194.9727   5.2063958796e+01   1.6248909331e+01    0.1788508    0.1379815 -51.10 0.0005078687    1.529    0.346
        79  -9.1839    124.7186    192.7301   5.3349264665e+01   1.7727628125e+01    0.2413985    0.1625723 -36.48   0.00124778    1.739    0.425
        80  -8.5736     67.1766    195.3487   6.8395513569e+01   2.5523043065e+01    0.3234746   0.09755081  46.87  0.001147679    3.019    0.669
        81 -10.8636     93.8857    181.4807   5.9625173341e+01   2.4825936264e+01    0.4366361     0.350231 -35.56  0.001297562    1.492    0.330
        82 -12.0830     98.1433    189.0776   5.9524344503e+01   2.2547295268e+01    0.6438442    0.4089507  58.88  0.001176866    1.813    0.448
        83 -10.4431    104.0503    189.4806   5.8050150548e+01   2.1571287066e+01    0.3072966    0.2309636  31.66  0.001006399    1.157    0.136
        84 -11.2484    172.6835    195.4312   4.2997154378e+01   9.8405192497e+00    0.5625677    0.3252437 -34.20  0.001889289    1.822    0.451
        85  -8.3081    138.5423    189.4968   4.9549523353e+01   1.6163016551e+01    0.1383584    0.1191757  22.92 0.0003821796    1.004    0.004
        86  -9.2872    204.3237    188.0939   3.5609886524e+01   6.3444673091e+00    0.2312834    0.1675319  34.96  0.001435883    1.462    0.316
        87  -8.4762    128.9587    188.4761   5.1673511055e+01   1.7882534226e+01    0.1988393     0.100921  50.93 0.0008083405    2.424    0.588
        88 -10.8728      1.5622    162.9673   8.4463428059e+01   3.9762074938e+01    0.9505881    0.1798842  38.89  0.003555466    3.196    0.687
        89 -11.3114      5.2863    151.9645   8.2933987152e+01   4.2219957587e+01     2.127854    0.4350051  77.31  0.004647706    9.128    0.890
        90 -12.7222     12.9031    179.9337   8.1943577910e+01   3.4873454742e+01     1.289366    0.7801548  30.91  0.007029317    1.497    0.332
        91 -11.0289      5.7095    177.0290   8.3784206706e+01   3.6121277898e+01    0.3791692    0.3156615  67.63  0.001248455    1.065    0.061
        92 -11.9977      4.1420    171.7532   8.4032453535e+01   3.7478006847e+01    0.6710023     0.535307  70.03   0.00297316    1.074    0.069
        93  -9.6710     48.0000    176.9721   7.1925171110e+01   3.2082199015e+01     0.344661    0.2038421  87.86  0.001447412    1.852    0.460
        94  -9.4002    249.8193    184.8817   2.7621361090e+01   8.5841833506e-01    0.3200265    0.1210748 -37.18  0.001644964    2.489    0.598
        95 -10.3014    226.4789    182.9497   3.0891263590e+01   4.0271549250e+00    0.3112412    0.2273392  38.32 0.0008347199    1.653    0.395
        96  -9.9590    108.5248    185.5012   5.6335402060e+01   2.1710682417e+01    0.4013514     0.267496  67.42  0.001892772    2.048    0.512
        97  -9.2669    111.5175    184.4706   5.5414331595e+01   2.1455623235e+01    0.2552952    0.1821013  29.60  0.001246041    1.252    0.201
        98  -9.1625    215.0876    181.9947   3.2631082143e+01   5.7034849962e+00    0.3318846    0.1424133  46.29  0.001463825    3.286    0.696
        99 -10.7869     46.8575    181.8075   7.2670895912e+01   3.1074345313e+01    0.7026553    0.2042713 -64.03  0.002610187    3.366    0.703
       100 -10.7147    179.9319    178.7940   3.8627986920e+01   1.1425725677e+01    0.4063933    0.2942058 -63.02  0.002098292    2.310    0.567
       101  -9.2206    139.0109    180.1667   4.7903954295e+01   1.7855393772e+01    0.2426469     0.149762  55.11  0.001091853    2.123    0.529
       102 -10.2776    104.1419    179.7099   5.6631780612e+01   2.3626341781e+01    0.3149231    0.2018047 -54.07  0.001542437    1.751    0.429
       103  -9.9963    100.9962    177.7545   5.7181977299e+01   2.4546170815e+01    0.3412587    0.1446687  29.88  0.001311194    2.239    0.553
       104  -9.6598     70.5115    177.8402   6.5614076613e+01   2.9026561564e+01     0.307243    0.2445867 -55.24 0.0008789875    1.431    0.301
       105 -10.1458    183.5241    185.8397   3.9164077274e+01   9.7336572680e+00    0.1904158    0.1706052  29.97 0.0007752458    1.287    0.223
       106  -9.7509    157.9571    176.8127   4.2942668106e+01   1.5335048292e+01     0.349013    0.2606661 -34.25   0.00147716    1.404    0.288
       107  -9.3439     89.3251    177.4343   6.0311718125e+01   2.6414717074e+01    0.2394591    0.1686442  77.28 0.0009115852    1.765    0.433
       108 -10.6643    204.1456    175.4475   3.3376058571e+01   8.2276340026e+00    0.4213648    0.2868876  21.43  0.002479701    1.392    0.282
       109 -10.3723    152.4854    174.5391   4.3768865345e+01   1.6667908518e+01    0.3524389    0.2746232 -30.09  0.001380072    1.348    0.258
       110 -10.2310    148.5275    174.5146   4.4676596149e+01   1.7341002383e+01    0.3324594    0.2969245 -61.98  0.001389073    1.396    0.284
       111  -8.9341    118.1349    176.0862   5.2407678245e+01   2.2136894878e+01    0.2095938    0.1852255  -0.90 0.0006039218    1.212    0.175
       112  -8.7986    240.6665    177.9122   2.7770240701e+01   2.8469905726e+00    0.1660392    0.1197427 -18.20 0.0007322032    1.120    0.108
       113 -11.2884     29.7071    172.1430   7.6798507715e+01   3.5206282559e+01    0.5869699    0.3697724 -76.64  0.001726951    1.608    0.378
       114  -9.2563    112.7005    179.5481   5.4362648986e+01   2.2296255068e+01    0.2702024     0.130508  28.76  0.001105708    2.003    0.501
       115  -9.8800     92.4901    172.6391   5.8757215262e+01   2.7016070113e+01    0.3933642     0.234108  48.25  0.001232075    1.611    0.379
       116  -8.5054     87.9828    173.2105   6.0097824974e+01   2.7576898299e+01    0.2741644    0.1997212  26.46 0.0008818777    1.327    0.246
       117 -10.5620     24.0860    173.0576   7.8472554085e+01   3.5521640370e+01    0.4116259    0.1714945 -84.11   0.00177317    2.442    0.590
       118 -10.1237    207.6205    167.1798   3.1211122064e+01   8.9454194857e+00    0.3372644    0.2412238  12.17  0.001999407    1.370    0.270
       119  -8.3067    193.4944    172.4711   3.4799542818e+01   1.0310696037e+01      0.13228    0.1094564   0.74  0.000328204    1.049    0.047
       120  -8.1838    134.6925    171.3439   4.7422245247e+01   2.0319136784e+01    0.1420779    0.1108736  67.23 0.0007043384    1.694    0.410
       121  -8.7364    121.4084    169.7859   5.0508259105e+01   2.2914314718e+01    0.2672273    0.2057807  86.07  0.001097839    1.816    0.449
       122  -9.6835     19.3783    167.1330   7.9481310875e+01   3.7378706371e+01    0.1879553    0.1073356  77.84 0.0005199558    1.668    0.400
       123  -9.4610    199.9014    167.1664   3.2600100882e+01   1.0139506059e+01    0.2872725    0.1836497  -7.02  0.001078219    1.800    0.444
       124  -8.1745    179.5314    169.5283   3.6992382513e+01   1.3033006680e+01    0.1346034    0.1176791   5.01 6.020429e-05    1.010    0.010
       125  -8.8284    176.7663    167.4467   3.7162419048e+01   1.3846192307e+01    0.2184171    0.1790668 -11.77 0.0006499005    1.165    0.141
       126  -8.3042     55.3361    169.6759   6.9080712635e+01   3.2951996075e+01    0.1566277   0.08997104  56.93 0.0007051093    1.716    0.417
       127  -8.7378    161.2211    167.6407   4.0524725544e+01   1.6452756856e+01    0.2060091    0.1673276  24.50  0.000742593    1.127    0.113
       128  -9.0061    159.3713    164.6901   4.0373992693e+01   1.7317965672e+01    0.1958777    0.1329941 -70.42 0.0008458936    2.646    0.622
       129 -10.8711    218.2220    165.3665   2.9046165559e+01   7.6253578862e+00     0.445019    0.2953831  23.98  0.002264636    1.502    0.334
       130 -11.5345    248.3994    157.2128   2.2890466614e+01   4.5159295033e+00     1.235625      0.34275 -29.72    0.0048321    3.571    0.720
       131 -10.7210    244.5695    143.9582   2.0917654628e+01   6.7968758403e+00    0.4929974    0.2340925 -34.76  0.002651238    1.758    0.431
       132 -10.0321    242.0955    125.8177   1.7670603146e+01   9.6405127491e+00    0.1784573     0.173446  76.58  0.000835349    1.384    0.277
       133 -11.4259    246.9464    136.6363   1.9173800155e+01   7.4422422562e+00     0.551423    0.3813924 -39.79  0.003535876    1.402    0.287
       134 -11.2782    246.6329    128.6350   1.7639499327e+01   8.5688888786e+00    0.4858495    0.1765207 -40.60  0.002218673    2.464    0.594
       135 -10.7024    149.7655    163.8366   4.2411519838e+01   1.9170715193e+01    0.4213889    0.3164268  24.06  0.001541233    1.281    0.219
       136  -8.8174    138.8016    165.0055   4.5260375488e+01   2.0879748750e+01     0.224279    0.1708872  85.64 0.0008433908    2.060    0.514
       137  -8.3386     74.4092    163.2072   6.2627776558e+01   3.1953245976e+01    0.1916612    0.1379489 -88.99 0.0005764228    1.581    0.367
       138 -10.4700     99.8406    158.2807   5.4412233659e+01   2.9135715151e+01    0.5336277    0.3114064 -62.30  0.002321452    1.940    0.485
       139 -10.7056     22.7423    160.2237   7.8050506859e+01   3.8788303456e+01    0.4148732    0.3175576  -7.66  0.001964003    1.692    0.409
       140  -9.5567     28.1849    157.6466   7.6195241970e+01   3.8934119043e+01    0.2685515    0.1682812   5.09  0.000844688    2.046    0.511
       141  -8.7058     92.7631    160.1925   5.6770447812e+01   2.9855217630e+01     0.257361    0.1400319  63.50  0.000942786    2.721    0.633
       142  -9.1428     37.6788    165.1331   7.3907348511e+01   3.6107241488e+01    0.2694621    0.1201639 -88.38  0.001082942    2.541    0.607
       143 -10.3053    143.2189    158.5490   4.2950644477e+01   2.1388913733e+01    0.5968092    0.2310709  46.08  0.002113811    2.755    0.637
       144  -9.2475    105.0366    157.4733   5.2794378392e+01   2.8439998517e+01    0.2611842    0.2104267  87.81 0.0006498765    1.505    0.336
       145  -9.7701    208.5007    156.0618   2.8906513078e+01   1.0499304138e+01    0.3050286    0.2098015 -17.57  0.001445619    1.397    0.284
       146 -10.6148    205.8393    150.3024   2.8220863400e+01   1.1823019209e+01    0.5146763    0.3827014 -41.58   0.00300138    1.417    0.294
       147  -9.3800    206.7138    142.3780   2.6446312930e+01   1.2923781159e+01    0.3186807    0.1865798 -22.42  0.001101996    1.794    0.442
       148 -10.0323    171.1860    201.1814   4.4243441027e+01   9.1490234843e+00    0.3309566    0.2459315  44.35  0.001007944    1.575    0.365
       149  -8.5813    127.4996    156.9145   4.6587908151e+01   2.4585244559e+01    0.2117643    0.1488819 -49.68 0.0005624759    1.538    0.350
       150 -10.2154    134.6919    153.7964   4.4130976638e+01   2.3929273540e+01    0.5608668    0.3488569  54.59  0.001919921    1.919    0.479
       151  -8.7193    119.4110    155.1477   4.8396036275e+01   2.6432120861e+01    0.2049807    0.1467714 -70.55 0.0009433015    1.783    0.439
       152  -9.7564     81.8400    154.3381   5.9081693754e+01   3.2998168661e+01    0.2488267    0.2001512  82.56 0.0007682518    1.366    0.268
       153  -9.7054     68.5010    154.1866   6.3172053800e+01   3.5023687039e+01    0.3452445    0.2175677  58.97  0.001169753    1.672    0.402
       154  -8.8637     49.7075    155.1112   6.9202607106e+01   3.7260561967e+01    0.2626053    0.1128299  58.92 0.0009429074    2.772    0.639
       155 -10.2703    223.3216    148.3696   2.4925055702e+01   9.3284704027e+00    0.4099281    0.3162497  19.84  0.001885463    1.316    0.240
       156  -8.6690    189.9499    150.5504   3.1180912613e+01   1.4469208279e+01    0.1999457    0.1284393  41.02  0.001025051    1.600    0.375
       157  -9.4653    120.7393    149.7516   4.6993287755e+01   2.7386257500e+01    0.3838887    0.2278794  17.56  0.001488543    2.353    0.575
       158 -10.2923    117.4603    143.8475   4.6710159997e+01   2.9323900046e+01     1.014552    0.3536563  52.31  0.002526515    5.273    0.810
       159  -9.3318    108.1679    138.3814   4.8244939022e+01   3.2330720277e+01     0.510594    0.2733445  62.99  0.001677922    3.231    0.691
       160  -8.5976    155.0000    148.8881   3.8201904869e+01   2.1125998511e+01    0.2347949   0.08224792 -44.60 0.0008037955    2.952    0.661
       161  -8.9507     27.8300    148.7153   7.5589497566e+01   4.1244513513e+01    0.2938474    0.1415905  66.94  0.001173597    2.194    0.544
       162  -9.4402     38.8377    146.4771   7.1771890335e+01   4.0719821969e+01    0.4791946    0.1911319  64.32  0.001603261    3.376    0.704
       163  -9.5958     76.8876    147.2591   5.9486855827e+01   3.5519632978e+01    0.3021912    0.1834608  29.20  0.001323397    1.618    0.382
       164  -8.4728    195.3916    146.1803   2.9254606523e+01   1.4251724331e+01    0.1850809    0.1184401 -45.37 0.0004167108    1.679    0.404
       165  -9.5101    149.0761    145.1580   3.8806569582e+01   2.2991871140e+01    0.4252013    0.2895505  78.11  0.001683802    2.840    0.648
       166  -9.4809    106.9688    144.8675   4.9899614080e+01   3.1027213489e+01    0.5070212    0.2904148  70.35  0.001680485    3.432    0.709
       167 -10.1355     55.7856    144.9995   6.5985398423e+01   3.9095581778e+01     0.542747    0.2272031  49.70  0.001732527    2.453    0.592
       168  -9.9657     61.5514    145.0000   6.4086237676e+01   3.8327354425e+01      0.43488    0.1467873  24.58  0.001366881    3.361    0.703
       169 -11.0732     70.3934    142.2462   6.0767254412e+01   3.7772747430e+01    0.5693905    0.3921044 -87.94  0.002618441    1.677    0.404
       170  -9.2757    125.2937    143.0355   4.4396010670e+01   2.8019539499e+01     0.390726    0.2609972 -86.42  0.001514828    2.684    0.627
       171  -9.2354     88.0705    143.8795   5.5399641305e+01   3.4566487127e+01    0.3351665    0.2004252  64.82   0.00117385    2.237    0.553
       172 -10.6936     11.2920    187.5988   8.2682214767e+01   3.3245567073e+01    0.2993703    0.2641119  30.95 0.0003121182    1.243    0.196
       173 -10.7988    197.6839    136.6131   2.6815768248e+01   1.5425954078e+01     0.505364      0.33048  17.15  0.002493595    1.913    0.477
       174  -9.3949    234.2001    136.7099   2.0955380930e+01   9.3302256267e+00     0.294606    0.2029189   0.40  0.001726713    1.636    0.389
       175  -9.0004    161.9096    137.4408   3.4166070716e+01   2.2019331247e+01    0.2469929    0.1759454 -33.33  0.001210784    1.428    0.300
       176  -9.1058     46.8580    137.8518   6.8053014299e+01   4.2073556742e+01    0.3003895    0.2111617 -88.89  0.001001521    1.460    0.315
       177 -10.7744     41.4874    133.2316   6.9339249159e+01   4.3915424263e+01    0.6966982    0.3707117 -71.76  0.003037504    1.839    0.456
       178 -10.4736     45.3896    130.4339   6.7578813148e+01   4.4214906488e+01    0.6929529    0.3590034  77.98  0.002640701    2.535    0.605
       179  -9.7224     15.7140    135.0360   7.8566269473e+01   4.5825526656e+01    0.2169327    0.1930378  25.01 0.0002888754    1.221    0.181
       180  -9.4533    202.6850    136.3098   2.5866963508e+01   1.4587727678e+01    0.2264266    0.1877143 -22.23 0.0004796365    1.086    0.079
       181 -10.3684    110.9567    130.3628   4.5707459790e+01   3.3685677276e+01    0.9765378    0.6172876 -43.94  0.004209904    1.698    0.411
       182 -10.6069    116.8665    124.2878   4.2594534614e+01   3.3924416928e+01    0.7843863    0.5428851  70.95  0.002473984    2.007    0.502
       183 -10.4184    118.9673    118.1624   4.0516490075e+01   3.4896386081e+01     0.565111    0.2723555 -45.35  0.001708315    2.161    0.537
       184  -9.3862    109.0024    120.9813   4.4142487585e+01   3.6284194860e+01    0.2256907    0.2236172 -60.68 0.0004428974    1.051    0.049
       185  -9.6004     83.6252    131.9599   5.4588492083e+01   3.8295063534e+01    0.4235421    0.2495006  62.03  0.001366175    2.187    0.543
       186  -9.6280    209.7358    131.8672   2.3723709970e+01   1.4060661800e+01    0.2213154    0.2077294 -13.60 0.0004560016    1.112    0.100
       187  -9.3596    131.8058    130.9961   4.0019884169e+01   2.9381496465e+01    0.4070335    0.2705961 -72.72  0.001334511    2.290    0.563
       188 -10.0579     24.3022    128.8458   7.5008801317e+01   4.6777205784e+01    0.6219485    0.2462218 -50.96  0.002369259    2.751    0.636
       189  -9.7824     99.3746    128.2343   4.8758947231e+01   3.6410435022e+01    0.5074155    0.3284578  85.23   0.00191075    2.542    0.607
       190  -9.0870     13.3473    129.7738   7.9010789561e+01   4.7380512916e+01    0.3771837    0.1016577  55.00  0.001163543    4.093    0.756
       191  -8.7844    153.0196    129.0344   3.4283809141e+01   2.5451511967e+01    0.2364399    0.1879348 -85.47 0.0007178362    1.768    0.434
       192  -8.6836     73.3816    129.2408   5.7511128480e+01   4.0667059985e+01    0.2165597    0.1463852 -79.91 0.0008479325    1.704    0.413
       193 -10.5806    230.4663    126.5174   1.9412259266e+01   1.1378150148e+01    0.3036743    0.2382762  61.12  0.001316756    1.726    0.421
       194 -10.5386    226.4246    123.9346   1.9454145401e+01   1.2419440613e+01    0.3415286    0.2604597 -57.32  0.001479828    1.660    0.397
       195  -9.2132     23.7295    138.4775   7.6086970646e+01   4.4277112206e+01    0.4198048    0.1519063  58.22  0.001480872    3.061    0.673
       196  -9.6063     59.7671    124.0994   6.1388874871e+01   4.4050643047e+01    0.5581927    0.2731068  71.97  0.001709641    3.823    0.738
       197  -8.5508    197.7042    125.2827   2.4331354787e+01   1.7295863915e+01    0.1268384    0.1063746 -67.72 0.0006958805    1.540    0.351
       198  -9.4634    134.1002    124.2651   3.7841932739e+01   3.0370366575e+01    0.4356714    0.2320978  23.08  0.001419347    3.223    0.690
       199  -9.6769     44.1601    122.8490   6.6950086343e+01   4.6390917132e+01    0.6018654    0.2758826  68.22  0.001997976    3.307    0.698
       200  -9.8923     28.1141    122.5649   7.2945797969e+01   4.8125281998e+01    0.4705323    0.2750364  57.31  0.002160766    1.729    0.422
       201  -9.3311     29.4483    116.2402   7.1682827265e+01   4.9710785376e+01    0.5996198     0.215007 -42.32  0.001900487    3.890    0.743
       202  -8.6359     83.8862    122.1451   5.2497882408e+01   4.0741247780e+01    0.2148296     0.188227 -15.04 0.0006050108    1.339    0.253
       203  -8.1866      1.4570    122.4513   8.2809111038e+01   5.0022911673e+01    0.1338342    0.1156377  76.38 6.131111e-05    1.015    0.015
       204 -10.1023     13.4025    119.7163   7.8216146177e+01   5.0046317769e+01    0.3952597    0.1572025 -46.17  0.001503796    2.920    0.658
       205  -9.3364    142.1794    119.4442   3.4606740537e+01   2.9685693257e+01    0.3763747    0.2657531 -74.21  0.001587851    2.084    0.520
       206  -8.6952     71.3960    120.2031   5.6456456086e+01   4.3332913641e+01    0.2171262    0.1480781 -79.37 0.0009416891    1.684    0.406
       207  -9.6260    181.9497    118.9923   2.5775335078e+01   2.1434818830e+01    0.2293536    0.1710015   4.76  0.001127859    1.684    0.406
       208  -9.1360    131.0069    118.6848   3.7304446571e+01   3.2235279588e+01    0.3149035    0.2010125 -74.56  0.001155431    2.672    0.626
       209 -11.3027    248.6012    116.5816   1.4974342326e+01   9.9025463398e+00    0.3493102    0.3099699 -30.00  0.002409094    1.144    0.126
       210  -9.2979      2.2630    116.1050   8.2163963752e+01   5.1650848433e+01    0.4242672    0.1355222  70.46  0.001433862    3.542    0.718
       211 -10.0748    185.1396    113.9844   2.3990330782e+01   2.1666907987e+01    0.3431564    0.2875929  59.96  0.001516753    1.348    0.258
       212  -9.6820     92.8875    112.6317   4.7281868771e+01   4.1477652868e+01    0.4119973    0.2964572  83.02  0.001338296    1.882    0.469
       213  -9.5221     78.9058    112.0057   5.1996255898e+01   4.4202122879e+01     0.501756    0.3054944 -89.62  0.001807309    2.660    0.624
       214 -10.7915     15.7767    112.2405   7.6633912319e+01   5.1889750941e+01    0.4890859    0.2791266  47.21  0.001689548    1.720    0.419
       215  -9.8401     22.3294    110.0261   7.3768088250e+01   5.2003380657e+01    0.4792408    0.2580898  82.35  0.001344127    2.003    0.501
       216 -10.5510     28.7879     99.3552   6.9618829933e+01   5.4350111600e+01    0.7608151    0.4365617  73.31  0.003260993    2.060    0.514
       217 -10.7348     23.6298     92.2527   7.0837875345e+01   5.6711210880e+01    0.4980693    0.4176199  83.27  0.002217482    1.180    0.152
       218 -11.3713     17.2241    104.2391   7.5216373495e+01   5.3947992227e+01    0.6203428    0.3785231 -55.38  0.001765449    1.585    0.369
       219 -11.5278    107.2655    113.8402   4.2939067831e+01   3.8326369374e+01      1.26253     0.798341 -35.23  0.005160573    1.900    0.474
       220  -9.8767    133.5104    107.7702   3.3850228564e+01   3.4045081871e+01    0.5822603    0.2366119 -43.11  0.001995592    2.524    0.604
       221 -11.3160    133.1836    102.1579   3.2429423782e+01   3.5308671042e+01    0.8902862    0.3971062  36.62  0.002958799    2.755    0.637
       222  -9.2846    184.3445    109.1220   2.2969547286e+01   2.2674479094e+01    0.3783473    0.1955509  47.63  0.001473379    2.028    0.507
       223 -10.6396     22.2676    100.4459   7.2606700360e+01   5.4603128908e+01    0.9881537    0.3458233  58.23  0.003003906    4.228    0.763
       224  -9.1061     66.4642    110.2209   5.6200734004e+01   4.6728557651e+01    0.3071117    0.1801475  62.00  0.001119647    2.199    0.545
       225  -9.5162     61.3964    106.0433   5.7261177618e+01   4.8607075217e+01    0.2604609    0.2137467  15.79 0.0007067939    1.342    0.255
       226 -10.0207     45.9355    102.3398   6.2792478083e+01   5.1711182488e+01     0.758652     0.328925  61.16  0.002261309    4.060    0.754
       227  -8.7701    150.3196    103.8024   2.8644516124e+01   3.1078064937e+01    0.3075882    0.1303565 -48.68   0.00105844    2.579    0.612
       228 -12.1021    249.6138    103.8140   1.2249786420e+01   1.1462172623e+01    0.8826874    0.2423414 -31.40  0.003408018    3.219    0.689
       229  -8.6463     93.6401    103.6883   4.4770020507e+01   4.3527039681e+01    0.1646029    0.1280421  -5.66 0.0003903941    1.745    0.427
       230  -9.2696     35.4082    101.4108   6.7087812221e+01   5.3152747111e+01    0.2880321    0.2059566  77.23 0.0007460223    1.508    0.337
       231 -10.4634    108.9185     98.4043   3.8334157866e+01   4.1576091569e+01      0.61591    0.4248921  87.86  0.002012339    2.294    0.564
       232 -10.0192    104.6256    123.6705   4.6108026762e+01   3.6509756898e+01    0.4687528    0.2681171  29.50  0.001425078    1.940    0.485
       233  -8.5571     95.3509     97.0881   4.2397795985e+01   4.4772757446e+01    0.2293539    0.1498773 -64.18  0.000873569    1.793    0.442
       234  -9.4440     64.0030     95.9190   5.3875789712e+01   5.0858025108e+01    0.5261312    0.2826147  67.77  0.001679221    3.465    0.711
       235  -9.9549    117.5403     93.0000   3.4177566612e+01   4.0852696134e+01    0.5326009   0.08949891  46.14  0.001142656    5.799    0.828
       236  -9.2062     45.6466     91.7712   6.0749534101e+01   5.4576289629e+01    0.5207533    0.2172733  14.22  0.001636581    3.664    0.727
       237  -9.3685     34.5716     89.3163   6.5278316784e+01   5.6500217136e+01     0.426723    0.2303357  76.90  0.001623103    2.638    0.621
       238 -10.8103    249.1966     88.0663   9.0224580346e+00   1.3625961622e+01    0.2636254    0.1847548  53.32  0.001683693    1.754    0.430
       239  -9.2212     86.2993     86.2347   4.2469606500e+01   4.9215922762e+01    0.3830078       0.2543  86.34  0.001094381    2.561    0.609
       240  -9.0245    125.0015     90.8937   3.1439865295e+01   3.9574695890e+01    0.3354018    0.2339766 -89.29  0.001322375    2.194    0.544
       241  -9.2647     48.3581     84.1065   5.7728228632e+01   5.6243530099e+01    0.3728014    0.2069317  63.74  0.001372629    2.706    0.630
       242  -9.8931      9.1122     83.2414   7.6461722114e+01   6.0073943410e+01    0.4556482    0.3635977  19.84  0.002608219    1.363    0.266
       243  -8.8814    185.3148     83.0748   1.6239523118e+01   2.6861421803e+01    0.2428933    0.1893691  45.53 0.0008435994    1.402    0.287
       244  -8.9122    116.8788     82.9430   3.1336615503e+01   4.3161600303e+01      0.23394    0.2138302   5.23 0.0002962297    1.247    0.198
       245  -8.9345    104.7147     83.1241   3.5126131677e+01   4.5949754447e+01    0.2600327    0.2023129 -71.46 0.0008835642    1.529    0.346
       246  -9.1524     36.9753     80.9932   6.2386753820e+01   5.8456744919e+01    0.4769301    0.2401178 -12.00  0.001572223    3.715    0.731
       247  -9.0328     86.7418     80.6315   4.0570925290e+01   5.0440835179e+01    0.3643605    0.2008737  27.88  0.001313583    2.365    0.577
       248  -9.2011     24.4811     80.6153   6.8479921234e+01   5.9762902419e+01    0.3234333    0.1914437  65.96  0.001205413    2.059    0.514
       249  -9.8399    175.6036     78.2695   1.6594837453e+01   2.9870264158e+01    0.4029011    0.2751376 -83.55 0.0009934925    1.977    0.494
       250 -10.9373    249.4613     75.3834   6.3208380574e+00   1.5236344373e+01    0.4767759    0.1280928 -41.57   0.00195454    2.837    0.648
       251  -8.4686    211.4413     77.1956   1.0959965749e+01   2.2151317554e+01    0.1986591    0.1047907 -44.68 0.0009375698    1.702    0.412
       252  -8.1062    184.3013     77.6735   1.4984583234e+01   2.7962151604e+01    0.1492501    0.1039162 -64.29  0.000431358    1.639    0.390
       253  -8.9813     49.5447     76.7874   5.5244940912e+01   5.7967964142e+01     0.299013    0.2016858   3.00 0.0008516667    1.918    0.479
       254  -8.6984    128.7658     76.1825   2.5935762297e+01   4.1649489402e+01    0.2737676    0.1724961 -80.16 0.0009547621    2.810    0.644
       255  -8.7668    195.8042     73.7682   1.2225598770e+01   2.5991991579e+01     0.228907    0.1479631  14.71 0.0009528996    2.802    0.643
       256  -9.5736     10.0346     74.0898   7.4808406587e+01   6.2453138298e+01    0.2011088     0.180991 -65.15 0.0003643824    1.011    0.011
       257  -9.1934     82.3104     72.3876   3.9545897174e+01   5.3252538840e+01    0.3361592    0.2299349 -87.67   0.00110764    2.418    0.587
       258  -8.9861    177.1409     71.1498   1.4383521401e+01   3.0666129629e+01    0.2867912    0.2155058  25.07  0.001394038    1.776    0.437
       259  -9.7684     29.2201     69.8173   6.3755279958e+01   6.2179240048e+01    0.8001298    0.3266592 -22.85  0.002097166    6.008    0.834
       260  -8.3865     95.2523     71.2476   3.4384379140e+01   5.0682340869e+01    0.2522211    0.1291001 -56.36  0.000885423    2.442    0.590
       261  -9.8057      1.4680     69.0142   7.8716357211e+01   6.4131270007e+01    0.2357003    0.1390104 -55.79 0.0008290802    1.498    0.332
       262  -8.9965     51.4732     69.1967   5.2073308055e+01   5.9590948944e+01    0.4125516    0.2192562 -79.05  0.001362391    3.492    0.714
       263  -8.2976     16.3533     69.6957   7.0714443181e+01   6.3244726425e+01     0.145429   0.09633535  55.66 0.0007040677    1.709    0.415
       264  -8.7355     83.3817     64.4288   3.6314960005e+01   5.4779613335e+01    0.3747127    0.2268859   0.41  0.001021811    5.067    0.803
       265 -10.6364    242.7572     68.0013   5.3752116190e+00   1.7369059145e+01    0.2731634    0.1257453 -52.76  0.001315133    2.238    0.553
       266  -9.3760     18.1953     61.5998   6.8048439329e+01   6.5217875869e+01    0.2736166    0.1915322 -49.85  0.000642088    1.305    0.234
       267  -9.1469     73.7015     59.8569   3.8532391801e+01   5.7801729054e+01    0.2802622    0.2140132 -65.68  0.001013353    1.560    0.359
       268 -10.0276    195.6523    248.5055   4.6433084835e+01  -4.6375098193e-01    0.2787194    0.1544723  23.21  0.001687894    1.372    0.271
       269  -8.5724     39.4465     57.5044   5.4615697865e+01   6.4126334975e+01    0.1439016     0.134501 -28.32 0.0008081016    1.024    0.024
       270  -8.9815      7.2176     57.2168   7.3742868260e+01   6.6964854874e+01    0.1875744    0.1494803  59.57  0.001073258    1.403    0.287
       271  -8.7045     62.9928     54.9467   4.1426754066e+01   6.0967231395e+01    0.2341095    0.1874686  84.51 0.0007600682    1.684    0.406
       272  -8.5910     54.4576     53.9536   4.5240468007e+01   6.2711660137e+01    0.2058502    0.1345543 -79.67 0.0008091192    2.590    0.614
       273 -10.1121    240.6213     53.1801   2.3173322747e+00   1.9639677062e+01    0.1718479    0.1034453 -23.95 0.0005586001    1.708    0.414
       274  -8.9023     92.5444     50.5402   2.7568693948e+01   5.5457667588e+01    0.2835186    0.1383616 -50.27 0.0009828669    2.427    0.588
       275  -8.2739     31.2777     51.6266   5.7439777354e+01   6.6524641684e+01    0.1409532    0.1077663  70.61 0.0007007901    1.695    0.410
       276 -11.1938     45.5759     48.9975   4.8056078331e+01   6.5253411070e+01    0.2715499    0.2395459   2.18 0.0004846742    1.136    0.120
       277  -8.3309    111.3232     58.3103   2.4631719373e+01   4.9394842767e+01    0.1595864    0.1230148  21.28 0.0002693674    1.652    0.395
       278  -8.6794    150.0000     44.9796   1.1148006418e+01   4.1483463948e+01    0.2455074   0.08427575 -31.33 0.0008093887    2.991    0.666
       279  -8.2864    130.6398     45.7003   1.5177347617e+01   4.6496277404e+01     0.159535    0.1140542  33.45 0.0007035672    1.715    0.417
       280  -8.8491      1.6052     46.0127   7.5372353498e+01   6.9988632357e+01    0.1821674     0.146423 -63.92 0.0005451488    1.106    0.096
       281  -8.5850     82.0240     46.9864   2.9928535767e+01   5.8589445637e+01     0.228349    0.1858322 -85.84 0.0004428013    1.568    0.362
       282 -10.2390      4.9312     40.9126   7.2010990448e+01   7.1130314647e+01     0.537213    0.2302234  80.50  0.001930448    3.905    0.744
       283  -8.9796     23.0714     46.4973   6.0966913668e+01   6.8588167327e+01    0.2044054    0.1333117  16.12  0.001030652    1.585    0.369
       284  -9.0432    114.0293     41.1838   1.7397484399e+01   5.1590002890e+01    0.2300194    0.1946136  40.48 0.0003506464    1.239    0.193
       285  -8.3883     69.2048     41.4054   3.2765457245e+01   6.2471612939e+01    0.2069075    0.1377176  55.87 0.0005079504    1.626    0.385
       286  -8.9936    123.5454     40.0246   1.4670383998e+01   4.9238646924e+01    0.2310412    0.1926983  65.20 0.0003406533    1.121    0.108
       287  -8.7241     84.0142     39.7872   2.6026459604e+01   5.9410152952e+01    0.2597217    0.1619619  29.32  0.001070042    2.016    0.504
       288  -8.4155     36.7916     40.6044   4.9831923625e+01   6.8389199071e+01    0.1986441    0.1232119  40.02 0.0009049471    1.701    0.412
       289 -10.0939    213.6423     38.3549   1.2167547198e+00   2.6925180927e+01    0.3167703    0.1116298  67.77  0.001323142    2.930    0.659
       290  -8.6414    106.7462     36.4586   1.7402109018e+01   5.4220379598e+01    0.2243255    0.1303684  49.12 0.0009466131    1.644    0.392
       291  -8.8758     26.0488     36.0685   5.5111732685e+01   7.0717429823e+01    0.2072066    0.1650793  65.84   0.00112266    1.678    0.404
       292 -10.6746      2.4019     55.9505   7.6480264715e+01   6.7466502283e+01    0.4810784    0.2087322 -71.23  0.001914253    1.979    0.495
       293 -10.5542      6.0419     33.6861   6.9349633841e+01   7.2821035172e+01    0.3720598    0.2243394  -2.95  0.001821478    1.725    0.420
       294  -8.6935    119.5011     33.4894   1.3073133612e+01   5.1255032347e+01    0.1524684    0.1393908  82.63 2.458925e-05    1.033    0.032
       295  -8.1176     60.5068     32.4947   3.2519874811e+01   6.5915481840e+01    0.1438545    0.1356934  28.65 0.0002356556    1.040    0.038
       296  -9.3500     12.5322     30.9564   6.3318669823e+01   7.3086168976e+01    0.1971541    0.1219667 -64.16 0.0009563823    1.581    0.367
       297  -9.8406    248.9717     28.5026   3.5636682791e+02   2.0974636846e+01    0.1573618    0.1082098  85.39  0.001034157    1.593    0.372
       298  -9.7073      2.1105     27.8370   7.0918024341e+01   7.4356080061e+01    0.2627777    0.1606319 -13.20 0.0007248066    1.633    0.387
       299  -9.8285     44.3312     25.2204   3.7478198440e+01   7.0308041226e+01    0.2419782    0.2063468  21.87 0.0003958204    1.095    0.087
       300  -8.1992    118.6631     24.6689   9.7546797488e+00   5.2631200450e+01    0.1575666    0.1059291  36.76 0.0007052077    1.735    0.424
       301  -9.0614    110.4997     24.0946   1.1286748447e+01   5.4909369152e+01    0.2296826    0.1842109  63.74  0.000503357    1.133    0.117
       302  -8.5313    137.5433     22.5232   5.5259800149e+00   4.7753180276e+01    0.1473534    0.1315813 -88.66 0.0001457269    1.013    0.013
       303  -8.2418     58.6423     22.1690   2.7866472387e+01   6.8022401090e+01    0.1860351    0.1312533 -19.05 0.0001164984    1.602    0.376
       304 -10.3261     13.0961     20.9997   5.8755512755e+01   7.5260243667e+01    0.2846076    0.2179385  -4.48 0.0006610281    1.248    0.199
       305  -8.6727     84.8477     21.1372   1.6863708407e+01   6.2012095753e+01    0.2152904    0.1913387 -82.37 0.0004884566    1.249    0.200
       306  -8.2758     48.2986     21.6629   3.3069129391e+01   7.0196036585e+01    0.1313842    0.1129984 -87.14  0.000366137    1.657    0.397
       307  -8.7035     40.9951     21.0459   3.7151097563e+01   7.1632310213e+01    0.2047626    0.1512227   2.30 0.0003064258    1.518    0.341
       308  -9.6743    189.0503     20.1822   3.5869317163e+02   3.4692103101e+01    0.1964434    0.1777561  59.93  0.001221286    1.299    0.230
       309  -8.3806     63.3204     20.6418   2.4800936592e+01   6.7231356471e+01    0.1418076    0.1128755 -76.65   0.00070445    1.764    0.433
       310  -9.7642      1.6763     19.5543   6.8720106069e+01   7.6269321982e+01    0.2173978    0.1065146 -68.14 0.0009371349    1.941    0.485
       311  -8.9017    106.3468     19.3080   1.0172538156e+01   5.6601584622e+01    0.1572268    0.1020343  38.58 0.0002966168    1.702    0.413
       312  -8.4904     73.6989     19.3743   1.9819365221e+01   6.4996877218e+01    0.1458309    0.1106094 -69.44 0.0007028885    1.755    0.430
       313  -9.6530     29.4100     19.0003   4.4063523431e+01   7.3832961200e+01    0.2854504    0.1273131  41.89  0.001208626    2.466    0.595
       314  -8.6547     50.7508     15.2076   2.7749245257e+01   7.0720243190e+01    0.1974501    0.1478626  19.60 0.0006675163    1.388    0.280
       315 -11.3005    161.4825    231.2662   5.0650705382e+01   5.9586125297e+00    0.6072065    0.2382673  26.45   0.00267225    2.246    0.555
       316  -8.9857    148.0064    249.0082   5.5588345748e+01   5.1843510477e+00    0.1764964    0.1215311  45.04  0.001136023    1.659    0.397
       317 -11.3434    107.2683    242.1605   6.3402147567e+01   1.1389559236e+01    0.8448693    0.3054104 -60.07  0.003896361    3.727    0.732
       318 -11.9177     89.6522    230.5825   6.6232813135e+01   1.5618033732e+01     1.372325    0.5665137 -73.66  0.005872485    3.947    0.747
       319  -8.8705    117.6893     11.3413   4.5092775561e+00   5.4372717340e+01    0.1540724   0.09975863 -64.26 0.0007045351    1.695    0.410
       320  -8.6605     32.0198     11.4927   3.7234952303e+01   7.4760033345e+01    0.1946031    0.1210326  35.92 0.0004098187    1.522    0.343
       321 -11.1451     80.2602    211.1733   6.6612665021e+01   2.0509108169e+01    0.8912522    0.2400636  36.63  0.002450807    2.639    0.621
       322  -9.2706     27.5002     13.4807   4.2090953277e+01   7.5114541596e+01    0.1342241    0.1137758  -2.07 -4.044894e-05    1.060    0.057
       323 -10.8927    101.2965    233.5657   6.3876390534e+01   1.3590376187e+01    0.4910576    0.2696845  58.14  0.002425019    2.342    0.573
       324 -11.5533     98.8658    225.3998   6.3604619681e+01   1.5342659708e+01    0.4489972    0.3993293  16.09  0.001729361    1.192    0.161
