#   1 NUMBER                 Running object number                                     
#   2 MAG_AUTO               Kron-like elliptical aperture magnitude                    [mag]
#   3 X_IMAGE                Object position along x                                    [pixel]
#   4 Y_IMAGE                Object position along y                                    [pixel]
#   5 X_WORLD                Barycenter position along world x axis                     [deg]
#   6 Y_WORLD                Barycenter position along world y axis                     [deg]
#   7 A_WORLD                Profile RMS along major axis (world units)                 [deg]
#   8 B_WORLD                Profile RMS along minor axis (world units)                 [deg]
#   9 THETA_WORLD            Position angle (CCW/world-x)                               [deg]
#  10 FWHM_WORLD             FWHM assuming a gaussian core                              [deg]
#  11 ELONGATION             A_IMAGE/B_IMAGE                                           
#  12 ELLIPTICITY            1 - B_IMAGE/A_IMAGE                                       
         1 -13.9228    183.3110     32.0373   6.8598900820e+01   3.5625301434e+01    0.9440103     0.818328  79.25  0.003092612    1.016    0.016
         2 -14.3789    189.2316     22.4667   6.5356229779e+01   3.5328453795e+01    0.8041819     0.715612  -0.48  0.001291464    1.489    0.328
         3 -12.2817     57.3624      5.2542   8.7910615968e+01   6.5407879419e+01    0.3118992    0.1871697 -22.22  0.001962339    1.660    0.398
         4 -10.4000     93.0099    206.8219   1.2973266781e+02   1.9536936670e+01    0.2434821    0.1871002 -64.33 0.0007296427    1.330    0.248
         5 -14.5227     60.8005    208.7349   1.3677378302e+02   2.3932440643e+01      3.53967    0.7188616  50.20   0.01057152    5.321    0.812
         6 -16.1690     72.4077    150.7163   1.2595382184e+02   3.5885725257e+01     4.903025     2.703274  67.15   0.01977476    2.677    0.626
         7 -10.4757     53.8862    200.0629   1.3725935086e+02   2.6788074508e+01    0.2019547    0.1952634  67.12  0.001376716    1.345    0.257
         8 -10.2860    157.5644    192.7178   1.1316635949e+02   1.0838373246e+01    0.1901455    0.1425998 -63.65 0.0006039349    1.510    0.338
         9 -11.0056     81.5457    186.8811   1.2949328225e+02   2.5876897876e+01    0.2765079    0.2570949 -85.95 0.0009068861    1.137    0.120
        10 -19.2881     24.6052    137.6203   1.3635785783e+02   4.4586270792e+01     19.83602     2.288992 -68.06   0.04274159    9.371    0.893
        11 -11.5438    207.9806    185.5090   1.0112603144e+02   2.3445181939e+00     0.362948    0.2869736   7.49  0.001220731    1.415    0.293
        12 -11.5716    212.3361    181.5206   9.9451652611e+01   2.2500768066e+00     0.315378    0.2455899 -12.96  0.001045258    1.412    0.292
        13 -16.2609    116.3445    245.4401   1.2990568788e+02   7.8489775970e+00     5.992731     2.550702  36.94   0.02643424    2.369    0.578
        14 -11.1082     72.8732    203.0689   1.3357920303e+02   2.3479818221e+01    0.3313413    0.2428677  86.21  0.001900111    1.259    0.205
        15 -10.0224    147.2745    185.6723   1.1414012641e+02   1.4370661176e+01    0.1487789    0.1148636  83.94  0.000271633    1.588    0.370
        16 -10.1941     90.6506    183.9934   1.2695673129e+02   2.5108543697e+01    0.3078766    0.1504733  62.67  0.001154726    2.806    0.644
        17 -12.1927     84.2295    179.7116   1.2780027568e+02   2.7139974192e+01    0.4294471    0.2686129 -42.97  0.001361792    1.998    0.500
        18 -12.2840     87.3008    174.6051   1.2626398230e+02   2.7862348875e+01    0.3507357    0.3235763 -53.71 0.0009987421    1.223    0.182
        19 -11.0619     99.3554    180.8479   1.2441292366e+02   2.4395429677e+01    0.2605937    0.2104189  35.86 0.0008279064    1.373    0.271
        20 -10.9039     94.4841    178.9879   1.2526079119e+02   2.5652270521e+01    0.2668037    0.1784303  59.61 0.0006428029    1.532    0.347
        21 -10.5750    197.9183    176.5212   1.0130651649e+02   6.0332809075e+00    0.3412021    0.2174662 -53.17  0.001309282    1.769    0.435
        22 -10.1238     57.7369    177.3818   1.3366094955e+02   3.1513837008e+01    0.2263854    0.1173505  42.04 0.0006200077    1.963    0.491
        23 -10.5976    133.3404    172.2969   1.1479523467e+02   2.0112608169e+01    0.1490593     0.122736  -2.90 -0.0001541599    1.661    0.398
        24 -10.9222    137.4919    170.5071   1.1345955535e+02   1.9696611702e+01    0.1522421    0.1445942  76.69 1.587867e-05    1.009    0.009
        25 -12.3123     67.4286    158.4122   1.2852940379e+02   3.4733712460e+01     0.753054    0.4112681  75.07  0.002867687    2.854    0.650
        26 -10.6235     73.2326    231.9960   1.3676071036e+02   1.7231180497e+01    0.4348401    0.1771067  53.23  0.001366147    2.211    0.548
        27 -12.6498     98.9811    157.4870   1.2036207131e+02   3.0015226315e+01    0.6476962    0.4089474 -38.61  0.002385641    1.941    0.485
        28 -11.9161    133.7301    144.5456   1.0885763834e+02   2.6448518038e+01     1.096093    0.2656066 -54.02  0.002522534    5.659    0.823
        29 -11.2202    174.5236    148.9706   1.0026700141e+02   1.6653732754e+01    0.2483608    0.2119516  49.76 0.0006124194    1.178    0.151
        30 -11.9406    145.2010    145.7813   1.0632431356e+02   2.3750703781e+01    0.3578132    0.3078318  78.01 0.0008778397    1.263    0.208
        31 -12.3790    109.3749    141.4147   1.1439257613e+02   3.1993441126e+01    0.5705126    0.3471422 -36.11  0.002369635    2.012    0.503
        32 -12.3893     98.0681    142.0644   1.1751586512e+02   3.3880190792e+01    0.2922877    0.2775327 -29.60 0.0004237635    1.172    0.147
        33  -9.8854     10.0253    213.8298   1.4705302286e+02   2.8805708396e+01    0.1236714    0.1049028  81.58 0.0005171999    1.257    0.204
        34 -11.1848    110.0943    211.5486   1.2671165517e+02   1.5657666788e+01    0.2669488    0.1830756 -89.77  0.001345391    1.686    0.407
        35  -9.8106     58.1803    196.5535   1.3594876618e+02   2.7013028730e+01    0.1413624    0.1267152  32.37 0.0002944274    1.452    0.311
        36 -11.9103    116.3031    131.2283   1.1026086581e+02   3.3066450267e+01    0.4029983    0.2835832 -25.62  0.001306303    1.881    0.468
        37 -11.9067    104.9086    129.1449   1.1282860108e+02   3.5720541478e+01    0.5429741    0.3764267 -77.55  0.001218881    1.857    0.461
        38 -11.1144    160.6191    127.7337   9.8370593064e+01   2.4366388842e+01    0.2951317     0.206513 -54.57  0.001297324    1.482    0.325
        39 -11.0372    125.7379    127.3690   1.0686470006e+02   3.2060890072e+01    0.2937494    0.1901461 -60.86 0.0007972865    1.706    0.414
        40  -9.6971    140.2542    125.6454   1.0274648009e+02   2.9370593851e+01    0.1588926    0.1222574 -78.82 0.0003107712    1.605    0.377
        41 -11.8088    135.3143    122.5563   1.0321669646e+02   3.1130620414e+01    0.6073609    0.1390853 -49.67  0.001476671    4.868    0.795
        42 -10.6539    111.1911    120.0355   1.0893793132e+02   3.6644367477e+01    0.2409872    0.2174609  46.78 0.0002938116    1.145    0.126
        43 -13.4013     74.8601    195.5813   1.3219555188e+02   2.4880885850e+01    0.7773154    0.6922598  64.48  0.003443015    1.145    0.126
        44  -9.8981    165.4633    208.4490   1.1431359999e+02   6.1409362425e+00    0.1412438    0.1297631  43.62 6.415935e-06    1.010    0.010
        45 -10.9028    168.5526    113.3824   9.2962300158e+01   2.5574051621e+01    0.3695866    0.2653931 -69.72  0.001019984    1.726    0.421
        46 -12.3971    107.6898    205.0232   1.2628455794e+02   1.7481147303e+01     0.488697    0.3581895  -1.54  0.002235622    2.612    0.617
        47 -10.3238    205.5455    110.1843   8.4687583303e+01   1.7544279678e+01    0.2688152     0.212468  56.77  0.000615435    1.307    0.235
        48 -10.0876    176.6011     74.8100   8.1102830769e+01   3.0965288617e+01    0.2083365    0.1331294 -50.99 0.0003655443    1.630    0.387
        49 -13.8395    172.1607     42.5937   7.3152027037e+01   3.6994875200e+01    0.8490382     0.621775  43.40  0.000900863    1.467    0.319
        50 -13.0340    195.9911    196.2395   1.0567556091e+02   2.6395431498e+00    0.9314954    0.6940707  79.39  0.004420094    2.130    0.530
        51 -12.1766      2.9292    237.1815   1.4969715228e+02   2.4808735299e+01    0.2044322    0.1962923   4.26  0.001692497    1.900    0.474
