#   1 NUMBER                 Running object number                                     
#   2 MAG_AUTO               Kron-like elliptical aperture magnitude                    [mag]
#   3 X_IMAGE                Object position along x                                    [pixel]
#   4 Y_IMAGE                Object position along y                                    [pixel]
#   5 X_WORLD                Barycenter position along world x axis                     [deg]
#   6 Y_WORLD                Barycenter position along world y axis                     [deg]
#   7 A_WORLD                Profile RMS along major axis (world units)                 [deg]
#   8 B_WORLD                Profile RMS along minor axis (world units)                 [deg]
#   9 THETA_WORLD            Position angle (CCW/world-x)                               [deg]
#  10 FWHM_WORLD             FWHM assuming a gaussian core                              [deg]
#  11 ELONGATION             A_IMAGE/B_IMAGE                                           
#  12 ELLIPTICITY            1 - B_IMAGE/A_IMAGE                                       
         1 -11.6353      6.5572     62.7278   1.3052928130e+02   6.2145487166e+01    0.6383051     0.152312 -51.22  0.002881813    2.576    0.612
         2 -11.6665     85.3362     73.6550   1.0507212252e+02   5.1371097308e+01     1.120945    0.6633524 -48.73  0.005290674    1.784    0.439
         3 -12.3641     60.6530     44.9916   1.0417359728e+02   6.0211698924e+01    0.9694151    0.4322122 -38.76  0.004618371    2.127    0.530
         4 -12.7596    117.1003     42.2655   8.5252520558e+01   5.0259181540e+01     0.916813    0.5974305  67.81  0.002805675    1.951    0.487
         5 -11.1452    105.8432     20.0474   8.0482014802e+01   5.5355657050e+01    0.3791458    0.2411756 -23.77 0.0007360709    1.736    0.424
         6 -11.6984     22.8910     11.1712   1.0665548608e+02   6.9565805047e+01    0.5582807     0.308567 -13.29  0.003167511    1.682    0.406
         7 -12.6853     18.2700     22.4295   1.1340517725e+02   6.8416791749e+01    0.8275146     0.560305  40.83  0.005308494    2.377    0.579
         8 -11.7326     16.5238     13.8322   1.1079964718e+02   6.9796609862e+01    0.3234114    0.2012761 -23.11 0.0005771359    1.247    0.198
         9 -11.2296     12.7894      9.5499   1.1081366394e+02   7.0693453798e+01    0.4095252     0.194664  20.56  0.002425781    2.040    0.510
        10 -11.3854    178.2213     21.3160   6.6783088469e+01   3.8095074821e+01    0.5069942    0.3242963  30.22  0.002458392    2.205    0.547
        11 -12.9013    120.3841     39.0865   8.3346087034e+01   4.9954142755e+01    0.7471541    0.6223616 -67.72  0.002345263    1.575    0.365
        12 -12.0320    246.2039     20.5468   5.8904807484e+01   2.2049354628e+01    0.3605457    0.2244453 -56.24  0.001138863    1.407    0.289
        13 -12.1110    244.2095     14.7183   5.7920508674e+01   2.3191661701e+01    0.2912827    0.2773706  51.95  0.001761179    1.501    0.334
        14 -12.7174    238.3007     15.1948   5.8530469904e+01   2.4444320547e+01    0.4593145    0.4078321 -19.04  0.002432149    1.628    0.386
        15 -11.8486    234.0247     16.4818   5.9182083281e+01   2.5254304418e+01    0.3451163    0.2381573  52.24  0.001595138    1.772    0.436
        16 -12.5972    244.8811      6.1291   5.6185052706e+01   2.4037217926e+01     1.070643     0.461204 -89.61  0.005002926    2.423    0.587
        17 -11.3443     90.6783     19.9490   8.4618545115e+01   5.8454698535e+01    0.4923049    0.3453609 -19.77  0.002767416    1.506    0.336
        18 -11.5941     86.0751     14.1382   8.3744533838e+01   5.9943103975e+01    0.5145095    0.2966856 -13.29  0.002000999    1.920    0.479
        19 -10.2721     86.9197      7.4864   8.0905610941e+01   6.0406030226e+01    0.5619324    0.2743611  50.27   0.00292856    1.747    0.428
        20 -10.0201     31.9846     12.1262   1.0291287431e+02   6.8484237321e+01    0.1894843    0.1609431  27.04 0.0004350802    1.595    0.373
        21 -10.5611     38.6583     21.4249   1.0392827193e+02   6.6509577294e+01    0.4270333    0.1399416 -35.98   0.00197316    2.806    0.644
        22 -11.6164     35.7061     18.5965   1.0402937580e+02   6.7230212899e+01    0.5377114    0.2289172 -28.43  0.002494534    2.230    0.551
        23 -12.1758     49.2214     12.9660   9.6006036574e+01   6.6203410885e+01    0.5766768    0.3055758  38.37  0.003164245    1.830    0.454
        24 -11.1695     42.3873     14.2459   9.9342458318e+01   6.6969510252e+01    0.3611704    0.1791095  32.24  0.001368655    1.872    0.466
        25 -12.0669     69.5875     17.8979   9.0522970336e+01   6.2509776657e+01    0.6443019    0.3599051  49.58  0.003471946    1.975    0.494
        26 -10.8524    165.3627     17.1904   6.7590074221e+01   4.1722623740e+01    0.3291612    0.2107957  42.71 0.0008198575    1.654    0.396
        27 -11.4689    133.5543     15.2598   7.2579464287e+01   4.9612089136e+01    0.8469402    0.2574109  59.76  0.003210071    2.671    0.626
        28 -11.9729    104.9051     13.0308   7.8198565528e+01   5.6247583193e+01    0.4109376    0.3317729   4.24  0.002006633    1.295    0.228
        29 -11.1005    239.9892      7.7265   5.6890374981e+01   2.4930338404e+01    0.2725054    0.1611596 -67.65 0.0008440162    1.498    0.332
        30 -11.7516    211.5347      9.7336   5.9919460137e+01   3.1237849421e+01    0.4435454    0.3450762   7.24   0.00189375    2.078    0.519
        31 -11.1624    192.2662      7.9775   6.1606118617e+01   3.6049625699e+01    0.3600209    0.2822281   3.95  0.001432185    1.883    0.469
        32 -10.7036     66.4615     10.6547   8.8615808732e+01   6.3804811284e+01     0.263345    0.1566514  35.33  0.001009251    1.420    0.296
        33  -9.9985      4.4536     10.3235   1.1529127451e+02   7.1214971875e+01    0.3014507    0.1115091 -22.69  0.001448803    3.144    0.682
        34 -10.0262    168.7945     10.1228   6.5158535325e+01   4.1583499951e+01    0.3003359    0.1275821  52.05  0.001327697    2.112    0.527
        35 -11.0817    125.5343     11.1309   7.2862515165e+01   5.1858065631e+01    0.4835183    0.2750185  77.17   0.00227437    2.208    0.547
        36 -10.8846     77.3158      5.1707   8.2811390738e+01   6.2422249187e+01    0.4469391    0.2262986 -18.86  0.002419772    2.122    0.529
        37 -10.5576     62.9598      6.0762   8.7891974187e+01   6.4835024755e+01    0.2590837    0.1605979   0.54 0.0009882613    1.613    0.380
        38 -10.6579     42.4162      3.6516   9.4635286925e+01   6.8156108674e+01    0.4756492    0.2281909  -0.54  0.002271555    2.981    0.665
        39  -9.9546      1.2685      7.2062   1.1563820693e+02   7.1863284898e+01    0.1266781   0.07337081 -41.19 0.0002736919    1.557    0.358
        40 -10.6222    199.4792      6.0381   6.0342444187e+01   3.4501945715e+01    0.3038014    0.1513035  74.62 -0.0001363316    1.702    0.413
        41  -9.9402    162.9569      5.5893   6.4761189807e+01   4.3433228743e+01     0.220372    0.1756185  24.66 0.0007157861    1.548    0.354
        42 -10.6190     71.6604      3.4507   8.3868898942e+01   6.3591363076e+01    0.2575998     0.223339 -12.76  0.001846888    1.339    0.253
        43 -10.8371    218.6168      3.3507   5.7845425947e+01   3.0252605377e+01    0.3038651    0.2426181  86.22 0.0009580764    1.065    0.061
        44 -11.7983    223.6455      1.8917   5.7090163399e+01   2.9245282774e+01    0.7288713    0.2829974  87.73   0.00300543    2.895    0.655
        45  -9.7413    174.7685      4.4022   6.2847204145e+01   4.0658951662e+01    0.1885665   0.09757845  60.85 0.0009401439    1.590    0.371
        46 -10.0310    141.8726      3.8865   6.7539122336e+01   4.8662079393e+01    0.2906202    0.1411686  60.87  0.001423204    1.635    0.388
        47 -12.1379    133.8739      2.5561   6.8515737303e+01   5.0654142620e+01    0.3402204    0.2132594  53.99 0.0004983565    1.289    0.224
        48 -11.0332    205.1713      2.2314   5.8883664010e+01   3.3523077246e+01    0.3739831    0.1903919  87.67  0.001144883    1.877    0.467
        49 -11.1437    106.1669      2.2036   7.4003938889e+01   5.6905852855e+01    0.5017213    0.2179015  65.77  0.001772235    2.491    0.599
        50 -10.5624    114.1549      2.1446   7.2220854765e+01   5.5172811374e+01    0.4396057    0.1893308  67.70  0.001763824    2.487    0.598
        51 -11.0731      2.8676      1.8249   1.1250403779e+02   7.2479174655e+01    0.3473503    0.1492649  10.53  0.002055473    2.415    0.586
        52  -9.5844    193.9712      1.4301   5.9858452193e+01   3.6277613838e+01    0.1919384    0.1045709  74.71 0.0004188001    1.517    0.341
        53  -9.4263    162.7338      1.3181   6.3630635706e+01   4.3860790894e+01    0.1729131   0.09552228  63.27 0.0002558655    1.449    0.310
        54  -9.4262    122.9685      1.0000   7.0045641463e+01   5.3287395669e+01    0.2208347   0.06068052  62.61  0.000810688    3.000    0.667
        55 -10.2822     14.1785    133.0426   1.4008124482e+02   4.6453189097e+01    0.2305122    0.1424075  89.31  0.001021204    1.617    0.382
        56 -10.3795     92.8242    129.0996   1.1736863076e+02   3.8012951486e+01      0.35216    0.2791164  59.91  0.001722366    1.393    0.282
        57 -10.6496     10.8422    127.0915   1.4020873478e+02   4.8049611974e+01    0.4272125    0.1299156 -51.60  0.001653337    2.751    0.637
        58 -10.2041     78.7336    128.2824   1.2123534776e+02   4.0465719636e+01    0.2771288    0.1866128 -52.20 0.0007716478    1.378    0.274
        59 -10.7003     18.3980    125.0922   1.3789699344e+02   4.7964001892e+01    0.3537093    0.1364958 -58.64 0.0008963652    1.970    0.492
        60  -9.2269     33.3254    126.3081   1.3392368460e+02   4.6431703431e+01    0.1312405   0.08421346 -40.48 0.0007037198    1.652    0.395
        61  -9.7650      1.9929    125.5947   1.4236262963e+02   4.8952263584e+01    0.3272561    0.1273894 -73.85  0.001596621    2.077    0.519
        62 -11.1658     55.8313    123.1592   1.2687943419e+02   4.4787493544e+01    0.4684376    0.3338084  17.68  0.001597897    1.722    0.419
        63 -10.5482    239.4928    124.4965   8.2287935288e+01   7.1681037399e+00    0.1429096    0.1316528 -43.10 0.0008106401    1.005    0.005
        64 -11.6664    104.9190    121.1525   1.1207152725e+02   3.7730175380e+01    0.5210015    0.4983546 -62.46  0.002069956    1.032    0.031
        65 -10.4465     45.7191    120.6378   1.2937950091e+02   4.6526779041e+01    0.2897156     0.221679  86.06  0.001142165    1.489    0.328
        66  -9.5134    221.4519    120.5061   8.4491554043e+01   1.1770496792e+01    0.1479895    0.1402615 -49.22 0.0001101808    1.007    0.007
        67 -10.8250     34.4619    119.2459   1.3243527409e+02   4.7970470614e+01    0.2532648    0.1790989 -46.04 0.0009223751    1.327    0.246
        68  -9.9143    113.9831    115.9741   1.0821547222e+02   3.7174943409e+01    0.2254791    0.2203689 -21.80 0.0003324393    1.035    0.033
        69 -10.7534     67.0966    112.1455   1.2119855254e+02   4.5925325635e+01    0.4887463    0.2894078 -63.22  0.002294921    1.718    0.418
        70 -10.4271     35.2465     92.8339   1.2710901179e+02   5.3863695497e+01     1.547911    0.9365541 -81.35  0.007581887    2.355    0.575
        71 -11.9797      9.6843     97.6811   1.3626964229e+02   5.4700943600e+01     0.916168    0.5952858  51.32  0.005585014    2.018    0.504
        72 -12.1177      7.2683     88.8379   1.3552825772e+02   5.6748078569e+01    0.4859447     0.406459 -53.19  0.001201998    1.079    0.073
        73 -11.4123     44.6212     85.4203   1.2222607808e+02   5.4549254835e+01    0.8544348    0.5598059  67.72  0.004079307    2.794    0.642
        74 -11.4902     37.6437     85.8095   1.2471622113e+02   5.5157624228e+01    0.4124815     0.260273  19.24  0.000795663    1.818    0.450
        75 -11.3077     21.5074    114.2157   1.3539127453e+02   5.0215341964e+01    0.3401736    0.2381273  -2.60  0.002054343    1.878    0.468
        76 -11.3750     28.7195    113.0173   1.3306434864e+02   4.9910974637e+01    0.3944648     0.276998  24.78  0.001604495    1.703    0.413
        77 -12.5958     26.0477    107.1206   1.3284411894e+02   5.1469075555e+01     1.105371    0.5467091 -28.86  0.005112795    2.753    0.637
        78 -12.5339     18.8311    106.2982   1.3489764927e+02   5.2199328288e+01    0.3335773     0.249193 -38.57 0.0003602221    1.323    0.244
        79 -13.1947     19.7313     95.8228   1.3277455993e+02   5.4456200340e+01    0.5050329    0.4449415  23.52 0.0007024587    1.381    0.276
        80 -12.5006     18.5728     90.3520   1.3211427154e+02   5.5725913508e+01    0.7050073    0.3144087 -37.07 0.0005550263    2.267    0.559
        81 -10.1692      7.2127    114.2472   1.3950190596e+02   5.1183182565e+01    0.2105917    0.1838113 -85.74   0.00124563    1.181    0.153
        82 -11.6060      2.3946    112.1178   1.4057014765e+02   5.1936724300e+01    0.4452976    0.2041316 -71.50  0.001711249    1.744    0.427
        83 -10.9506      6.0185    108.5254   1.3903941291e+02   5.2528230862e+01     0.227686    0.1893066 -60.44 0.0005030197    1.080    0.074
        84 -11.6664      3.0983    104.8473   1.3936247281e+02   5.3502964981e+01    0.3707968    0.2633761   3.70  0.001588982    1.818    0.450
        85  -9.3117    126.5851    114.1818   1.0426413136e+02   3.4985995383e+01    0.2116843    0.1481482 -34.98 0.0005304966    1.543    0.352
        86  -9.8040     87.5205    114.1953   1.1547653090e+02   4.2391239912e+01    0.3067857    0.1820386  53.51  0.001313316    2.083    0.520
        87 -10.7813    108.1630    112.4153   1.0896522094e+02   3.9115401422e+01    0.3077342    0.2367623  76.40  0.001422252    1.718    0.418
        88 -10.2922    175.1010    107.3108   9.0469903305e+01   2.5229526128e+01    0.3122514    0.2440374 -29.45 0.0008631863    1.411    0.291
        89  -9.9544     93.9608    111.4010   1.1286936532e+02   4.1943588604e+01    0.2718935    0.2055291 -77.24  0.001294128    1.672    0.402
        90  -9.8422     48.9093    112.1483   1.2678722574e+02   4.8154732503e+01    0.2004254    0.1756057  88.78  0.001227098    1.262    0.207
        91 -11.0956     79.3221    108.5535   1.1660078007e+02   4.4985155497e+01    0.5446212    0.3945849  41.72  0.002400212    1.486    0.327
        92 -11.1204     86.5304    105.0726   1.1352129248e+02   4.4627022535e+01    0.5088474    0.3421151  22.59  0.002110233    1.747    0.428
        93 -10.7591    170.5357    109.9252   9.2167368299e+01   2.5801865328e+01    0.4612795    0.3973923  32.72  0.001771547    1.246    0.197
        94  -9.7048    130.4934    107.9679   1.0156668129e+02   3.5504525496e+01    0.2462022    0.1545345 -45.40  0.001037939    1.606    0.377
        95 -10.2523    157.9370    105.7543   9.3998157467e+01   2.9675517570e+01    0.2653913    0.2328389 -41.31 0.0006209781    1.166    0.143
        96 -10.2638    143.6056    105.7817   9.7543166968e+01   3.3028919482e+01     0.357606    0.3062107 -40.72  0.001255077    1.192    0.161
        97 -10.8252    145.8709     99.6398   9.5297781627e+01   3.3775632800e+01    0.4885201    0.3307069 -23.05  0.002041982    1.890    0.471
        98 -10.3449     48.1077    103.0623   1.2514141187e+02   5.0314783689e+01    0.2200005    0.1868978  -7.52 0.0003805186    1.310    0.237
        99 -10.2881     51.6310    100.1263   1.2336134300e+02   5.0582385690e+01    0.3151688    0.1235764 -47.81  0.000767293    2.197    0.545
       100  -9.1947     82.2752    102.6761   1.1422553256e+02   4.5848124821e+01    0.1381882    0.1131235  89.81 0.0004457433    1.581    0.368
       101 -10.7224     66.4669     99.4629   1.1842140266e+02   4.8884745628e+01    0.3998876    0.2627572  53.23  0.001674898    1.972    0.493
       102 -10.9246     68.3512     95.8481   1.1690937780e+02   4.9422974095e+01    0.3254623    0.2719671 -16.59 0.0007685259    1.243    0.196
       103 -10.2525     57.7455     97.7384   1.2082353692e+02   5.0391663660e+01     0.234018    0.1790993 -54.09 0.0007763291    1.197    0.164
       104  -9.4437     77.9709     97.2472   1.1417916131e+02   4.7715078236e+01    0.1854438    0.1785673 -21.56 0.0003141332    1.054    0.051
       105  -9.6498    140.7084     96.2274   9.5662695283e+01   3.5666094613e+01    0.2190349    0.1856396  12.07  0.001057398    1.368    0.269
       106  -9.9692     42.2906     94.8399   1.2522036628e+02   5.2752366842e+01    0.2601123    0.1834072 -59.85  0.000942723    1.299    0.230
       107 -10.2830    117.4039     93.0814   1.0107150222e+02   4.1438483556e+01    0.4934766    0.2485713  42.55  0.001954784    1.976    0.494
       108 -10.5420    126.4017     93.2501   9.8612025608e+01   3.9484086931e+01      0.38118    0.2849566  33.80 0.0009584406    1.386    0.279
       109 -11.0339    122.3234     93.6745   9.9857410016e+01   4.0278698170e+01    0.2895862    0.1504075 -47.94 0.0008665235    2.017    0.504
       110 -10.7056    101.9518     91.1568   1.0504817539e+02   4.4908401622e+01    0.5100689    0.3953827 -88.27  0.002340117    1.920    0.479
       111 -11.4461     81.6850     92.9683   1.1185600268e+02   4.8060115943e+01     0.597563    0.4589011  60.64  0.002246117    1.688    0.408
       112 -11.1759     89.3362     90.0624   1.0862630256e+02   4.7409785528e+01    0.4118257    0.2940417 -39.11  0.001056984    1.347    0.258
       113 -10.0136     92.8978     85.7313   1.0626902375e+02   4.7681205637e+01    0.2664236    0.2184579  16.26 0.0005670575    1.278    0.218
       114 -11.3224     79.6097     82.9242   1.0971516087e+02   5.0484342412e+01    0.5790153    0.5188264  78.41  0.002917907    1.455    0.312
       115 -11.8439     70.3081     79.7325   1.1189341686e+02   5.2540164943e+01      1.07059    0.6049361   4.65  0.004223084    3.123    0.680
       116  -9.3047    160.6783     93.3392   8.9996410595e+01   3.1495432749e+01    0.1636874     0.123809 -80.98  0.000377612    1.717    0.418
       117 -10.1175    152.5386     92.2333   9.1608457526e+01   3.3675115299e+01    0.2670712    0.2324335 -55.28 0.0009941554    1.205    0.170
       118 -10.0701    183.7082     86.5454   8.3220196575e+01   2.7094409832e+01    0.4502281    0.1626586 -46.87  0.001448294    2.998    0.666
       119  -9.2484     67.3162     88.3430   1.1528981575e+02   5.1181524175e+01    0.1451808   0.09750007 -21.97 0.0007048388    1.713    0.416
       120  -9.4897    212.4669     87.4563   7.8183343544e+01   1.9905216968e+01     0.146714    0.1392098 -79.00  0.000138802    1.035    0.034
       121 -10.9460    113.3237     84.7289   9.9816495039e+01   4.3961313044e+01    0.6249275    0.2887799 -35.41  0.002342291    2.397    0.583
       122  -9.7736    104.3275     76.4097   9.9963701758e+01   4.7371338704e+01    0.3225467    0.2282227 -55.87  0.001542564    1.709    0.415
       123 -11.1978    143.9021     83.2505   9.1169615216e+01   3.7447699090e+01    0.4573286    0.3466864  -8.59  0.002090293    1.715    0.417
       124 -11.2547    108.5168     80.6155   9.9993676017e+01   4.5738413695e+01    0.3629106    0.3231544 -39.74  0.001522671    1.150    0.130
       125 -10.3838    165.6564     83.0323   8.6038192358e+01   3.2212313807e+01    0.3604152    0.2945971 -58.69  0.001774433    1.309    0.236
       126 -10.2666    127.2669     83.4340   9.5532014793e+01   4.1229942461e+01    0.2946318    0.1422822  43.48   0.00112983    2.030    0.507
       127 -11.3367     58.3400     78.1191   1.1554709655e+02   5.4487790473e+01    0.2971708    0.2491034  18.49 0.0008604892    1.257    0.205
       128 -11.4904     52.9745     76.0669   1.1685910132e+02   5.5558939482e+01    0.4328942    0.3216469 -48.34  0.001444746    1.254    0.203
       129 -11.9381     14.0919     74.4675   1.3039077572e+02   5.9360147912e+01    0.4405369     0.303385 -52.31  0.001792777    1.146    0.127
       130 -11.8758      2.0780     71.4027   1.3402270880e+02   6.0640164345e+01    0.6261564      0.13837 -60.93  0.002534806    3.031    0.670
       131 -11.6688     13.6062     66.1679   1.2868819117e+02   6.1063177981e+01    0.2862703     0.228277 -64.61 0.0005004479    1.332    0.249
       132 -10.3597    142.9156    249.5111   1.2604440809e+02   2.7273043691e+00    0.2099276    0.1075764  41.96  0.001034913    1.596    0.374
       133 -11.2457     11.3414     62.5368   1.2867595307e+02   6.1914973192e+01      0.37676    0.2030814   7.17  0.002220538    2.170    0.539
       134 -10.5360     94.0607     76.4434   1.0313344709e+02   4.9305820370e+01    0.5251674    0.3773409  40.13  0.001621325    1.408    0.290
       135 -10.5715     84.6598     67.3215   1.0330653682e+02   5.2665615095e+01    0.2529937    0.2043608  56.70  0.000885418    1.581    0.367
       136 -10.1807    177.5169    247.5129   1.1885727368e+02  -2.9335663141e+00    0.2793342    0.1668784  26.13  0.001423826    1.741    0.426
       137 -10.6756     71.6268     56.1521   1.0407345615e+02   5.6751827165e+01    0.7059979    0.3955112  13.75   0.00312398    2.479    0.597
       138 -11.7479     74.4743     49.4755   1.0078384921e+02   5.7407348490e+01     0.805828     0.431039  40.76  0.002446643    1.897    0.473
       139 -10.7571     72.3919     46.2219   1.0036204604e+02   5.8254522849e+01    0.2863465    0.2014073 -35.70  0.001626952    1.430    0.301
       140 -10.5971     13.6186     54.1691   1.2566830236e+02   6.3378267170e+01     0.579133    0.2537112 -14.46  0.002253102    3.168    0.684
       141 -11.7417    186.5713     70.5268   7.8446703879e+01   2.9165076560e+01    0.7355825    0.6394259 -25.32  0.003741032    1.318    0.241
       142 -11.2143     32.7088     71.9172   1.2304726707e+02   5.8484795874e+01    0.4936101    0.2444935  26.22  0.002590921    2.251    0.556
       143 -11.2320     41.8914     70.3467   1.1926472923e+02   5.7924350338e+01      0.36266    0.2777155 -40.02   0.00152422    1.108    0.098
       144 -10.1784     38.4832     73.5063   1.2135933897e+02   5.7631380682e+01    0.2219614    0.1674673 -32.93 0.0006323275    1.141    0.123
       145  -9.9475    161.6807     70.1761   8.3297114318e+01   3.5451960176e+01    0.2779355    0.2031669  66.74  0.001313524    1.397    0.284
       146 -11.6173    122.6107     68.4165   9.2242936355e+01   4.4998684831e+01    0.5712886    0.3647348  46.58  0.002021748    1.492    0.330
       147  -9.8372    208.3411     68.3293   7.4179785750e+01   2.4131700609e+01    0.3267142    0.1605193  48.00    0.0013175    2.242    0.554
       148 -10.2281    172.1047     67.6849   8.0443523175e+01   3.3263985218e+01     0.304568    0.2517258 -66.07  0.001556707    1.299    0.230
       149 -11.3428    219.5524     66.3104   7.1995787181e+01   2.1752690088e+01    0.5903039    0.3042833  64.03  0.002473658    1.919    0.479
       150  -9.5350     66.6483     74.1897   1.1152766545e+02   5.4165223719e+01    0.3546937     0.173082 -63.39  0.001215088    4.187    0.761
       151  -9.3437     25.6598     65.1132   1.2389725588e+02   6.0424050565e+01      0.17175   0.08301225 -45.35 0.0004449215    1.632    0.387
       152 -10.4105     20.9535     65.1235   1.2567649197e+02   6.0777410153e+01    0.1812563    0.1381944 -36.85 0.0008478524    1.048    0.046
       153 -10.3837    204.2831     63.8938   7.3725190628e+01   2.5833663638e+01      0.25331    0.2102262  39.90 0.0002402957    1.421    0.296
       154 -10.3659     98.2549     62.5744   9.7431492833e+01   5.1038847853e+01    0.3676004    0.2514161   2.01  0.001736414    1.885    0.470
       155 -10.9736     58.2082     61.7640   1.1072516506e+02   5.7667345384e+01    0.3907727    0.2831507 -52.84  0.001592309    1.569    0.363
       156  -9.8663    198.9621    244.5202   1.1414337102e+02  -6.1255180890e+00    0.2061076     0.108221  38.56  0.001035796    1.602    0.376
       157 -10.7986     60.5100     36.6998   1.0119095467e+02   6.1499011950e+01    0.2789581    0.1842531 -24.57  0.001028623    1.405    0.289
       158  -9.5029    167.4845     63.0569   8.0078990175e+01   3.5170725215e+01    0.2199154    0.1817384  61.31 -0.000117329    1.129    0.114
       159 -11.0982     91.9507     62.2163   9.9290167269e+01   5.2282005139e+01    0.3582816    0.2940733  38.09  0.001076288    1.227    0.185
       160 -10.8131     91.1661     58.0757   9.8168059189e+01   5.3128037469e+01    0.3581463    0.2961223  15.02  0.001151901    1.150    0.130
       161 -10.6456     87.5146     56.5269   9.8824200851e+01   5.4045526902e+01    0.3928677    0.2178853 -39.34  0.001395315    1.824    0.452
       162 -10.5559    159.5874     61.5820   8.1284259097e+01   3.7374767390e+01    0.4260447    0.2409993  45.19   0.00182076    1.755    0.430
       163 -10.3568    113.5048     61.1673   9.2466873175e+01   4.8192629376e+01    0.5740397    0.2372863 -42.10   0.00219665    2.598    0.615
       164 -11.0976    122.5090     58.7660   8.9226094820e+01   4.6625128877e+01     0.421436    0.3629473  61.57  0.001545164    1.248    0.198
       165 -10.6295    117.4812     56.1829   8.9747661761e+01   4.8139628451e+01     0.443503    0.2495786  49.95  0.001284244    1.693    0.409
       166 -11.7472     78.6468     67.1595   1.0525815976e+02   5.3692911739e+01     1.037231    0.4955831 -54.13  0.004127015    2.880    0.653
       167 -10.2022     52.0602     47.9946   1.0848179895e+02   6.0868917414e+01    0.2640782    0.1773841 -31.04  0.001270294    1.317    0.241
       168 -11.2907     33.8152     43.9106   1.1434457321e+02   6.3596172474e+01    0.5326366    0.4819161  -7.05  0.002934837    1.261    0.207
       169 -11.2822     40.1793     55.9330   1.1568685218e+02   6.0842188912e+01    0.4073628    0.3671621  89.27  0.001521579    1.712    0.416
       170 -11.9417     46.1961     48.5741   1.1095352622e+02   6.1480193536e+01    0.5013162    0.3487834 -25.03  0.001200881    1.250    0.200
       171 -11.7997     41.7745     45.4538   1.1164251311e+02   6.2508171399e+01    0.2904561    0.2297383  20.86 0.0003244026    1.343    0.255
       172 -11.6189     50.8757     61.2691   1.1327559926e+02   5.8673075294e+01    0.4186173    0.3396398 -46.20  0.001296085    1.290    0.225
       173 -11.2306     46.1952     58.2056   1.1408390934e+02   5.9778051840e+01    0.3460942    0.2424511 -33.04  0.001096551    1.222    0.182
       174  -9.2430     34.8323     56.9125   1.1806581358e+02   6.1192347302e+01    0.1485249    0.1392274 -43.36  0.001051849    1.317    0.241
       175 -10.2390     32.9852     53.2635   1.1768451521e+02   6.2034017147e+01    0.2427944    0.1872373  29.28  0.001029785    1.542    0.351
       176  -9.1277     25.7111     59.9859   1.2249847712e+02   6.1410943738e+01    0.8392445    0.4267613  50.67   0.00354749    4.489    0.777
       177 -11.1492     25.3614     55.3332   1.2132392504e+02   6.2315238113e+01    0.3988722     0.273424   2.35   0.00154398    1.521    0.343
       178  -9.9926     29.3122     52.6720   1.1896615550e+02   6.2472779479e+01    0.2101055    0.1455511 -42.34 0.0007392862    1.228    0.186
       179 -10.7656    136.8339     56.0259   8.4740442216e+01   4.3765155468e+01    0.6360217    0.3877985  27.82  0.002707232    2.113    0.527
       180 -11.1936    146.0343     46.3116   7.9657754039e+01   4.2977479730e+01    0.4991269    0.2940193 -29.14  0.001928063    1.913    0.477
       181 -10.2054    155.2112     49.9889   7.8821975341e+01   4.0208479407e+01    0.4044725    0.2590827  -2.80  0.001630222    2.518    0.603
       182 -10.2597    157.4672     56.5445   8.0271013129e+01   3.8681632531e+01    0.2707326    0.2346237  42.26 2.115867e-05    1.151    0.131
       183 -10.6263    156.9895     53.4828   7.9478337379e+01   3.9259071538e+01    0.4709159    0.2864954  79.55  0.001934145    2.224    0.550
       184  -9.4022      1.9961     56.0425   1.3072069607e+02   6.3667536285e+01     0.132307    0.1018932 -37.40  0.000452315    1.069    0.065
       185  -9.7451     67.1414     54.8964   1.0524076807e+02   5.7642589729e+01    0.1836692    0.1748708 -24.99 0.0005739976    1.264    0.209
       186 -10.9177    249.1792     52.9228   6.5237429107e+01   1.7025180568e+01    0.3105026    0.1841916 -66.53  0.001322432    1.698    0.411
       187 -11.2208    239.9789     50.5840   6.5781637947e+01   1.9403547786e+01    0.2976753     0.265718 -74.90 0.0009186622    1.099    0.090
       188 -10.9933    112.8822     50.1949   8.9040171654e+01   5.0045982012e+01    0.7891111    0.4229041  32.03  0.003367199    2.118    0.528
       189 -11.6836    127.4398    242.1421   1.2818168717e+02   6.6945427117e+00    0.4028426    0.2286557 -66.06  0.002023475    2.211    0.548
       190  -9.3906     54.8988     51.1731   1.0848656403e+02   5.9970694280e+01    0.1680825    0.1237664  -5.07 0.0004667489    1.302    0.232
       191 -10.6077    173.8150     48.2781   7.4764539388e+01   3.5801929775e+01      0.43659    0.2599641  68.79  0.001980572    1.649    0.394
       192  -9.8286      2.7023     48.9857   1.2870214788e+02   6.4959322686e+01    0.2230087    0.1491125   3.90  0.001562297    1.641    0.390
       193 -10.4917    202.1444     46.8554   6.9825289247e+01   2.8911885321e+01    0.3606178    0.2496349 -31.53  0.001841215    1.648    0.393
       194  -9.6172     90.3276     48.0072   9.4990481951e+01   5.4886325222e+01    0.1820784    0.1662488  -7.96 0.0004106069    1.111    0.100
       195 -10.3314     26.0422     48.1444   1.1890023563e+02   6.3566569682e+01    0.2110982    0.1472518  -0.98  0.001379548    1.418    0.295
       196  -9.2185    193.4888     45.9974   7.0901266579e+01   3.1182139507e+01    0.1959706    0.1042655 -58.97 0.0008045768    2.264    0.558
       197 -10.8586     21.0810     47.2274   1.2065682340e+02   6.4127449848e+01    0.2839443    0.2190118 -39.56  0.001332861    1.148    0.129
       198  -9.4323     14.3856     45.8114   1.2301041927e+02   6.4859886332e+01    0.1714088     0.076374 -43.60 0.0009511238    1.695    0.410
       199 -10.1415      3.9448     44.0336   1.2687186511e+02   6.5799356794e+01    0.4024901    0.1605704 -28.63  0.001880219    2.429    0.588
       200 -10.3667    100.3179     43.1566   9.0229280466e+01   5.3668378065e+01    0.3410545    0.2582027  85.73  0.001683871    2.298    0.565
       201 -11.1365     94.0251     41.3545   9.1487847258e+01   5.5158336956e+01    0.5126235    0.2645377  43.06  0.002200545    1.783    0.439
       202  -9.1716    162.6479     43.6987   7.5529967016e+01   3.9237044312e+01    0.1504416    0.1024558  35.18 0.0007038517    1.699    0.411
       203 -11.2342    156.1667     41.8185   7.6231061420e+01   4.1100918383e+01      0.34391    0.2981768  46.41 0.0008548984    1.120    0.107
       204  -9.7177    139.1725     43.6205   8.0339198725e+01   4.4999266346e+01    0.2142665     0.115463  47.20 0.0009444043    1.685    0.406
       205  -9.1570    188.8068     41.9766   7.0589235530e+01   3.2906124485e+01    0.1700408    0.1109541 -34.84 0.0003370143    1.681    0.405
       206  -9.8952     18.2086     41.9889   1.2023972752e+02   6.5264435000e+01    0.2052961    0.1231057  -9.03  0.001267779    1.686    0.407
       207 -11.1582     81.4909     39.5412   9.4833756679e+01   5.7723669045e+01    0.4363542    0.3049849  47.35  0.001600189    1.561    0.359
       208 -11.0167     77.7297     34.1870   9.4107256162e+01   5.9118110460e+01    0.3679072    0.2440928  28.22   0.00117602    1.382    0.276
       209 -11.1385     82.0077     31.3412   9.1618727559e+01   5.8739411912e+01     0.482272    0.3327405  50.10  0.002724146    1.602    0.376
       210 -11.1470    231.6075     39.3436   6.4296734105e+01   2.2896789337e+01     0.334466    0.2176121 -60.02  0.001395806    1.433    0.302
       211 -11.2538      4.2938     36.2268   1.2447214702e+02   6.7154655306e+01     0.313298    0.1904429 -27.65 0.0008497302    1.320    0.242
       212  -9.4947      6.2039     30.8693   1.2194010748e+02   6.7949105968e+01    0.2820176     0.127202 -18.63  0.001539688    2.362    0.577
       213 -10.5887    176.7127     36.8061   7.1142635815e+01   3.6620624224e+01    0.3363743    0.2553026 -47.25   0.00156715    1.409    0.290
       214 -10.1880    172.3376     32.9692   7.0816034432e+01   3.8199360819e+01    0.2716774    0.2028957 -81.59 0.0009060301    1.453    0.312
       215  -9.7395    133.3948     37.3273   7.9657386245e+01   4.7193162854e+01    0.3546523     0.218401 -66.67  0.001476303    2.795    0.642
       216 -10.8421     22.4959     36.4611   1.1659133026e+02   6.5864065180e+01    0.3082143    0.2034307  33.59  0.001399882    1.938    0.484
       217  -9.7389    206.9607     37.0118   6.6764890859e+01   2.9075016104e+01    0.2168383    0.1844406 -84.48  0.001037277    1.041    0.039
       218 -10.1059    153.3693     36.1577   7.5108495277e+01   4.2522511373e+01     0.256029    0.2069153  80.53 0.0006088396    1.276    0.216
       219 -11.9473    105.6770     32.8836   8.5091035160e+01   5.3929751107e+01     0.964992    0.4980324  11.53  0.003228042    4.055    0.753
       220 -10.9019    146.6919    237.7681   1.2366099004e+02   4.1212321606e+00    0.3075332    0.2143267 -75.97   0.00162205    1.971    0.493
       221 -11.6092    115.5366     24.5073   7.9613502656e+01   5.2781534512e+01    0.4845926    0.2128852  48.64  0.001338165    1.904    0.475
       222 -11.3748    110.2089     23.4057   8.0555918774e+01   5.4065129574e+01    0.3608284    0.2424528  50.16  0.001235051    1.300    0.231
       223 -11.1389     69.7520     32.5341   9.6238286491e+01   6.0672005214e+01    0.4300444    0.2534958  31.80 0.0007862001    1.568    0.362
       224 -12.0391    241.0764     31.2166   6.1558290890e+01   2.1830030246e+01    0.4148184    0.3269233  -7.14  0.002387576    2.084    0.520
       225 -11.1976    164.6142     27.6706   7.0629679861e+01   4.0759468616e+01    0.3549052    0.2469064 -87.65  0.001307011    1.624    0.384
       226  -9.8750    160.6313     33.2992   7.2920346284e+01   4.1079555367e+01    0.3086604    0.1758077  77.09  0.001354399    1.995    0.499
       227 -10.0706    159.7044     29.8057   7.2082620129e+01   4.1728747323e+01    0.2980424    0.2324423  14.12  0.001085634    1.640    0.390
       228 -10.4123    189.4312     27.5401   6.6801398578e+01   3.4592308983e+01    0.3584464    0.2647668  -0.80  0.001600052    2.035    0.509
       229 -11.1099     56.4266     30.9121   1.0053017938e+02   6.2910225826e+01    0.3846432    0.2040408  36.63  0.001498032    1.863    0.463
       230 -12.0133     48.0453     30.2677   1.0357142714e+02   6.4129126494e+01    0.7833996    0.2747625  28.50  0.003355824    3.132    0.681
       231  -8.9904    182.6919     31.7251   6.8854375634e+01   3.5762183092e+01     0.136091   0.09790018  43.00 0.0002513207    1.550    0.355
       232 -11.7721     26.2491     27.6781   1.1179461382e+02   6.6923878661e+01    0.4417087    0.3382343  22.70   0.00243344    1.486    0.327
       233 -10.3646    150.5069    237.9327   1.2290093930e+02   3.4138094502e+00    0.1826356    0.1355885 -52.75  0.001035668    1.598    0.374
       234  -9.4178     15.3971    233.7869   1.4861783868e+02   2.4281314841e+01    0.1503432   0.08228026 -70.90 0.0009491264    1.729    0.422
       235  -9.1109    189.9930    229.7776   1.1350472960e+02  -2.2619033698e+00    0.1806805   0.09745197  39.19 0.0007737887    1.607    0.378
       236  -9.3146      9.4381    227.4387   1.4925729947e+02   2.6152052854e+01    0.1118487   0.07913877  78.07 6.351889e-05    1.003    0.003
       237 -10.7646    198.5878     28.7633   6.5869259283e+01   3.2180398605e+01      0.39039    0.2298243  58.55  0.001499465    1.570    0.363
       238 -10.0557    199.5365     24.9727   6.4825912636e+01   3.2406127888e+01    0.2466728    0.1766506  67.45 0.0005124399    1.238    0.192
       239 -11.7680    182.4718     25.3257   6.7218001258e+01   3.6583315576e+01    0.5506493    0.2467875  53.15 0.0008881113    2.066    0.516
       240 -10.1643    175.6295     29.1980   6.9266639978e+01   3.7833581478e+01    0.2797057    0.2151367 -20.31  0.001101364    1.612    0.379
       241  -9.8748    234.4999    222.5149   1.0344735923e+02  -8.7062636357e+00    0.1306685     0.107915   8.61 -1.374764e-05    1.015    0.015
       242  -9.4049    152.5263    207.5044   1.1766461520e+02   8.8004458690e+00     0.145748    0.1303846  50.42 0.0008098903    1.031    0.030
       243 -11.6593    125.1764     27.2258   7.8250387864e+01   5.0310151886e+01    0.5669976     0.387523  59.80  0.002760371    1.367    0.269
       244 -10.2411    230.2757     26.9995   6.1766140996e+01   2.4825393990e+01    0.1823195    0.1498118 -64.24   0.00114019    1.132    0.117
       245 -10.1866    153.3092     26.3459   7.2223884957e+01   4.3704598264e+01    0.3989607    0.3022218  26.57  0.001794887    1.548    0.354
       246 -10.7928    156.8048     25.1460   7.1249656742e+01   4.2979546834e+01    0.5240809    0.3131186 -72.50  0.001774487    2.450    0.592
       247  -9.4464     98.3018     26.6562   8.4915518967e+01   5.6193269244e+01    0.1203277    0.1043089 -73.38 0.0007038613    1.680    0.405
       248 -11.2371    250.4574     24.2263   5.9258044648e+01   2.0664178434e+01     0.401616    0.1365228 -46.05  0.001156799    2.492    0.599
       249  -9.8322    238.6185    204.7858   9.9339423242e+01  -6.6673346989e+00    0.1828338    0.1185819 -43.28 0.0009565765    1.722    0.419
       250  -9.8705      4.4810    205.0329   1.4875162029e+02   3.1207856525e+01    0.1740659   0.08645517 -78.74   0.00103296    1.600    0.375
       251  -9.9177    233.6937    196.9926   9.8748094939e+01  -4.5750529436e+00      0.19357    0.1639338 -19.91 0.0007008407    1.121    0.108
       252 -11.0359     17.0985    192.4777   1.4541004934e+02   3.2717895636e+01     0.209665    0.1456067 -82.31 0.0003076409    1.158    0.137
       253 -12.2664      4.8992    184.9878   1.4727216400e+02   3.5459027217e+01    0.6714327    0.3714777  79.06   0.00402783    1.583    0.368
       254 -11.0980    214.9807     23.5725   6.2658997658e+01   2.8837525741e+01    0.3626764    0.3062834 -59.14   0.00100583    1.194    0.163
       255  -9.7077     59.8956     24.2837   9.6594471263e+01   6.3288678306e+01    0.1957018    0.1443796 -28.22 0.0006369587    1.399    0.285
       256  -9.6436     80.8291     19.3289   8.7379436319e+01   6.0381632664e+01    0.2733202    0.1285511  46.93  0.001212193    1.928    0.481
       257  -9.5773    169.1910    191.6448   1.1106991031e+02   8.7282947486e+00    0.2120901     0.131638  33.73 0.0004965947    1.630    0.386
       258 -10.0606     39.5218    173.5038   1.3872768382e+02   3.4694054825e+01    0.1290913    0.1057109 -88.35 8.503695e-06    1.005    0.005
       259 -11.6113      9.8342    165.8911   1.4465001728e+02   3.9288776635e+01    0.5394726    0.3007823 -59.27  0.003070882    1.650    0.394
       260 -11.7360     13.2645    157.2207   1.4303708878e+02   4.0978119584e+01    0.4209763      0.29978  69.78   0.00126482    1.372    0.271
       261 -10.9959     47.0269     18.6919   9.9317667505e+01   6.5815688077e+01    0.3183549    0.2378021  17.07  0.001557124    1.166    0.142
       262  -9.6294    198.0869    167.6910   9.9830187521e+01   7.5998223948e+00    0.2109266    0.1911923  25.21 0.0006822221    1.084    0.077
       263 -10.0856     18.6578    165.4791   1.4263572140e+02   3.8631474945e+01    0.2306018    0.1641432 -86.66 0.0008957055    1.148    0.129
       264  -9.1665     80.6656    165.6775   1.2765202107e+02   3.1144378290e+01    0.1402415    0.1100098 -29.13 0.0007050397    1.707    0.414
       265 -10.1028    205.0819    163.3503   9.7425537717e+01   6.9940439519e+00    0.2654455    0.2169473 -43.91 0.0006325165    1.244    0.196
       266  -9.6538    223.4906     22.4497   6.1487850247e+01   2.6963898452e+01     0.229958    0.1663178 -88.94 0.0007729299    1.194    0.163
       267 -10.0092    220.9977     19.0281   6.0999215073e+01   2.7957036958e+01    0.2177667    0.1646448 -67.40  0.001318711    1.194    0.162
       268  -9.2538    188.6199    164.1992   1.0110323749e+02   1.0308954249e+01     0.216758    0.1434241 -31.84 0.0008584327    1.665    0.400
       269 -10.8042    138.0318     21.4779   7.3651847572e+01   4.7929042134e+01    0.3159409    0.1407971  55.65  0.001075356    1.843    0.457
       270  -9.9775    141.8024     19.6268   7.2343959060e+01   4.7220626194e+01     0.334843     0.197998  51.02  0.001703737    1.445    0.308
       271  -8.9351    158.3434     20.3041   6.9592816267e+01   4.3126982329e+01    0.1428281    0.0902017  40.57 0.0007040683    1.685    0.406
       272  -9.3024      1.4920     20.5567   1.2063706819e+02   6.9880595720e+01    0.1081425   0.07533335 -25.89 0.0002222889    1.022    0.022
       273 -10.0766     80.4369    160.1076   1.2678453971e+02   3.2522325837e+01    0.3519726    0.1875509  38.45  0.001564336    1.937    0.484
       274  -9.4661    123.3046     19.6343   7.6153467716e+01   5.1552076576e+01    0.1293608    0.1006707 -71.65 0.0005831265    1.741    0.426
       275 -10.2929     66.1650     21.8780   9.3333035792e+01   6.2610842629e+01    0.2437957    0.1601796  17.02            0    1.419    0.295
       276  -9.2118    170.6036     17.5264   6.6888545160e+01   4.0392535706e+01    0.1334595    0.1149177  76.39 0.0001016733    1.030    0.029
       277 -10.7789    104.4702    153.1389   1.1922385544e+02   3.0207326930e+01    0.5633883    0.3015182 -63.51   0.00226207    2.042    0.510
       278  -9.8790    145.5113     16.1298   7.0593227034e+01   4.6680918018e+01    0.2179803    0.1614883  71.77  0.001227765    1.259    0.205
       279 -10.1261    186.5313     15.0995   6.4055413374e+01   3.6715323216e+01    0.2610974    0.1597601  61.40 0.0007094922    1.421    0.296
       280 -10.4659     31.3961    153.7625   1.3830214723e+02   4.0163839549e+01    0.3526953    0.2180414  77.48   0.00189735    1.747    0.428
       281 -10.7752     30.6117    149.0807   1.3790507427e+02   4.1338929604e+01    0.2642719    0.1732149  75.87 0.0007698089    1.628    0.386
       282  -9.7268     74.4983    153.5033   1.2720544929e+02   3.5007317002e+01    0.2410769    0.2187795 -80.43  0.001406571    1.007    0.007
       283  -9.3886     23.6484    154.7069   1.4030712668e+02   4.0669268308e+01    0.1218546    0.0830228 -45.02 0.0007030534    1.678    0.404
       284 -12.0244      5.0498    147.3979   1.4396934907e+02   4.3833782075e+01    0.5145766    0.3286255 -58.13  0.002417974    1.416    0.294
       285 -11.3047      2.8412    141.8477   1.4393345645e+02   4.5238815436e+01    0.3343669    0.2873931 -85.44  0.002476805    1.132    0.116
       286 -11.3894      4.0158    136.5159   1.4308061920e+02   4.6366052256e+01    0.2337322    0.1850351 -66.47 0.0004524548    1.115    0.103
       287 -10.8684     62.2455    150.0111   1.2985344943e+02   3.7548428776e+01    0.4551928    0.3392868 -80.21  0.001812426    1.294    0.227
       288  -9.7306     42.3527    148.4005   1.3481456556e+02   4.0308356705e+01    0.2177615    0.2029143  13.84  0.001424557    1.344    0.256
       289 -10.1292     48.1302    151.4960   1.3376958560e+02   3.8926459752e+01    0.3577276    0.2053621  23.82  0.001478068    2.237    0.553
       290 -11.1149     46.9612    146.1811   1.3328593039e+02   4.0330035438e+01     0.553041    0.3110043 -68.72  0.001357207    1.573    0.364
       291 -11.9891     22.9713    149.2622   1.3983376936e+02   4.1994934421e+01     0.443806    0.2662816 -34.34   0.00235337    2.318    0.569
       292 -11.0756     16.1714    148.2707   1.4138785509e+02   4.2796282624e+01    0.3182559    0.1948841  40.13  0.001519053    1.834    0.455
       293 -10.7913    249.8606    142.9885   8.4612843708e+01   1.8047604163e+00    0.6659615    0.1471277 -39.98  0.001981679    4.038    0.752
       294  -9.6388    108.7566    146.0517   1.1663674992e+02   3.1124864579e+01    0.2065643    0.1901528 -59.69  0.001095328    1.072    0.067
       295  -9.0855     74.4657    145.4885   1.2579874594e+02   3.6954141153e+01    0.1421895    0.1291828 -75.47 0.0008095744    1.003    0.003
       296 -10.6344     33.1461    144.4000   1.3663796892e+02   4.2197184071e+01    0.2414465    0.2163266  88.46 0.0007902143    1.112    0.101
       297  -9.8026    133.5405    140.5888   1.0888946980e+02   2.7491480278e+01    0.3278701    0.2273297 -29.71  0.001344631    1.793    0.442
       298 -11.7785     29.8615    132.9768   1.3589654042e+02   4.5188060352e+01    0.5667444    0.3272683 -79.30   0.00049129    1.678    0.404
       299  -9.7750     26.4949    140.0002   1.3777042354e+02   4.3845294855e+01    0.2587142    0.1219943 -43.97 0.0008672878    2.405    0.584
       300 -11.7259     22.6732    135.6439   1.3819006781e+02   4.5187877323e+01    0.5323684    0.3572333  65.90  0.002581941    1.678    0.404
       301 -11.3344     13.0290    139.2851   1.4113390189e+02   4.5106134070e+01    0.3906549    0.2162301  50.05  0.002196388    2.049    0.512
       302 -10.8524     71.3520    134.0637   1.2451505759e+02   4.0158928150e+01    0.5481747    0.3575723  15.05  0.002554795    2.133    0.531
       303 -10.7112     81.3586    135.3851   1.2195266002e+02   3.8363322590e+01    0.4878036    0.3288282   1.28  0.001963611    2.454    0.593
       304  -9.6103     97.2904    135.3325   1.1747624886e+02   3.5758607307e+01    0.1505691    0.1159807 -24.01 0.0003091493    1.629    0.386
       305 -10.5945     47.5618    134.2117   1.3122652812e+02   4.3119635650e+01    0.2569787    0.1955076 -62.76  0.000694126    1.136    0.120
