#   1 NUMBER                 Running object number                                     
#   2 MAG_AUTO               Kron-like elliptical aperture magnitude                    [mag]
#   3 X_IMAGE                Object position along x                                    [pixel]
#   4 Y_IMAGE                Object position along y                                    [pixel]
#   5 X_WORLD                Barycenter position along world x axis                     [deg]
#   6 Y_WORLD                Barycenter position along world y axis                     [deg]
#   7 A_WORLD                Profile RMS along major axis (world units)                 [deg]
#   8 B_WORLD                Profile RMS along minor axis (world units)                 [deg]
#   9 THETA_WORLD            Position angle (CCW/world-x)                               [deg]
#  10 FWHM_WORLD             FWHM assuming a gaussian core                              [deg]
#  11 ELONGATION             A_IMAGE/B_IMAGE                                           
#  12 ELLIPTICITY            1 - B_IMAGE/A_IMAGE                                       
         1 -14.2944     68.7082    144.2344   9.7469329254e+01   3.7530120736e+01     4.295563     2.310045  74.97  0.004285214    4.129    0.758
         2 -13.3483    202.7858     42.7573   3.9202889310e+01   2.9745204171e+01     1.118397     1.039103 -28.89  0.003757591    1.300    0.231
         3 -13.4009    214.0339     32.1630   3.5547918912e+01   2.8622440172e+01     0.847471    0.7574279  40.38  0.002289409    1.492    0.330
         4 -11.4520      3.4158     25.0076   9.3313317550e+01   7.0767038025e+01    0.4888901    0.3329661  25.53   0.00324328    1.735    0.424
         5 -12.2161    242.7503      8.7932   2.8425737665e+01   2.5411308848e+01    0.8314999    0.4019249  73.27  0.004889778    1.954    0.488
         6 -11.8915    241.6998      2.6328   2.7341229550e+01   2.6266988712e+01    0.8320242    0.2439276  67.03  0.003974238    3.118    0.679
         7 -11.2842      2.1671      7.0497   8.6310236064e+01   7.3729909852e+01    0.7110313    0.1606898 -45.52  0.002978555    3.862    0.741
         8 -10.7570     55.7681      5.8275   5.8170833016e+01   6.6763130956e+01    0.2903366    0.2141237  62.24  0.001508711    1.879    0.468
         9  -9.8020    122.5382    199.2000   9.2424040040e+01   1.5628804703e+01    0.3217941    0.2561451 -80.02  0.001655507    1.539    0.350
        10 -10.3456    101.8026    249.0137   1.0400547598e+02   8.5744390796e+00     0.274209    0.2302101 -78.62 0.0009833238    1.378    0.274
        11 -11.3953    101.1743    242.9753   1.0345918540e+02   9.8129923133e+00    0.5624809    0.3437765 -86.91   0.00133673    2.419    0.587
        12 -15.3754     40.5792    190.1352   1.1170288684e+02   2.9438090716e+01      4.83395     2.554277  65.46   0.01129224    2.126    0.530
        13 -15.1514      4.9043    161.1083   1.1798519266e+02   3.9757426296e+01     7.607052    0.7723623 -73.20   0.02012531    6.194    0.839
        14 -13.6152     16.7261    216.8288   1.1935704074e+02   2.5732846934e+01    0.8395503     0.511766  29.78  0.004978918    1.778    0.438
        15  -9.7956    146.6127    185.8218   8.4178903329e+01   1.4406033211e+01    0.3264258    0.2478866 -67.11  0.001407216    1.649    0.394
        16 -10.6443     81.1176    182.1749   1.0027749264e+02   2.6183111748e+01    0.3558431    0.3393546  86.30 0.0009879018    1.018    0.018
        17  -9.4091     99.4162    180.8653   9.5238381604e+01   2.3684118863e+01    0.2649394    0.2132084  25.67 0.0005880701    1.298    0.230
        18 -10.1482    186.5207    174.4348   7.2789511549e+01   9.5699655348e+00    0.3626103    0.3393348 -47.39  0.001198817    1.212    0.175
        19 -12.2877     79.4345    158.7160   9.6916630789e+01   3.2291380142e+01     1.133872    0.6507419  53.43 0.0006038893    2.034    0.508
        20 -12.7256     67.4295    154.1364   9.9602620035e+01   3.5171053656e+01    0.5996248     0.428325 -47.85 0.0009496384    1.393    0.282
        21 -14.8234      9.3977    207.5649   1.2032001585e+02   2.8460614831e+01     1.263872     1.039773 -36.18  0.008326939    1.684    0.406
        22  -8.3561    102.8427    164.8479   9.1463129694e+01   2.7023797779e+01    0.1989571    0.1734172  74.42            0    1.258    0.205
        23 -11.5409     87.0152    152.0993   9.3506983041e+01   3.2802615308e+01    0.7209241    0.4840369 -18.84  0.003030851    2.150    0.535
        24 -10.4432    133.7673    144.9731   7.8903791184e+01   2.6117373251e+01     1.240342    0.3256381 -54.85  0.002700675    6.363    0.843
        25  -8.3587    112.1671    150.3483   8.5963543459e+01   2.8945522359e+01    0.2171182    0.1398589  45.90 0.0004188059    1.612    0.379
        26 -10.9209     54.2572    147.5745   1.0241600740e+02   3.8549305604e+01    0.6625753    0.3355404 -51.59  0.002864099    1.846    0.458
        27 -17.0231     13.7317    242.2423   1.2143877464e+02   2.0696203129e+01     6.335903     2.320946  23.02   0.02720404    4.050    0.753
        28 -11.1969    194.2836    197.1518   7.5656326284e+01   3.8938217589e+00    0.5159584    0.3272236 -57.41  0.002381495    2.275    0.560
        29 -10.0705    101.4024    138.3516   8.6433314832e+01   3.3827400662e+01     0.572676    0.3480279 -21.71  0.002097329    2.629    0.620
        30 -11.6051     88.4794    137.8024   9.0172741782e+01   3.6170185682e+01    0.3073577    0.2696573 -38.91 0.0004678678    1.135    0.119
        31 -10.3510     24.6669    137.0509   1.0981418012e+02   4.4268053445e+01    0.3349849    0.1814318  31.44  0.001640353    2.011    0.503
        32 -10.0359    105.8430    130.9871   8.3437657955e+01   3.4824721147e+01    0.4215226     0.326925 -57.11  0.001482332    1.317    0.241
        33  -9.6249    110.7208    129.1991   8.1583676400e+01   3.4341846958e+01    0.4207927    0.2821191  10.80  0.001263058    2.124    0.529
        34 -11.6281     66.3381    171.6677   1.0268428830e+02   3.0866885538e+01    0.6770955    0.3989407 -30.99  0.002808897    2.503    0.601
        35 -10.0786     23.7143    129.4224   1.0904854134e+02   4.6276990620e+01    0.2325972    0.1255521  27.63  0.001128756    2.055    0.513
        36 -10.2704     97.9204    124.9857   8.4386453777e+01   3.7720511114e+01    0.3268347    0.2721649  -1.19 0.0009214002    1.370    0.270
        37 -10.4736     47.7024    125.0970   1.0056002350e+02   4.5065194330e+01    0.2657961    0.2181684 -42.09  0.001394794    1.172    0.147
        38  -9.9109    135.0000    121.2811   7.2852637287e+01   3.1294445637e+01    0.5368798   0.08907668 -45.81  0.001159199    5.963    0.832
        39  -8.9420    107.2077    118.2265   7.9903995079e+01   3.7614740989e+01     0.220845    0.2003717 -13.66 0.0004150981    1.139    0.122
        40  -8.5675     82.8092    117.1996   8.7265998186e+01   4.2200439054e+01    0.2031639    0.1699416 -21.35 0.0003092699    1.267    0.211
        41  -9.8314    231.3277    113.7538   5.1365844903e+01   1.2673306450e+01    0.2454596    0.2227868 -42.81 0.0007855805    1.047    0.045
        42 -10.1507    134.8488    128.6786   7.4747660852e+01   2.9657493723e+01    0.3602237    0.3171062 -60.68  0.001794928    1.209    0.173
        43 -11.2315     70.7888    167.1253   1.0076356961e+02   3.1404860806e+01    0.3442243    0.2630313 -22.41  0.001710235    1.664    0.399
        44 -11.0162    246.6236    109.8268   4.8359735215e+01   1.0561518113e+01    0.4042286    0.1029729 -40.25  0.001420936    3.209    0.688
        45  -9.3810    205.4795    110.1403   5.4724668707e+01   1.8395703198e+01    0.2902911    0.2083722  40.73  0.000961223    1.578    0.366
        46 -10.5097     32.9433    108.3160   1.0242718248e+02   5.0770839903e+01    0.4053273    0.2165334 -72.17  0.001816262    1.974    0.493
        47  -9.2984    115.1609    109.0016   7.5136234288e+01   3.8161995179e+01    0.2671391    0.1789374 -20.64  0.001085967    1.979    0.495
        48 -10.4880    113.0476    172.6342   9.0174471224e+01   2.3384510983e+01    0.3632858    0.1405289  36.14  0.001260451    2.527    0.604
        49 -10.2105    119.1385    103.7157   7.2547630838e+01   3.8508590433e+01    0.2692098    0.2176148 -55.92 0.0006791652    1.329    0.248
        50  -9.9916     41.7582    103.4570   9.8259433381e+01   5.1095832374e+01    0.3478405    0.1894422  44.15  0.001012052    2.238    0.553
        51  -9.7725     36.0130    100.9854   9.9832321376e+01   5.2273609947e+01    0.2905754    0.1616402  49.21  0.001290452    2.414    0.586
        52 -10.4139    244.8524    100.3491   4.6626894032e+01   1.2428328731e+01    0.2352514    0.1237375  67.11  0.001098796    2.620    0.618
        53  -9.8528    120.8300     98.1240   7.0504161376e+01   3.9348591464e+01    0.2357802    0.2174847 -86.09 0.0006604826    1.241    0.194
        54 -11.1791    240.9746    169.3002   6.1367663243e+01   1.4202079308e+00    0.3068638    0.2222463  47.40  0.001761454    1.768    0.435
        55  -8.5783    193.2691    169.6561   7.0375406678e+01   9.2994782925e+00    0.1368389    0.1156281 -71.84 0.0003773507    1.611    0.379
        56  -8.6195    152.2050     84.0432   5.8559887527e+01   3.5076141452e+01    0.2475388    0.1682265 -66.25   0.00104633    1.943    0.485
        57  -9.5017     73.4030     83.9185   8.1538551099e+01   5.1398433723e+01    0.2514655    0.1979011  48.84 0.0005942041    1.489    0.329
        58  -8.9285    159.7776     83.2034   5.6677214129e+01   3.3466091210e+01    0.2045208    0.1783341  14.38  0.000591053    1.341    0.254
        59  -8.6005    110.5311    167.0685   8.9793874402e+01   2.5163006743e+01    0.2289476    0.1507992 -57.98  0.001014114    1.564    0.360
        60  -8.3489     94.6537     68.2753   6.9265907149e+01   5.0672456091e+01    0.1395952    0.1175718  78.41  0.000463689    1.628    0.386
        61  -8.8622     51.9720     64.2966   8.3655038064e+01   5.8637005145e+01    0.1844621    0.1596264   6.86 0.0004277297    1.114    0.102
        62 -10.1149     13.4031     60.1287   9.9401325950e+01   6.3373624840e+01    0.2586213    0.1795703 -38.17  0.000524099    1.158    0.136
        63 -12.9067    192.7702     49.7201   4.2164771055e+01   3.1068804485e+01    0.8951838    0.8157173  11.41 0.0009717491    1.421    0.296
        64 -10.3117    191.2471    191.6667   7.5235611251e+01   5.4152975971e+00    0.4720576    0.2952415 -69.63  0.001716115    3.960    0.748
        65  -9.8226    111.0482    203.5361   9.5925546730e+01   1.6542468269e+01    0.2445635    0.1982203 -88.20 0.0005867042    1.452    0.311
        66 -11.1115      1.8152     50.1136   1.0222374849e+02   6.6113850402e+01    0.7634229   0.05973085 -61.60  0.001869506    8.568    0.883
        67  -9.0812     78.2905     57.3572   7.1075257945e+01   5.5741558309e+01    0.2465268    0.1739536  47.49  0.001256635    1.552    0.356
        68  -9.5922    120.0205    244.9719   9.9610163915e+01   6.6906081971e+00    0.1500969    0.1424491  39.56 0.0008191758    1.114    0.102
        69  -8.8135    198.0510     23.3024   3.5196392731e+01   3.3198273290e+01    0.1751126    0.1425685 -88.82 0.0004801569    1.061    0.057
        70  -8.7109    189.4924     14.9833   3.4138945850e+01   3.6043389741e+01    0.1730959    0.1177345 -37.47 0.0006622301    1.557    0.358
        71  -9.4841    107.6211    203.8322   9.6808363043e+01   1.7022214261e+01    0.1948594    0.1363434 -74.75 0.0009438174    1.713    0.416
        72  -8.8630     94.2767    204.3362   1.0015060624e+02   1.8975174551e+01    0.1369519    0.1079123 -24.90 0.0003059776    1.609    0.379
        73 -10.8945    119.6394    214.0004   9.5448991392e+01   1.2895873607e+01    0.4153306    0.2516563 -47.52  0.002001267    1.794    0.442
