#   1 NUMBER                 Running object number                                     
#   2 MAG_AUTO               Kron-like elliptical aperture magnitude                    [mag]
#   3 X_IMAGE                Object position along x                                    [pixel]
#   4 Y_IMAGE                Object position along y                                    [pixel]
#   5 X_WORLD                Barycenter position along world x axis                     [deg]
#   6 Y_WORLD                Barycenter position along world y axis                     [deg]
#   7 A_WORLD                Profile RMS along major axis (world units)                 [deg]
#   8 B_WORLD                Profile RMS along minor axis (world units)                 [deg]
#   9 THETA_WORLD            Position angle (CCW/world-x)                               [deg]
#  10 FWHM_WORLD             FWHM assuming a gaussian core                              [deg]
#  11 ELONGATION             A_IMAGE/B_IMAGE                                           
#  12 ELLIPTICITY            1 - B_IMAGE/A_IMAGE                                       
         1 -10.1041    240.6674     56.6807   6.6767656455e+00   1.8994036307e+01    0.1130638   0.09386132  13.83 0.0004444188    1.695    0.410
         2  -9.8481    197.6071    247.4706   5.0590937454e+01  -2.0258561765e+00    0.2056852    0.1797663  51.42  0.001418057    1.983    0.496
         3  -8.8971    206.6611    247.3351   4.8910359281e+01  -3.1122415692e+00    0.1006731   0.08394617  37.69 0.0007051482    1.751    0.429
         4  -8.8491    219.9727    246.0000   4.6344948121e+01  -4.5207299497e+00    0.1711618   0.05129419  31.66 0.0007855317    2.827    0.646
         5  -8.8687    210.3273    244.6536   4.7857946020e+01  -3.2246278854e+00   0.09905548   0.08547904  35.99 0.0007050075    1.751    0.429
         6  -9.4772    177.9444    243.2647   5.3746343273e+01   1.0378192968e+00    0.2332603    0.1667809 -65.28  0.001306153    2.954    0.661
         7  -8.9844    168.7060    243.4006   5.5591792861e+01   2.2452361089e+00    0.1108481   0.08919397  53.27 0.0006996946    1.807    0.447
         8  -9.4481    201.9729    242.1920   4.9019538706e+01  -1.8982551350e+00    0.1731944     0.119325  43.77  0.001069971    2.034    0.508
         9  -9.5004    195.0666    239.6078   4.9928868867e+01  -6.9331097045e-01    0.1771115    0.1532996 -11.08 0.0009376795    1.335    0.251
        10  -8.9699    209.4757    239.5196   4.7251278395e+01  -2.4860502688e+00    0.1162692   0.08759181   9.01 9.906278e-05    1.050    0.047
        11  -9.1796    200.0000    237.9220   4.8754318007e+01  -1.1005926584e+00    0.1625187   0.06253035 -38.60 0.0005247122    2.832    0.647
        12  -9.0217    190.3752    237.2022   5.0466549395e+01   2.3438362817e-01    0.1415047    0.1108574 -40.84 0.0008433321    1.704    0.413
        13  -8.9390    177.3000    237.6375   5.3075568087e+01   1.9080549835e+00     0.109604   0.09100523  49.63   0.00057494    1.722    0.419
        14  -9.8646    220.4908    234.2608   4.4485834316e+01  -3.1674408206e+00    0.2791572    0.1710203  40.34  0.001692946    2.098    0.523
        15  -9.0037    213.7467    233.9847   4.5641725210e+01  -2.3131764927e+00    0.1372375   0.08757581 -26.48 0.0006456309    1.534    0.348
        16  -8.8295    209.6734    233.3202   4.6276024937e+01  -1.7229869069e+00    0.1013779   0.08867284  35.96 0.0005558138    1.682    0.406
        17 -10.0542    195.7105    232.3685   4.8726097983e+01   1.9161637648e-01    0.2617747    0.1815266 -33.35  0.001686051    1.597    0.374
        18  -9.4143    187.9173    232.6816   5.0268307878e+01   1.1800296705e+00    0.1777586      0.12883  20.46   0.00109561    1.112    0.101
        19  -9.2083    170.4987    235.0907   5.4069112919e+01   3.1992238384e+00    0.1613828    0.1187259 -35.41 0.0007881103    1.567    0.362
        20  -9.5872    177.1828    229.9445   5.1973970523e+01   3.0309949801e+00    0.3538362    0.1438414 -51.08  0.001480135    3.964    0.748
        21  -8.9658    158.5382    231.0504   5.5947647637e+01   5.4795321472e+00    0.1484595    0.1150502 -87.70 0.0008092184    2.565    0.610
        22  -9.2804    203.2375    230.1605   4.6973457744e+01  -4.9069706143e-01    0.1500737    0.1282152  21.33 0.0008018214    1.359    0.264
        23  -8.6428    216.6332    229.3161   4.4400806562e+01  -2.0761415004e+00    0.1018723    0.0890299  38.85 0.0007038384    1.775    0.437
        24  -9.5766    211.4433    228.2256   4.5163989275e+01  -1.2850773927e+00    0.1842398    0.1758121  -7.53 0.0009327186    1.620    0.383
        25  -9.5650    167.5120    227.6067   5.3589791525e+01   4.7363256235e+00    0.2223374    0.1238405 -44.25  0.001139886    2.122    0.529
        26  -9.0787    162.5676    227.7740   5.4637277065e+01   5.4146798090e+00    0.1474627    0.1252633 -56.93 0.0009401664    1.680    0.405
        27  -9.3312    190.3831    226.7609   4.8889341904e+01   1.6799029411e+00    0.1582394    0.1023521 -21.82  0.000519041    1.568    0.362
        28  -9.4201    218.9610    226.0000   4.3463641846e+01  -1.9403955945e+00    0.1559713    0.1410074  33.00 0.0008738536    1.699    0.412
        29 -10.7204    206.1751    224.6328   4.5563207246e+01  -1.3000742340e-01     0.244676     0.187185   1.10  0.001164103    1.056    0.053
        30  -9.1482    196.3162    225.6589   4.7577234575e+01   1.0342955970e+00    0.1067994   0.09448282  46.49 0.0007048395    1.708    0.415
        31  -9.5570    179.8361    223.6535   5.0488979344e+01   3.5900448885e+00    0.3163935   0.09311764 -47.49  0.001146021    4.720    0.788
        32  -8.7341    156.3405    225.6868   5.5641101084e+01   6.6401570733e+00    0.1235146   0.09242986  51.64 0.0003701015    1.699    0.412
        33 -10.3828    184.6522    221.8564   4.9249636552e+01   3.1799022084e+00    0.3927381    0.2094679 -54.39  0.001805647    3.369    0.703
        34  -8.9571    200.5348    223.5151   4.6439741077e+01   7.6772603623e-01    0.1231206   0.09535187   7.50 0.0002120593    1.002    0.002
        35 -10.2572    175.0400    222.6032   5.1295723127e+01   4.4281512886e+00    0.1836501     0.172115  81.00  0.001220231    1.691    0.409
        36  -8.9638    147.2851    223.6463   5.7287711518e+01   8.2954314316e+00    0.1217419   0.09575312  57.10 0.0004756594    1.665    0.399
        37 -10.8065    195.1005    220.9889   4.7072871497e+01   1.8576046675e+00     0.240706    0.2308397   0.92  0.001140925    1.474    0.321
        38 -10.7138    211.2460    218.6392   4.3667901257e+01   1.8099437406e-02    0.2833362    0.2432459 -72.49   0.00134208    2.498    0.600
        39  -9.8840    200.8311    216.8845   4.5318179496e+01   1.6579081110e+00    0.3220667    0.1631983 -50.93  0.001465389    3.407    0.706
        40  -9.6370    179.9372    217.1835   4.9455557372e+01   4.5527356972e+00    0.1931033    0.1640854 -51.13 0.0008041824    1.663    0.399
        41  -8.9740    143.3906    217.1918   5.7209710441e+01   9.9700613637e+00    0.1628029    0.1299603 -65.49 0.0009482434    1.744    0.427
        42 -11.9447    218.5668    209.8177   4.0884567949e+01   2.5634781651e-01    0.4534851    0.2376366 -33.86   0.00253071    1.851    0.460
        43 -10.2670    170.0940    213.4600   5.0884874399e+01   6.5804759661e+00    0.3110939    0.2317636 -41.54  0.001352296    1.562    0.360
        44  -9.4223    154.5333    214.2513   5.4324830303e+01   8.7898341968e+00    0.2138272    0.1325138 -50.65  0.001120461    2.000    0.500
        45 -11.3789    192.9886    211.2388   4.5896857402e+01   3.5769609608e+00    0.4982916    0.1785505 -45.06  0.002062317    3.407    0.707
        46  -8.7283    188.4191    220.2127   4.8247415362e+01   2.8943386207e+00    0.1503815    0.1178234 -44.08 0.0009402565    1.676    0.403
        47 -11.3573    203.3194    209.1796   4.3571599851e+01   2.4198989484e+00    0.5925333    0.2189614 -49.08   0.00208664    5.201    0.808
        48  -9.2993    226.0362    210.0535   3.9612158734e+01  -7.4865965235e-01    0.1534076    0.1486532 -15.49  0.000942146    1.668    0.401
        49  -9.8672    176.4919    208.9979   4.8835186993e+01   6.3400318654e+00    0.1788135    0.1233473 -35.41 0.0005926704    1.547    0.354
        50  -9.6103    183.7026    207.5180   4.7119439938e+01   5.4989391952e+00    0.2046962    0.1118218 -39.64 0.0009931797    1.958    0.489
        51  -9.7432    199.4619    211.4932   4.4690423903e+01   2.6233003398e+00    0.1913121     0.115847 -47.48 0.0008638072    2.235    0.553
        52  -9.8157    160.3553    211.2507   5.2599092182e+01   8.4110751494e+00    0.2615941    0.1574889 -47.19  0.001227153    1.962    0.490
        53  -9.1291    138.6497    206.8235   5.6729817527e+01   1.2544340073e+01    0.1695748    0.1312284 -61.96 0.0009434753    1.685    0.406
        54  -9.5764    188.5046    205.9296   4.5890816297e+01   5.0357665246e+00    0.1808292    0.1184136 -32.30  0.000656824    1.555    0.357
        55  -9.4925    149.2821    205.4396   5.4108853854e+01   1.1128751622e+01    0.2100645    0.1752334 -84.55  0.001187503    1.825    0.452
        56 -10.6858    193.4752    202.0191   4.4241981225e+01   4.9058738605e+00    0.2713239     0.171559 -38.44 0.0009066965    1.681    0.405
        57  -8.8700    171.0000    204.9608   4.9311824523e+01   7.8306539840e+00    0.1950403   0.07376361 -43.75 0.0007953537    2.894    0.654
        58  -9.6412    175.8142    203.9213   4.8131044943e+01   7.2633828987e+00    0.2119942    0.1769183 -36.05 0.0008790564    1.368    0.269
        59  -9.7900    176.1164    197.3165   4.6939149852e+01   8.3078604708e+00    0.4778006   0.07279842 -42.55  0.001256525    6.800    0.853
        60  -9.2194    186.0717    215.6898   4.7987160925e+01   3.8983040665e+00    0.1825703    0.1378375  16.42 0.0006799796    1.092    0.085
        61 -10.4330    185.9600    194.5050   4.4422567252e+01   7.2346625487e+00    0.3327816    0.1896493 -43.44  0.001231828    1.944    0.486
        62 -10.0696    180.5146    199.0371   4.6326435368e+01   7.3390231279e+00     0.286977    0.1237176 -39.96 0.0008419401    2.429    0.588
        63  -9.5450    160.5934    202.7641   5.1177400701e+01   9.8211219418e+00    0.2293698    0.1262292 -40.26  0.001047227    1.974    0.493
        64  -9.9745    186.3352    200.8846   4.5462930564e+01   6.1514962608e+00    0.3774022    0.1381025 -40.92  0.001576499    2.861    0.650
        65  -9.5325    230.3370    200.8642   3.7303593432e+01  -7.2992265205e-02     0.196283    0.1438991  28.19 0.0009313273    1.409    0.290
        66 -10.6652    210.6366    200.5281   4.0726009427e+01   2.6494865455e+00    0.2506145    0.2030962 -42.59  0.001063908    1.619    0.382
        67  -9.8310    209.6364    195.4143   4.0009525895e+01   3.5433030416e+00    0.2286268    0.1568514 -29.26 0.0007751132    1.389    0.280
        68 -10.0683    167.2582    197.2635   4.8807734269e+01   9.7172672075e+00    0.2443301    0.1629399 -42.63 0.0009535093    1.655    0.396
        69  -9.0755    224.5089    198.5221   3.7896150860e+01   1.0214262588e+00    0.1214614   0.09782338  -2.47 0.0001174507    1.053    0.051
        70 -10.9233    202.3826    197.6112   4.1755415903e+01   4.2683326917e+00    0.2774363    0.2408521  71.52  0.001642035    2.055    0.513
        71 -10.6192    199.0631    191.7958   4.1353025786e+01   5.6566992626e+00    0.3099843    0.1684901 -39.93  0.001577656    1.907    0.476
        72  -9.1859    181.3065    202.6727   4.6788438746e+01   6.6282124395e+00    0.1924474     0.130315 -40.44 0.0008097643    1.630    0.387
        73  -9.1397    162.4576    198.5178   5.0061199564e+01   1.0264536816e+01    0.1786682    0.1320845 -52.72 0.0001957533    1.712    0.416
        74  -9.4238    162.1967    194.0292   4.9349813333e+01   1.1096987537e+01    0.2456698    0.1727698 -28.06 0.0009915342    1.510    0.338
        75  -9.2092    138.5814    197.6779   5.5313413985e+01   1.4260257884e+01    0.2491833    0.1297652 -43.28  0.001133106    2.134    0.531
        76 -10.9427    215.5282    196.5016   3.9128769452e+01   2.5449508961e+00    0.2122297    0.1852451 -48.26   0.00105496    1.691    0.408
        77  -9.8332    214.6167    192.7722   3.8628884214e+01   3.2178665724e+00    0.2202642    0.1559716 -13.11 0.0008393276    1.273    0.214
        78  -9.3695    144.4126    196.3408   5.3743929110e+01   1.3567540092e+01    0.2445299     0.129396 -41.94  0.001120714    2.084    0.520
        79 -10.8127    205.9183    189.7051   3.9674014733e+01   4.9494377671e+00    0.4870477    0.1650049 -40.41  0.001988829    2.976    0.664
        80 -10.4261    171.4009    191.4817   4.6910245143e+01   1.0051760984e+01    0.4328768    0.1725888 -51.69  0.001593487    3.645    0.726
        81  -9.7270    195.7818    195.9512   4.2730640787e+01   5.5031635241e+00    0.2745004    0.1728408 -46.72  0.001038511    1.971    0.493
        82  -8.4859    157.3389    193.2899   5.0297052429e+01   1.2020791642e+01    0.1417037   0.09886302   3.08 0.0003885081    1.642    0.391
        83  -9.4149    194.3889    190.2059   4.1973268289e+01   6.6222256869e+00    0.2963714    0.1530887 -49.69  0.001216458    2.648    0.622
        84  -8.9523    192.0000    186.0164   4.1678231492e+01   7.6713655760e+00    0.1838818    0.1364224 -47.84  0.000726189    1.673    0.402
        85  -8.7119    237.6844    189.3243   3.4047168265e+01   5.2852492869e-01    0.1025494   0.09411736 -43.62 0.0007042981    1.667    0.400
        86  -9.7590    211.0916    188.9180   3.8573542927e+01   4.3023114476e+00    0.2087679    0.1624666 -35.47 0.0008017172    1.402    0.287
        87  -9.7909    210.5199    183.9677   3.7769351168e+01   5.1383142107e+00    0.2579474     0.142205 -44.84 0.0009320098    2.114    0.527
        88 -10.1315    174.3041    188.4205   4.5744674491e+01   1.0110290201e+01     0.201198    0.1717272 -65.11 0.0009300549    1.687    0.407
        89  -9.9735    177.4727    184.4641   4.4354338954e+01   1.0276015654e+01    0.3204919    0.1588554 -48.02 0.0009573025    2.387    0.581
        90  -9.3339    175.4628    179.5037   4.3853714980e+01   1.1477615464e+01    0.2419706    0.1320851 -45.57 0.0006985319    2.012    0.503
        91  -9.4502    183.2705    186.0403   4.3441914912e+01   9.0619543327e+00    0.2543035    0.1611607 -44.99 0.0009318336    1.779    0.438
        92 -10.3696    184.6026    182.2248   4.2462197329e+01   9.4904385499e+00    0.2523971    0.1285086 -34.45 0.0009975983    2.006    0.502
        93  -9.0482    150.6451    186.7776   5.0678511738e+01   1.4336235473e+01    0.1810025    0.1344334 -54.57 0.0008069181    1.635    0.388
        94  -9.2201    157.5134    186.0501   4.8986191187e+01   1.3317185358e+01    0.1961728    0.1373743 -43.49 0.0009789505    1.554    0.356
        95  -9.3665    142.2831    185.5848   5.2419356828e+01   1.5975935635e+01    0.2373665    0.1259667 -46.50  0.001055367    2.051    0.512
        96  -9.0894    224.9882    184.0063   3.5209256632e+01   3.0166717835e+00    0.1693354    0.1532732 -55.00  0.001026678    1.704    0.413
        97  -9.0919    202.6551    184.6983   3.9370006938e+01   6.2208012197e+00    0.1367551    0.0894644   1.66 0.0007038732    1.683    0.406
        98  -9.3256    188.4162    184.2685   4.2070068172e+01   8.5298433831e+00    0.1726333    0.1248102 -44.88  0.000944106    1.599    0.374
        99  -9.1625    156.6001    196.8246   5.1064759050e+01   1.1503979906e+01    0.1735505    0.1333994 -56.68 0.0009459717    1.687    0.407
       100  -8.9815    162.4875    184.4715   4.7589882857e+01   1.2770799190e+01    0.1391215    0.1239186  17.49 0.0001223009    1.047    0.045
       101  -9.2670    134.1679    183.4473   5.3993155911e+01   1.7773936789e+01    0.2548814    0.1026084 -47.12 0.0009755459    2.681    0.627
       102  -9.7988    198.9396    182.4534   3.9661755844e+01   7.1547143327e+00    0.2119533    0.1528153 -29.61 0.0008599003    1.331    0.249
       103  -9.1663    190.9669    191.5230   4.2886383208e+01   6.9404549983e+00     0.318507    0.1766081 -57.33  0.001294207    3.607    0.723
       104 -10.1826    204.6564    181.3261   3.8364249791e+01   6.4425021786e+00     0.263116    0.1739148 -49.86  0.000906524    2.003    0.501
       105  -9.6469    194.9068    180.2985   4.0039779993e+01   8.1436366224e+00    0.4072349    0.1248812 -38.44   0.00149716    3.254    0.693
       106  -8.5194    243.0192    182.0000   3.1871843913e+01   8.2078686922e-01    0.1771381   0.06345847  38.06 0.0008066845    2.972    0.664
       107  -8.9261    213.6937    181.3284   3.6701794935e+01   5.0644330241e+00    0.1113269    0.1040579 -66.56 0.0007037299    1.655    0.396
       108 -11.0423    190.1136    177.8432   4.0522023216e+01   9.3275866468e+00    0.4454836    0.2022695 -48.59   0.00183804    2.797    0.643
       109  -9.0403    180.5285    181.0159   4.3074888163e+01   1.0367494917e+01    0.1937683     0.129863 -39.65  0.001011941    1.552    0.356
       110  -9.2316    145.4211    179.9383   5.0675005362e+01   1.6544719225e+01    0.2060272     0.139899 -45.20 0.0007005164    1.593    0.372
       111  -9.4704    219.6248    178.8446   3.5182691660e+01   4.5551583158e+00     0.174744    0.1077967 -42.53 0.0009427773    1.786    0.440
       112  -9.4396    163.8511    177.3525   4.5968864855e+01   1.3848518156e+01    0.2268047    0.1914073 -47.14 0.0008386701    1.363    0.266
       113  -9.7339    166.3200    186.9997   4.7204650447e+01   1.1673298031e+01    0.1941092    0.1661171 -19.58  0.000833535    1.170    0.145
       114  -9.0586    178.6110    176.7929   4.2675688232e+01   1.1424112072e+01    0.1824276    0.1288505 -48.53 0.0009434391    1.663    0.399
       115  -9.5224    170.5198    176.0771   4.4263575257e+01   1.2932480608e+01    0.2027902    0.1347094 -40.19 0.0009927225    1.562    0.360
       116  -8.9190    158.3682    175.8372   4.6914374731e+01   1.5085325702e+01    0.1962856     0.126575 -31.03 0.0006278249    1.681    0.405
       117  -9.2757    195.8824    175.1032   3.8859733900e+01   8.8409607536e+00    0.1880161    0.1779997   0.02 0.0007248176    1.217    0.178
       118  -9.2269    152.6039    174.2126   4.7931483774e+01   1.6409322556e+01    0.1986831    0.1308388 -32.29 0.0009485052    1.648    0.393
       119  -9.1705    173.8455    173.3387   4.3020998055e+01   1.2854272710e+01    0.1844301    0.1682528 -30.97 0.0006174653    1.196    0.164
       120  -9.0892    164.5888    172.7240   4.4921733093e+01   1.4581582245e+01    0.1822584    0.1365558 -50.23 0.0008462643    1.547    0.354
       121 -11.3842    205.5123    167.9961   3.5646373561e+01   8.4355717243e+00    0.6669132     0.184135 -45.06  0.002128978    4.499    0.778
       122  -9.4728    158.5863    169.7187   4.5690733319e+01   1.6215677176e+01    0.1868472    0.1392692 -52.24 0.0009451805    1.564    0.361
       123 -10.0502    192.5369    172.6545   3.9042206558e+01   9.8000267070e+00    0.3195658    0.1204364 -34.97   0.00123867    2.759    0.638
       124  -8.8564    142.6628    170.6912   4.9621214598e+01   1.8874397081e+01    0.1508237    0.1100887  -0.51 0.0007043236    1.681    0.405
       125  -8.7474    171.7637    168.9689   4.2614996565e+01   1.4013223020e+01    0.1808604    0.1149301 -38.87 0.0008741409    1.600    0.375
       126  -8.6526    224.2727    167.6592   3.2254112548e+01   5.5398059396e+00    0.1146753   0.09732117 -51.99  0.000365754    1.611    0.379
       127  -9.1564    217.3797    167.2670   3.3364797025e+01   6.6602281360e+00    0.1757134    0.1107554 -41.21 0.0009414053    1.635    0.388
       128  -8.8906    190.3239    166.8085   3.8331384654e+01   1.1167484911e+01    0.1933493    0.1157421 -29.30 0.0006802573    1.682    0.406
       129  -9.4314    179.2280    166.6466   4.0565308631e+01   1.3119835256e+01    0.2331513    0.1842472 -46.53  0.001190689    1.429    0.300
       130 -10.2404    200.5726    165.5037   3.6080280257e+01   9.6566359675e+00    0.2261934    0.1178845 -37.36 0.0009425707    1.841    0.457
       131 -10.3951    213.0420    164.2441   3.3538316226e+01   7.8199604369e+00    0.3337947    0.1582581 -35.81  0.001563264    1.959    0.490
       132  -9.7123    182.9235    162.3380   3.8930742429e+01   1.3238093557e+01    0.3047294    0.1913578 -42.44  0.001497202    1.639    0.390
       133  -9.1732    159.7619    164.0205   4.4295626172e+01   1.7103003092e+01    0.1843496    0.1203882 -42.38 0.0005848128    1.589    0.371
       134  -9.7438    207.6012    160.9174   3.3857010531e+01   9.2407855479e+00    0.3636285    0.1163913 -41.33  0.001352871    3.057    0.673
       135  -9.0553    176.3668    169.7320   4.1779752849e+01   1.3066365483e+01    0.1911035     0.123653 -29.17 0.0006368995    1.595    0.373
       136  -9.7496    192.0000    161.8362   3.7001031823e+01   1.1734429758e+01    0.3711618   0.07415891 -40.71  0.001047525    4.900    0.796
       137  -9.0558    187.6139    163.2762   3.8165979674e+01   1.2247746807e+01     0.193723     0.121229 -27.18 0.0009383316    1.639    0.390
       138  -8.9944    171.7896    163.0439   4.1424856863e+01   1.5102361831e+01    0.1853762    0.1117874 -41.21 0.0008505006    1.690    0.408
       139  -8.9117    146.4430    163.4811   4.7309604661e+01   1.9652589575e+01    0.1472908    0.1351039  13.07   0.00015759    1.021    0.021
       140  -9.2218    153.4706    161.8740   4.5318179828e+01   1.8680082452e+01    0.2134169    0.1435313 -43.36 0.0007616898    1.552    0.355
       141  -8.5056    159.6452    159.7083   4.3447809918e+01   1.7962827589e+01    0.1517092    0.1092846   3.84 0.0007029026    1.683    0.406
       142  -9.0530    187.5230    155.5055   3.6591487354e+01   1.3630309921e+01    0.2440272    0.1310628 -38.29 0.0008130558    1.816    0.449
       143  -8.5754    179.6281    158.7060   3.8870577508e+01   1.4481244522e+01    0.1490447    0.1038803   4.81 0.0007026149    1.730    0.422
       144  -9.6072    217.6410    156.8170   3.1253858996e+01   8.2508154085e+00    0.1837382    0.1097706 -42.32 0.0009419165    1.700    0.412
       145  -9.6401    204.5165    155.6450   3.3353699831e+01   1.0625018940e+01    0.3180277    0.1221352 -40.39  0.001280456    2.495    0.599
       146  -9.2251    176.0000    156.9279   3.9266114314e+01   1.5467624039e+01    0.2248519   0.07879345 -41.90 0.0007907581    2.862    0.651
       147  -8.9007    167.4611    156.5090   4.1028637900e+01   1.7125631772e+01     0.144601    0.1329284   5.18  8.21576e-05    1.004    0.004
       148  -9.3574    172.0000    154.9843   3.9717223621e+01   1.6568547006e+01    0.2270995   0.07995041 -42.35 0.0006866903    2.862    0.651
       149  -9.3525    158.4656    154.0089   4.2534725507e+01   1.9303392031e+01    0.2222855    0.1432701 -42.31   0.00103083    1.591    0.371
       150 -10.0027    184.1244    151.8943   3.6520841023e+01   1.4892347856e+01    0.4435351    0.0868504 -42.71  0.001188209    5.136    0.805
       151  -9.5189    170.5107    150.9583   3.9187993136e+01   1.7607710965e+01    0.2172037    0.1391269 -38.51 0.0008307301    1.561    0.359
       152  -9.1633    163.5851    150.7580   4.0678377581e+01   1.8964911770e+01    0.1971572    0.1397713 -51.27  0.000943776    1.589    0.371
       153  -9.0437    215.4499    148.0486   2.9846920706e+01   1.0006622830e+01    0.2033016    0.1172724 -34.18 0.0007437633    1.575    0.365
       154  -9.0609    191.8132    147.9767   3.4157974610e+01   1.4178859739e+01    0.1887958     0.101527 -37.76 0.0006110097    1.787    0.440
       155  -9.2452    133.0000    148.0195   4.7488139400e+01   2.5434791820e+01    0.2465387   0.08722709 -48.29 0.0008042203    2.955    0.662
       156  -9.0001    186.7729    146.0156   3.4731906679e+01   1.5457172763e+01    0.1901369    0.1114146 -38.45 0.0008770567    1.654    0.396
       157  -9.4996    197.6652    169.2482   3.7376015727e+01   9.5186347034e+00    0.3447961    0.1140074 -35.40  0.001256282    3.121    0.680
       158  -9.0488    155.4710    144.9902   4.1290602637e+01   2.1680949632e+01    0.2215789    0.1457635 -42.11 0.0008663163    1.549    0.354
       159  -9.0622    195.3788    143.8212   3.2582453840e+01   1.4250658369e+01    0.1977402    0.1223551 -27.78  0.000814196    1.631    0.387
       160  -9.0709    171.4222    144.4838   3.7588432161e+01   1.8661782220e+01    0.1449439    0.1343971  -3.67 0.0001442571    1.014    0.014
       161  -9.5420    148.3050    142.6653   4.2485099205e+01   2.3571524869e+01    0.2994579    0.1886447 -40.72  0.001335112    1.628    0.386
       162  -9.2401    138.3848    143.2586   4.5078787477e+01   2.5410513110e+01    0.2088964    0.1465006 -56.53 0.0009464025    1.631    0.387
       163  -9.2078    176.4011    151.0517   3.7944140233e+01   1.6480059454e+01    0.2173721    0.1339781 -37.91  0.001015563    1.606    0.377
       164  -8.4486    180.0000    139.9710   3.4782826295e+01   1.7843297756e+01    0.2288752   0.07913677 -40.59 0.0005997774    2.832    0.647
       165  -8.9772    174.7972    139.9618   3.5866320883e+01   1.8858497881e+01    0.1964379    0.1119821 -39.19 0.0008595732    1.730    0.422
       166  -9.2178    167.0455    139.5065   3.7438956063e+01   2.0474089888e+01    0.2185647    0.1422032  41.21 0.0005235856    1.526    0.345
       167  -8.5706    219.6908    137.6965   2.6979397568e+01   1.0936964822e+01    0.1325625   0.09522192  -0.74 0.0005152908    1.607    0.378
       168  -9.1609    209.6231    137.2673   2.8585384307e+01   1.2774185716e+01    0.1901699    0.1169242 -27.37 0.0008597549    1.585    0.369
       169  -9.1150    200.5009    136.4958   3.0040905731e+01   1.4566421915e+01    0.2450012    0.1238622 -27.44  0.001023521    2.200    0.546
       170  -8.6412    172.3113    137.2968   3.5797472998e+01   1.9851636126e+01    0.1482043    0.1115287   3.10 0.0003298863    1.598    0.374
       171  -9.2497    155.1762    135.1464   3.9145639983e+01   2.3725129579e+01    0.2047564    0.1795886 -66.42 0.0009470144    1.343    0.255
       172  -9.1023    164.6208    133.8313   3.6685295872e+01   2.2063356739e+01    0.2089498    0.1379828 -49.97 0.0009462342    1.645    0.392
       173  -9.0446     23.9284    132.5262   7.8263887117e+01   4.5618661308e+01    0.1803868    0.1339536  22.11 0.0003631098    1.460    0.315
       174  -9.5062    173.5742    128.7939   3.3579579720e+01   2.1205220861e+01    0.2749527    0.1390207 -35.43 0.0009659126    2.021    0.505
       175  -9.1882    182.5270    133.9281   3.2915257691e+01   1.8458153890e+01    0.2176238    0.1361696 -37.86  0.001017063    1.547    0.354
       176  -9.2821    165.0000    127.9759   3.5236300433e+01   2.3125470900e+01    0.2421485   0.08353445 -41.58 0.0007938773    2.883    0.653
       177  -9.6388    169.0000    126.8988   3.4109502228e+01   2.2504820700e+01    0.2394536   0.08264717 -41.01 0.0007909541    2.863    0.651
       178  -9.3233    137.0000    126.0265   4.1465060173e+01   2.9381956070e+01    0.2507251   0.08844902 -45.40 0.0007963829    2.901    0.655
       179  -9.4671    181.5139    124.9971   3.1067537194e+01   2.0291630102e+01    0.2245826    0.1376081 -37.85  0.001028386    1.578    0.366
       180  -8.8074    146.4422    124.4974   3.8721293296e+01   2.7717175677e+01    0.1530567    0.1460847   5.49 0.0001109311    1.036    0.035
       181  -9.0364    164.2123    123.0477   3.4235929925e+01   2.4246801072e+01    0.2001731    0.1188934 -39.46 0.0006958439    1.674    0.403
       182  -9.3166    170.5223    122.0154   3.2623001538e+01   2.3117283088e+01    0.2277234    0.1423584 -40.99  0.001024254    1.575    0.365
       183  -8.7927    152.3586    121.2752   3.6511369603e+01   2.7116949547e+01     0.156426    0.1183662  10.96 0.0003557569    1.655    0.396
       184  -8.6859    140.3225    121.6906   3.9558630399e+01   2.9601214287e+01    0.1545744    0.1247454  85.42 0.0004990073    1.648    0.393
       185  -9.4206    157.4275    119.7562   3.4959620202e+01   2.6334853636e+01     0.284829    0.1445966 -45.55 0.0009460052    2.014    0.504
       186  -9.0465    162.4122    117.9424   3.3391211852e+01   2.5620122232e+01    0.2312509    0.1437609 -41.63 0.0007719264    1.599    0.375
       187  -8.4172    149.3104    118.3511   3.6513826118e+01   2.8364077521e+01    0.1594217    0.1208739   0.44 0.0007044723    1.719    0.418
       188  -8.9853    153.0000    114.9784   3.4794495407e+01   2.8241862912e+01    0.2465333   0.08645201 -41.84 0.0005614118    2.864    0.651
       189  -8.8951    184.3192    114.6429   2.8070770083e+01   2.1583519199e+01    0.1480564    0.1130371 -71.51 0.0007045105    1.757    0.431
       190  -9.0105    170.0000    113.9073   3.0761161163e+01   2.4756873834e+01    0.2437429   0.08278644 -39.81 0.0007950605    2.892    0.654
       191  -9.1307    146.0000    111.9716   3.5698290275e+01   3.0381873643e+01    0.2498149    0.0876886 -42.40 0.0007453611    2.880    0.653
       192  -8.9386    176.7597    110.9359   2.8647449841e+01   2.3852184195e+01    0.1953012    0.1203338 -36.76  0.000873799    1.587    0.370
       193  -9.5115    203.6149     65.1777   1.2775603139e+01   2.5448592381e+01    0.1861859    0.1252632 -22.79 0.0006872867    1.688    0.408
       194 -10.1712    232.3347     63.3411   8.9554351044e+00   1.9727870559e+01    0.1204156   0.09658483  12.98 0.0007050998    1.756    0.431
