#   1 NUMBER                 Running object number                                     
#   2 MAG_AUTO               Kron-like elliptical aperture magnitude                    [mag]
#   3 X_IMAGE                Object position along x                                    [pixel]
#   4 Y_IMAGE                Object position along y                                    [pixel]
#   5 X_WORLD                Barycenter position along world x axis                     [deg]
#   6 Y_WORLD                Barycenter position along world y axis                     [deg]
#   7 A_WORLD                Profile RMS along major axis (world units)                 [deg]
#   8 B_WORLD                Profile RMS along minor axis (world units)                 [deg]
#   9 THETA_WORLD            Position angle (CCW/world-x)                               [deg]
#  10 FWHM_WORLD             FWHM assuming a gaussian core                              [deg]
#  11 ELONGATION             A_IMAGE/B_IMAGE                                           
#  12 ELLIPTICITY            1 - B_IMAGE/A_IMAGE                                       
         1 -12.9002    213.0811     47.8316   1.1035001564e+01   3.1345502602e+01    0.5588862    0.3969639 -54.20   0.00120903    1.359    0.264
         2 -12.2725      2.1200     35.6405   6.3464252686e+01   7.0696377530e+01      1.17558   0.09779269 -59.66  0.003112832    8.950    0.888
         3 -11.5989      2.2789     23.0113   5.9130706665e+01   7.2871331063e+01    0.5008418      0.18086 -56.19   0.00234387    3.255    0.693
         4 -12.8228    238.0725     28.2416   6.2997634283e+00   3.0107228214e+01    0.6275714    0.3367689 -79.44  0.004910575    1.520    0.342
         5 -11.9926    241.0034     22.2490   5.2621956699e+00   3.0395932006e+01    0.4935928    0.2212494 -80.08   0.00342085    1.992    0.498
         6 -11.2357     10.5435      9.5240   4.7871365615e+01   7.3917573964e+01     0.420565    0.1324763  37.38  0.001920817    2.532    0.605
         7 -11.8721      3.2114      8.0678   5.2377463286e+01   7.5054127676e+01    0.5311815    0.3564513 -35.97  0.003575171    1.720    0.419
         8 -10.0501    227.3593      9.6088   4.0825938240e+00   3.3806663364e+01    0.1878973    0.1117917 -68.39 0.0006741637    1.074    0.069
         9 -10.2170     71.9351    224.4963   6.7774882122e+01   1.5862255760e+01    0.3634215    0.1941391 -62.93 0.0009787086    1.900    0.474
        10  -9.9128    101.0697    249.6428   6.3140340287e+01   7.1952206793e+00    0.3847804     0.192654 -58.19  0.001131339    2.035    0.509
        11  -9.2613     99.9837    243.7149   6.2742947090e+01   8.5732333042e+00    0.3250198    0.2079609  60.94  0.001578688    2.251    0.556
        12  -9.3964     74.9564    250.0048   6.9593296750e+01   9.5738196451e+00    0.1973886     0.173036 -28.35 0.0006702053    1.157    0.136
        13  -9.6250     75.9743    245.2097   6.8866966657e+01   1.0558135057e+01     0.321619    0.1782663 -58.99 0.0005405004    1.856    0.461
        14 -16.1205     66.8457    145.7092   5.8555773315e+01   3.7216284414e+01     13.80052     8.001956  76.90   0.03782921    2.631    0.620
        15  -8.9690    194.6455    225.7741   4.0949195868e+01   3.4279704335e+00    0.1554292   0.09193689 -56.24 0.0005920216    1.685    0.407
        16 -15.6350      3.5712    247.3230   8.7996151910e+01   1.6358564972e+01     1.147217    0.7327986  38.67  0.005522799    1.346    0.257
        17  -9.1977    174.5415    179.4820   3.7791040693e+01   1.4168427311e+01    0.1247926    0.1033934 -46.88 -1.703443e-06    1.012    0.012
        18 -10.7204    171.7289    174.7224   3.7556751744e+01   1.5459896448e+01     0.312503    0.2556249 -59.31  0.001030565    1.136    0.120
        19 -11.6086    173.4633    170.9659   3.6657443902e+01   1.6001872377e+01    0.4559396    0.3334035  35.91  0.001989494    1.630    0.387
        20 -17.9506      6.0035    217.5101   8.5860912044e+01   2.3711301514e+01      6.37139     3.033895 -76.63   0.02071855    2.097    0.523
        21 -10.9302    179.4613    166.3477   3.4888632393e+01   1.6176163555e+01    0.5448535    0.3114876 -72.90  0.002594681    2.583    0.613
        22 -10.1124    111.2062    167.7519   4.9455072260e+01   2.5152341736e+01    0.3687616    0.2365754  89.68  0.001534002    2.282    0.562
        23  -8.9288     40.8191    165.8369   7.0289046914e+01   3.4946890058e+01    0.2138015    0.1700812  65.39  0.000426973    1.314    0.239
        24  -9.3249    229.6734    165.3495   2.7394697709e+01   1.0731482395e+01    0.1057538   0.07165285 -70.89 0.0007048924    1.757    0.431
        25 -10.6930     48.2856    161.0155   6.7120864261e+01   3.5450277660e+01    0.4036872    0.2490104  54.07 0.0005806682    1.767    0.434
        26 -11.2684    133.5148    144.0165   4.0011328059e+01   2.7332674593e+01    0.9245266     0.260275 -60.37  0.002588226    4.892    0.796
        27 -11.7861     86.9131    144.4990   5.2090398929e+01   3.4561262119e+01    0.6417339    0.4712467 -21.21  0.002983007    1.814    0.449
        28  -9.9876    210.7612    198.7008   3.4700189843e+01   6.7996401548e+00    0.1919283    0.1563702 -48.23 0.0005336871    1.142    0.124
        29 -10.7949     29.8560    143.5816   7.1284585865e+01   4.2362245098e+01    0.4825681    0.3647595  -9.05  0.001548646    1.495    0.331
        30 -10.5358     36.7904    142.4732   6.8546358113e+01   4.1929723181e+01    0.3299459    0.2534873 -78.24 0.0008015031    1.333    0.250
        31 -10.8385    108.9029    145.3603   4.6153340332e+01   3.0907252354e+01    0.2961659    0.2770992 -66.82 0.0006719571    1.030    0.029
        32 -11.4110     45.0312    135.4327   6.4415456425e+01   4.2886530797e+01    0.3945132    0.3730706  -8.96 0.0006018191    1.114    0.102
        33 -10.2219    192.1673    193.4328   3.6861290003e+01   9.5415158974e+00    0.6653422     0.308796 -70.35  0.001852233    8.678    0.885
        34 -11.8395    104.0336    131.6777   4.4858764769e+01   3.4945776572e+01    0.6711766    0.4810302  -3.65  0.002102957    2.345    0.574
        35 -10.7636     63.2106    225.3087   7.0230130889e+01   1.6558282942e+01    0.2692398    0.2376144 -50.14 0.0003556337    1.171    0.146
        36 -11.4861     88.6675    131.7418   4.9188056208e+01   3.7461741334e+01    0.2754591    0.2544001 -65.96 0.0003946787    1.069    0.065
        37  -9.5832    136.0000    129.0051   3.6700147501e+01   3.0207434141e+01    0.2310497   0.07091395 -53.22 0.0008071932    2.976    0.664
        38 -11.9652     68.0675    192.1225   6.5042996355e+01   2.4596384556e+01    0.5555745    0.3308361  88.27  0.001271914    2.219    0.549
        39  -8.5969    184.3077    126.6531   2.7612358852e+01   2.3140752704e+01    0.1246398   0.08209545 -76.68 0.0007043601    1.702    0.412
        40 -10.4396    111.2563    125.3831   4.1745182586e+01   3.5180065637e+01    0.3337649    0.2728571 -33.82  0.001202712    1.473    0.321
        41  -9.4929     29.8655    125.1030   6.8581121842e+01   4.7439307204e+01    0.2203919    0.1914494  57.41 0.0003044372    1.184    0.155
        42 -10.1612    135.0000    120.9095   3.5363898191e+01   3.2088878224e+01     0.377823   0.07078068 -52.21  0.001049123    4.914    0.797
        43 -10.2502     97.9050    121.1662   4.4436344324e+01   3.8437921646e+01    0.2830376    0.2383674  17.94  0.001253812    1.471    0.320
        44 -11.9173     74.0433    190.1139   6.3034774612e+01   2.4413009160e+01    0.5142587    0.3081786 -81.04  0.001291363    2.001    0.500
        45  -9.1182    194.3524    220.1415   4.0241598516e+01   4.4512202778e+00    0.1559779   0.09233252 -56.89 0.0007627461    1.685    0.406
        46  -9.7907    107.0715    116.0079   4.0917233321e+01   3.8011550388e+01    0.2114644       0.1915 -87.56 0.0004056356    1.022    0.021
        47  -9.1300    243.6414    114.2978   1.8511139141e+01   1.7474025763e+01    0.1036313    0.0612972 -70.66 0.0007034582    1.706    0.414
        48 -10.8483    116.1900    121.4209   3.9731688959e+01   3.5217151076e+01    0.3201433    0.2324957  69.97  0.001641367    1.527    0.345
        49 -10.6871     70.8670    183.3340   6.3048967459e+01   2.6599013978e+01    0.3462886     0.251079 -48.43 0.0001777531    1.390    0.281
        50  -8.9129     97.1720    110.1987   4.2346479671e+01   4.1058886650e+01    0.1975182    0.1581468  84.33 0.0005168532    1.315    0.240
        51  -9.3881     93.2414    106.4821   4.2647722276e+01   4.2585321986e+01    0.3057416    0.2071894  87.99  0.001407945    1.913    0.477
        52 -14.8604     44.0332    231.9163   7.6117900739e+01   1.6777046706e+01      3.49355     1.460589 -73.39    0.0138777    2.584    0.613
        53 -11.0691    112.8007    104.4288   3.7038553462e+01   3.9478497019e+01    0.2882791    0.2102149 -86.18  0.001497837    1.516    0.340
        54  -8.6662     88.4269    101.4644   4.2932350945e+01   4.4553063217e+01    0.1430883    0.1288274  79.46 0.0001186274    1.049    0.047
        55 -10.9861     33.0737     97.0694   6.2174113519e+01   5.4272332342e+01    0.6111426    0.2306624  47.13  0.002080983    3.188    0.686
        56 -10.1434     68.0494    101.6757   4.9504945293e+01   4.8044153316e+01    0.3473462    0.2705472 -45.32  0.001081914    1.399    0.285
        57  -9.8231    106.2327    215.2398   5.7743414789e+01   1.4360812626e+01    0.2745073      0.19514 -20.43  0.001410799    1.536    0.349
        58 -10.8752     54.3028     84.3685   5.0465621797e+01   5.4166719659e+01    0.3897996      0.27763  65.95  0.001951806    1.651    0.394
        59 -15.1197     55.0672    222.1177   7.2163111957e+01   1.8180880122e+01     3.672716     1.624557 -74.28  0.009642025    2.535    0.605
        60 -11.7311     63.2443    181.9563   6.5161250579e+01   2.7898612671e+01    0.4596336    0.3206957  55.14  0.002126821    1.546    0.353
        61  -8.9213    109.0177     83.9777   3.3397492106e+01   4.4278046634e+01    0.1599119    0.1403125 -87.74 0.0003115018    1.032    0.031
        62  -9.3682     66.9742     82.9143   4.5418394264e+01   5.2344837392e+01    0.3794537    0.1622223  57.46  0.001258886    3.614    0.723
        63  -8.5916     81.2593    214.6728   6.4136453391e+01   1.7286599797e+01    0.1412202    0.1061063  62.96  0.000412009    1.560    0.359
        64  -8.8377     59.7839     78.5998   4.6918362492e+01   5.4480431977e+01    0.1978711    0.1179672  48.47  0.000936017    1.597    0.374
        65  -9.3118    184.5045     76.9840   1.8893901719e+01   3.1691935635e+01    0.1413197   0.09647389 -32.10 0.0008090547    2.431    0.589
        66  -9.8897     82.9736     72.0889   3.7447542280e+01   5.1543270461e+01    0.2055404    0.1814294  73.58 0.0004567211    1.033    0.032
        67 -10.4376    175.0153    222.8412   4.3987012211e+01   5.6645112487e+00    0.2196551     0.145058 -44.94 0.0008501813    1.263    0.208
        68  -9.1858    132.4355     68.2814   2.4898376452e+01   4.2521450959e+01    0.1767991     0.104513 -62.07 0.0009428369    1.641    0.390
        69 -11.6904    190.3375     63.5733   1.5831903857e+01   3.2776444255e+01    0.3256191    0.2686482 -81.07 0.0008461706    1.215    0.177
        70  -8.7606     66.4564     65.4374   4.0979936748e+01   5.5878784984e+01    0.1347712    0.1182972  60.32 7.280106e-05    1.035    0.034
        71  -9.2149     85.7137     62.0230   3.3990837375e+01   5.2821141127e+01    0.1787252    0.1590205  82.27 0.0004225598    1.058    0.055
        72 -13.3023    205.8822     53.1020   1.2512033379e+01   3.1755794400e+01    0.7282342    0.6661379 -83.51  0.004093872    1.584    0.369
        73 -10.3607     68.0067    244.4889   7.0841561465e+01   1.1484469130e+01    0.3471377    0.3178409  -4.62  0.001085834    1.065    0.061
        74  -9.3447     67.2760     60.1119   3.9199320483e+01   5.6692999648e+01    0.1792286    0.1604909  78.36  0.000494453    1.113    0.102
        75 -11.2745      8.2009     54.3573   6.4897851079e+01   6.6528760842e+01    0.2916128    0.2124627 -86.65  0.001030149    1.873    0.466
        76 -10.4893    125.0108    243.5329   5.6895843573e+01   6.2260631840e+00    0.2937432    0.1654829 -56.28  0.001003945    1.778    0.438
        77 -10.4409    125.8262    237.8921   5.6020825848e+01   7.3137761102e+00    0.2577097    0.1534361 -37.70 0.0009533717    1.596    0.373
        78  -9.9248     28.1072     46.8290   5.1658037648e+01   6.5604480748e+01    0.1878967    0.1560839  46.16 0.0004861508    1.203    0.169
        79  -9.6266    225.3054     40.3120   8.9273136705e+00   3.0475110483e+01   0.08145579   0.07097093 -63.66  0.000246985    1.617    0.381
        80  -9.8140     33.4649     37.5190   4.5878312779e+01   6.6392223778e+01    0.2358275   0.09630941  47.30  0.001028222    2.391    0.582
        81  -8.5130     42.6603     36.7738   4.1375399791e+01   6.4996043779e+01    0.1209726   0.08634536  26.05 0.0002439205    1.535    0.349
        82 -10.5304     28.7082     36.0030   4.7737878911e+01   6.7370395028e+01    0.2199742     0.154248  35.65 0.0005348792    1.211    0.174
        83  -9.9530    102.8826    238.1689   6.1407092364e+01   9.5037422542e+00    0.2784552    0.1696677 -51.89 0.0008244625    1.604    0.377
        84  -8.9408     94.1660    235.8858   6.3283116790e+01   1.0886141977e+01    0.1893786    0.1431227 -31.04 0.0007205884    1.326    0.246
        85  -9.4956     60.8511     21.1731   2.9018639681e+01   6.3792239935e+01    0.1837657    0.1405886  71.52 0.0006855774    1.228    0.185
        86 -13.1703    126.6863    228.2342   5.4600491291e+01   9.2666790949e+00     1.145593     0.458808  21.17  0.004839741    2.606    0.616
        87 -14.9706      6.0407    186.4652   8.3921096649e+01   3.2211981904e+01     1.631642     1.072156 -88.75  0.003739749    1.517    0.341
