#   1 NUMBER                 Running object number                                     
#   2 MAG_AUTO               Kron-like elliptical aperture magnitude                    [mag]
#   3 X_IMAGE                Object position along x                                    [pixel]
#   4 Y_IMAGE                Object position along y                                    [pixel]
#   5 X_WORLD                Barycenter position along world x axis                     [deg]
#   6 Y_WORLD                Barycenter position along world y axis                     [deg]
#   7 A_WORLD                Profile RMS along major axis (world units)                 [deg]
#   8 B_WORLD                Profile RMS along minor axis (world units)                 [deg]
#   9 THETA_WORLD            Position angle (CCW/world-x)                               [deg]
#  10 FWHM_WORLD             FWHM assuming a gaussian core                              [deg]
#  11 ELONGATION             A_IMAGE/B_IMAGE                                           
#  12 ELLIPTICITY            1 - B_IMAGE/A_IMAGE                                       
         1 -14.1393    179.4023     53.7362   5.0669117478e+01   3.3336508966e+01     1.773165     1.113375  22.60  0.005517107    2.690    0.628
         2 -13.9897    199.9500     34.8358   4.2629587597e+01   3.0901640579e+01    0.7977261    0.7189468  86.17  0.001792975    1.069    0.064
         3 -14.3477    221.9569      9.1219   3.4225660984e+01   2.8775558606e+01    0.8945665    0.7652491 -72.59  0.003923504    1.069    0.065
         4 -11.9227     29.5716     14.7407   7.9690273098e+01   6.9929874023e+01     0.231127   0.09642117 -33.07  0.001153236    2.165    0.538
         5  -9.3734     59.6528    219.9317   1.1498337029e+02   2.0990786740e+01    0.2753232     0.183964 -46.15  0.001547665    2.081    0.519
         6 -16.9650     69.3830    144.4121   1.0288871469e+02   3.7306003115e+01     8.337665     4.749511  71.29   0.03299476    2.659    0.624
         7 -17.7354     31.8777    240.3134   1.2192956237e+02   2.0267971876e+01     8.863249     2.816493  29.50   0.02920421    4.417    0.774
         8 -11.8651    193.4242    195.6488   8.2409023591e+01   3.9149836820e+00     1.027441    0.5404941 -63.30  0.002906141    6.654    0.850
         9 -11.8927     63.7891    201.8636   1.1228493154e+02   2.4336327069e+01    0.2183747    0.2053832 -72.31 0.0004224183    1.251    0.200
        10  -9.9138     67.7224    196.7316   1.1082176705e+02   2.4954262754e+01    0.3166926    0.1762615 -60.86  0.001588368    1.790    0.441
        11 -10.9551     38.9353    199.8116   1.1753652331e+02   2.7869187164e+01    0.1997564    0.1528902  72.16 0.0009819586    1.092    0.085
        12  -9.9321     63.1372    214.1186   1.1369792898e+02   2.1757274915e+01     0.168231    0.1468975  68.21 0.0002909456    1.088    0.081
        13 -11.8869     51.3377    198.7479   1.1472481573e+02   2.6634373550e+01    0.1997255    0.1615803  77.82 0.0002448533    1.044    0.042
        14 -13.0189     53.9824    195.6923   1.1382167702e+02   2.6993600792e+01    0.5066139    0.2731326 -47.37  0.001683955    2.428    0.588
        15 -11.0228     89.6766    211.9248   1.0771819921e+02   1.8464311868e+01    0.2692208    0.2057025 -88.54 0.0008526152    1.350    0.259
        16 -10.4830     32.8223    196.2399   1.1854764183e+02   2.9346255868e+01    0.1345128   0.08806907  50.89 0.0005197473    1.400    0.286
        17 -10.3601     82.6439    194.9245   1.0715982367e+02   2.3231608029e+01    0.2606529    0.2178566  51.08 0.0008976513    1.129    0.114
        18  -9.7465     79.4685    191.9839   1.0751645117e+02   2.4367627358e+01    0.2236428    0.1564465  78.11 0.0006021055    1.511    0.338
        19 -11.6007    151.2975    193.3982   9.1029818282e+01   1.1946346713e+01    0.3089254    0.2709675  86.64  0.001292485    1.379    0.275
        20 -12.8832    147.6590    187.6937   9.0819374561e+01   1.3779806983e+01    0.5886095     0.334192 -55.56   0.00192434    2.007    0.502
        21 -19.2120      5.9693    104.4126   1.1561584345e+02   5.3509563149e+01     17.01643     1.606614 -71.45      0.03369   11.209    0.911
        22 -10.9315     92.1955    184.3662   1.0341190168e+02   2.4180037962e+01    0.2895599    0.2429945  29.09 0.0006396889    1.325    0.245
        23 -12.5049     99.0730    181.0058   1.0121817801e+02   2.3850197876e+01    0.4265244     0.289366  28.19  0.001701645    1.668    0.400
        24  -9.5578     37.3866    185.5600   1.1656388953e+02   3.1279429737e+01    0.1294004    0.1011588  80.07 0.0007951788    1.081    0.075
        25 -11.7029     49.1504    216.5963   1.1684919425e+02   2.3017251276e+01    0.3386155    0.2440867  75.80   0.00150984    1.193    0.162
        26 -10.7155    239.3199    178.3280   7.0261813123e+01  -9.6428883616e-01    0.1386525   0.09217636  -2.58            0    1.685    0.407
        27 -11.6794    186.9822    175.3705   7.9722804756e+01   8.8161984035e+00    0.3981795    0.3137687 -41.59   0.00113102    1.301    0.231
        28 -11.6230    146.5014    172.0071   8.8089508680e+01   1.7325445462e+01    0.3250746    0.2740017 -63.59 0.0007299737    1.308    0.235
        29 -11.2540     46.7232    173.2455   1.1304493956e+02   3.3118039812e+01    0.3457078    0.3155869  86.89  0.001150024    1.109    0.099
        30 -11.4691     84.3176    173.7930   1.0375135065e+02   2.7892030633e+01    0.2427598    0.2313125 -68.44 0.0002562163    1.126    0.112
        31  -9.3177     38.6316    172.2841   1.1490809658e+02   3.4265482476e+01    0.1390942   0.08306699  65.04 0.0007017942    1.697    0.411
        32 -10.9007    148.5323    175.4825   8.8300158807e+01   1.6187029451e+01     0.252697    0.2296075  87.62 0.0005650675    1.253    0.202
        33 -10.9870    240.4832    169.4746   6.8255480947e+01   2.6996529924e-01    0.1348735    0.1140789 -14.73 5.245682e-05    1.003    0.003
        34 -12.4277     63.3542    249.6316   1.1678386807e+02   1.4691360085e+01    0.2667408    0.1496489  55.03  0.001049217    1.441    0.306
        35 -10.9140    184.9946    167.9942   7.8598917680e+01   1.0624209542e+01    0.2286103     0.217292  -9.25 0.0007047689    1.040    0.039
        36 -10.9670    137.4343    167.7201   8.9403548087e+01   2.0016577424e+01    0.3001912    0.2024225  41.98  0.001238071    1.446    0.308
        37 -13.1820     94.4805    150.7993   9.7117818606e+01   3.1842979352e+01    0.7074635    0.6307693   2.82  0.003788342    1.343    0.255
        38 -11.9758    133.9135    145.5718   8.5579048677e+01   2.5750948558e+01     1.254428    0.3173924 -54.21  0.002869833    5.817    0.828
        39 -10.9473    112.5381    150.9702   9.2307436515e+01   2.8618247297e+01    0.2833391    0.2078497  57.74 0.0005607748    1.482    0.325
        40 -10.3238    174.8895    149.1502   7.6635392610e+01   1.6462185581e+01    0.2293282    0.2129684 -86.85 0.0005673075    1.249    0.199
        41 -11.9099    106.2965    137.0883   9.1029412084e+01   3.3114067276e+01    0.5962804    0.3385827 -31.07  0.002204199    2.561    0.609
        42 -11.6281    106.0960    130.8931   8.9683400807e+01   3.4648548924e+01    0.4115118    0.3380364 -59.72  0.001194904    1.205    0.170
        43 -12.3988     94.1329    136.8339   9.4389146801e+01   3.5333815220e+01    0.3013135    0.2725705 -38.79 0.0004207681    1.152    0.132
        44 -10.9712    135.8222    129.3545   8.1266950398e+01   2.9080427572e+01    0.3115201    0.1184205 -48.81   0.00100268    2.652    0.623
        45 -11.6286    114.0198    128.7757   8.6969749375e+01   3.3649391130e+01    0.3209413    0.2952819  15.33 0.0007758457    1.178    0.151
        46 -10.5356     41.9571    208.2033   1.1762224445e+02   2.5676173680e+01    0.2314551    0.1271627  74.05 0.0009416778    1.801    0.445
        47 -10.1387     57.6446    211.3225   1.1459122036e+02   2.3073267322e+01    0.1946109     0.152692 -85.60 0.0007625031    1.188    0.158
        48 -11.1422    101.3651    124.5941   8.9558286319e+01   3.7039212415e+01    0.2886003    0.2452952 -21.85 0.0002916715    1.328    0.247
        49 -11.4088    120.0174    122.7729   8.3842711701e+01   3.3872355999e+01     0.392704    0.2602062  -5.64  0.001428196    2.758    0.637
        50 -10.9368     65.9883    207.1965   1.1237318171e+02   2.2867057723e+01    0.2107424    0.1692898 -89.69 0.0006525402    1.153    0.133
        51 -10.2449    109.5111    118.0322   8.5598159527e+01   3.7067339811e+01    0.2209429    0.2086289  38.67  0.000307987    1.094    0.086
        52 -10.7798    231.3722    113.7750   5.7553437666e+01   1.1433579452e+01    0.2541029     0.239807 -33.22 0.0007481189    1.064    0.060
        53 -10.2233    167.9555    112.9483   6.9294642161e+01   2.5502394260e+01    0.2626036    0.1976011 -79.26  0.001138261    1.815    0.449
        54 -10.1423     35.5714    208.5894   1.1898402869e+02   2.6324794935e+01      0.14164   0.09495401  57.19 0.0008642754    1.283    0.221
        55 -12.2820    118.3527    109.8858   8.0955730485e+01   3.7177986824e+01    0.6281812    0.4374373  66.96  0.002651592    1.928    0.481
        56 -10.3033    205.5605    110.2269   6.1049735409e+01   1.7510743543e+01    0.2587384    0.2112158  52.95 0.0005740849    1.315    0.240
        57 -10.5709    134.4074    102.1643   7.4463965809e+01   3.5422290773e+01    0.2322833    0.1465397 -53.94 0.0009473304    1.735    0.424
        58 -11.2712     93.7729    205.3920   1.0598302231e+02   1.9233668709e+01    0.2811843    0.2089595  12.06  0.001035444    1.920    0.479
        59 -10.0442     58.6046    249.6169   1.1766423496e+02   1.5304560501e+01    0.1640304    0.1010688 -70.22    0.0004064    1.746    0.427
        60  -9.1205     55.4338    206.7802   1.1462369737e+02   2.4341239182e+01    0.2853191    0.1417275 -87.06  0.001327837    2.280    0.561
        61 -14.3125    194.4838     41.0042   4.4938285048e+01   3.1418107252e+01    0.9709469    0.8412142  -7.92  0.004143728    1.435    0.303
        62 -10.8612     71.9480    244.9753   1.1477577499e+02   1.4415538926e+01    0.2054806    0.1535835 -66.81 0.0008738386    1.525    0.344
        63 -11.9838    198.4349     23.0754   3.9803999269e+01   3.2696380902e+01    0.2967034    0.2606934 -16.65 0.0009525102    1.399    0.285
        64 -10.3153     53.0330    220.0000   1.1634881529e+02   2.1821786218e+01    0.1712085    0.1070751  52.57  0.001000297    1.361    0.265
        65  -9.8686    189.6171     14.8125   3.8658243424e+01   3.5739848531e+01    0.1803735    0.1096643 -44.33 0.0006335549    1.616    0.381
        66 -11.6315     79.3117     14.9345   5.9658666363e+01   6.1793140621e+01    0.3556841     0.195702  65.91  0.001564132    2.696    0.629
