#   1 NUMBER                 Running object number                                     
#   2 MAG_AUTO               Kron-like elliptical aperture magnitude                    [mag]
#   3 X_IMAGE                Object position along x                                    [pixel]
#   4 Y_IMAGE                Object position along y                                    [pixel]
#   5 X_WORLD                Barycenter position along world x axis                     [deg]
#   6 Y_WORLD                Barycenter position along world y axis                     [deg]
#   7 A_WORLD                Profile RMS along major axis (world units)                 [deg]
#   8 B_WORLD                Profile RMS along minor axis (world units)                 [deg]
#   9 THETA_WORLD            Position angle (CCW/world-x)                               [deg]
#  10 FWHM_WORLD             FWHM assuming a gaussian core                              [deg]
#  11 ELONGATION             A_IMAGE/B_IMAGE                                           
#  12 ELLIPTICITY            1 - B_IMAGE/A_IMAGE                                       
         1 -15.3056    187.0065     28.6620   6.2093677147e+01   3.4725906328e+01     4.060063     2.137046  17.93   0.01446458    3.151    0.683
         2 -11.6150    216.6318     18.4566   5.5418841440e+01   2.8303058621e+01    0.2496517    0.2102506 -40.41 0.0007155095    1.142    0.125
         3 -12.8356     67.2313    211.7551   1.3013557659e+02   2.4048063618e+01     2.285179     0.660621  44.13   0.01079664    2.567    0.610
         4 -16.2305    111.5986    241.7742   1.2436064514e+02   1.3557089267e+01      5.58848      2.79108  31.35   0.03240804    1.888    0.470
         5 -12.6324    116.5045    211.6708   1.2033965179e+02   1.7507414889e+01    0.3517652     0.315021  77.87 0.0007586214    1.245    0.197
         6 -10.2695     10.1256    213.7866   1.4085340329e+02   2.9499476958e+01    0.1084992   0.08626211  53.51 0.0003783788    1.223    0.183
         7  -9.8192     78.7000    232.4200   1.2956953908e+02   1.9209265286e+01    0.1282579   0.08766808  34.48 7.194743e-05    1.399    0.285
         8 -11.7653    106.9283    210.0806   1.2208694078e+02   1.9148235535e+01    0.4059035    0.3456804  52.66  0.002405168    1.061    0.057
         9 -12.0773    106.7389    202.3998   1.2126351329e+02   2.0493498627e+01    0.4560552    0.2466744  39.07  0.001443763    1.549    0.354
        10 -12.8337    118.0697    201.1133   1.1875786985e+02   1.9050192296e+01     0.631798    0.2756902  35.96   0.00302926    2.001    0.500
        11 -10.1484     10.9578    232.3750   1.4135576085e+02   2.6326809221e+01    0.1015005   0.08098374  29.83 0.0004834253    1.631    0.387
        12  -9.6744     92.8000    205.5681   1.2447297578e+02   2.1884714504e+01    0.2855721    0.1281995  35.84  0.001459672    1.955    0.488
        13 -12.8124    194.0029    194.1751   1.0230716701e+02   7.7959191514e+00    0.9294787    0.6670921 -59.36  0.005020523    2.478    0.597
        14 -11.8399    112.2866    196.8299   1.1943714172e+02   2.0661115587e+01    0.5194076    0.3196828  10.37  0.002392041    3.009    0.668
        15 -11.0159     66.0090    237.0362   1.3217747830e+02   1.9990972285e+01    0.2714451    0.1390381  57.93 0.0003210538    1.657    0.397
        16 -10.0448     72.7465    202.8591   1.2829492893e+02   2.4967789046e+01    0.1536697    0.1467147  61.93  0.000744844    1.243    0.196
        17  -9.8291    234.5954    199.3970   9.5791050158e+01   6.1177982083e-01    0.2120546   0.09803043 -43.09 0.0009488573    3.594    0.722
        18 -11.9135    204.4077    198.4220   1.0105770857e+02   5.5065115373e+00    0.4214814    0.2437336   8.23  0.002104399    2.160    0.537
        19 -10.2770     79.0482    184.9329   1.2521663849e+02   2.7538313236e+01     1.070948    0.5340097 -80.99  0.005163013    2.626    0.619
        20 -11.1888     64.6196    192.9203   1.2908936728e+02   2.7800717563e+01     0.645466    0.2965825  49.22  0.003478329    1.862    0.463
        21 -12.6076     72.7221    195.7211   1.2765045527e+02   2.6286502892e+01    0.6114169    0.2215918  42.56  0.001791857    2.222    0.550
        22 -12.9166     73.6552    191.9044   1.2709071601e+02   2.6889058932e+01      0.62258    0.3067548  44.44  0.002373069    1.705    0.413
        23 -11.0781    102.8963    194.6752   1.2116641731e+02   2.2422686752e+01    0.4241883    0.2537804  47.92  0.002403365    1.450    0.310
        24  -9.8598    180.0213    192.9749   1.0484061084e+02   1.0319876980e+01    0.1932935    0.1551042  62.65  0.001090077    1.751    0.429
        25 -10.4323     92.4168    194.7892   1.2340706349e+02   2.3878336066e+01      0.31478    0.1570309  44.39  0.001017432    1.685    0.407
        26  -9.8876     67.2356    233.6397   1.3173311237e+02   2.0385627879e+01    0.1676107    0.1149607  65.31 0.0005871594    1.265    0.209
        27 -11.6017    211.0014    180.2030   9.6557687117e+01   6.8395637824e+00    0.4278835    0.2762797 -19.13  0.002363313    1.606    0.377
        28  -9.8722     90.5143    184.0354   1.2259164578e+02   2.6168925800e+01    0.2484111    0.1376134  53.92  0.001300645    1.747    0.427
        29 -11.6968    207.7125    183.9885   9.7880495622e+01   6.8844622424e+00     0.316187    0.2863592  21.43 0.0009681182    1.262    0.207
        30 -10.8404     99.5920    180.3153   1.2010903216e+02   2.5593995895e+01    0.2843544    0.2190617 -38.70 0.0009272657    1.635    0.389
        31 -12.1314    197.3697    173.8782   9.7979398392e+01   1.0123261892e+01    0.6996756    0.3507201 -44.80  0.003169874    2.558    0.609
        32 -11.7917    141.1840    175.5573   1.1008770820e+02   1.9839437345e+01    0.3646356    0.1776396 -42.15   0.00164758    2.387    0.581
        33 -12.4698     46.4326    204.2198   1.3364235738e+02   2.7743554575e+01    0.2033179    0.1554857  56.85 0.0004342151    1.060    0.057
        34 -10.2544     71.5325    174.1845   1.2573093145e+02   3.0637570870e+01    0.2603254    0.1406764  45.79 0.0006954364    1.644    0.392
        35 -10.7213    177.5747    170.2147   1.0129104326e+02   1.4269017748e+01    0.2434975    0.1332676 -43.62  0.001143498    2.109    0.526
        36 -11.3645    145.5610    168.3200   1.0787662320e+02   2.0384054664e+01    0.2703025    0.2337495  34.49 0.0007878825    1.027    0.026
        37  -9.8158    203.3663    167.5044   9.5566919314e+01   9.9846080436e+00    0.2203055    0.1693517 -63.89  0.001124993    2.323    0.569
        38 -10.2507    225.1813    165.7826   9.1130439023e+01   6.3429886347e+00    0.1875693    0.1516369 -81.54 0.0009431223    2.783    0.641
        39 -12.3419     98.7029    156.4003   1.1693147323e+02   3.0548037742e+01    0.6139815    0.4017441 -35.10  0.003065995    2.029    0.507
        40 -11.6413    133.7537    144.4391   1.0616126594e+02   2.7094065249e+01    0.9885658    0.2764518 -53.37  0.002822516    4.892    0.796
        41 -11.3414    174.3054    148.3279   9.7598223984e+01   1.8565807289e+01     0.357358    0.3025173 -34.82  0.001204588    1.275    0.216
        42 -12.1534    144.5886    145.4521   1.0375645174e+02   2.4865246477e+01    0.4265896    0.3637311 -80.06  0.001026464    1.505    0.335
        43 -14.3467     53.6286    231.7881   1.3404362027e+02   2.2222776948e+01    0.9217472    0.7792276 -69.58  0.007679162    1.514    0.340
        44 -11.8590    109.0238    140.8565   1.1168481735e+02   3.2196826984e+01    0.5114305    0.3461955 -30.92  0.002460118    1.898    0.473
        45 -12.2073     97.8026    141.3143   1.1467959228e+02   3.3911720735e+01    0.2629413    0.2353793  30.70 0.0003758335    1.156    0.135
        46  -9.6494     82.8729    133.8740   1.1737724659e+02   3.7792538277e+01    0.1852818    0.1477681  65.89 0.0004144117    1.309    0.236
        47 -11.9854    104.9021    128.9927   1.1048548116e+02   3.5459948378e+01     0.603812    0.3931594 -78.46   0.00170202    2.178    0.541
        48 -10.4314    125.0756    127.0376   1.0470587465e+02   3.2291049418e+01    0.2937788    0.1887152  63.03  0.001248852    2.138    0.532
        49 -11.7769    116.1367    130.8982   1.0787439908e+02   3.3104149048e+01    0.5247373    0.3823677  -2.55  0.001490291    1.968    0.492
        50 -10.9476    120.3963    124.8481   1.0545498097e+02   3.3626200166e+01    0.3020342    0.2259023 -30.65  0.000760046    1.505    0.335
        51 -10.8687    160.4506    128.2916   9.6243779548e+01   2.5001350740e+01    0.4137037     0.275178 -32.80  0.001924852    1.582    0.368
        52 -11.2217    138.8397    124.6276   1.0062872863e+02   3.0124975538e+01    0.8103469    0.5201179  87.80  0.002664305    4.129    0.758
        53 -10.8326    136.0000    128.9998   1.0234012701e+02   2.9794687368e+01    0.4097851    0.1784918 -45.10  0.001561365    2.385    0.581
        54 -10.5211    135.5148    124.9832   1.0155291471e+02   3.0710819382e+01    0.5147157    0.1379843 -41.85  0.001474347    4.145    0.759
        55 -10.5645    111.2121    119.7173   1.0680379460e+02   3.6402931588e+01     0.247273     0.232691 -11.58 0.0003618155    1.114    0.102
        56 -10.4974    167.8961    112.8252   9.0731274584e+01   2.6294680473e+01    0.3664903     0.301551 -79.00  0.001688092    1.731    0.422
        57 -10.2722    205.4413    110.1875   8.2235850709e+01   1.8472312162e+01    0.3183374     0.198538  37.50 0.0009684241    1.595    0.373
        58 -11.0232    173.0254    244.4451   1.1355527750e+02   4.5619005502e+00    0.3421448    0.1996993 -53.71  0.002080348    2.798    0.643
        59 -10.3373    134.5379    104.0628   9.6649303976e+01   3.5205210399e+01    0.4641517     0.149442 -44.57   0.00145399    3.167    0.684
        60 -10.7743    170.1289    239.1872   1.1342540078e+02   5.6174584683e+00    0.1737102    0.1241225  24.24 0.0004084579    1.193    0.162
        61  -9.6851    183.2722     78.2195   7.7886878717e+01   2.8742643734e+01     0.302509    0.1863022  31.28  0.001109708    1.862    0.463
        62 -11.9314    174.0459     72.7807   7.8152578989e+01   3.1880014279e+01    0.6988471     0.445727 -83.19  0.001582186    3.325    0.699
        63 -13.3260    172.5469     44.2271   6.9462233354e+01   3.6547799486e+01    0.7590168    0.6337513  40.19 0.0008310681    1.174    0.148
        64 -19.3340     23.1710    137.7436   1.3375979753e+02   4.3484292556e+01     17.66702     2.589767 -75.55   0.04943616    6.730    0.851
