#   1 NUMBER                 Running object number                                     
#   2 MAG_AUTO               Kron-like elliptical aperture magnitude                    [mag]
#   3 X_IMAGE                Object position along x                                    [pixel]
#   4 Y_IMAGE                Object position along y                                    [pixel]
#   5 X_WORLD                Barycenter position along world x axis                     [deg]
#   6 Y_WORLD                Barycenter position along world y axis                     [deg]
#   7 A_WORLD                Profile RMS along major axis (world units)                 [deg]
#   8 B_WORLD                Profile RMS along minor axis (world units)                 [deg]
#   9 THETA_WORLD            Position angle (CCW/world-x)                               [deg]
#  10 FWHM_WORLD             FWHM assuming a gaussian core                              [deg]
#  11 ELONGATION             A_IMAGE/B_IMAGE                                           
#  12 ELLIPTICITY            1 - B_IMAGE/A_IMAGE                                       
         1 -12.9387    111.2432     26.6235   6.7585954601e+00   5.3940696499e+01     1.205745    0.6259417  37.04  0.004730406    2.666    0.625
         2 -12.9424    164.6444     27.1345   3.5859525204e+02   4.0282565247e+01    0.5826594    0.3619503 -84.60 0.0006319791    1.629    0.386
         3 -11.4130     20.5875     20.9426   4.3250922976e+01   7.4272174681e+01    0.4304612    0.2800869 -20.90  0.001221439    1.690    0.408
         4 -11.5766     36.4405     17.9096   3.0133452310e+01   7.2388208710e+01    0.6306062    0.4570501 -46.74  0.002534589    1.581    0.368
         5 -12.0314     22.6704     10.5661   3.5073420221e+01   7.5835449489e+01    0.5230098    0.4050216  -6.82  0.002111497    1.283    0.221
         6 -11.8075     16.2151     13.6380   4.2538127727e+01   7.6185787127e+01    0.6874356    0.2674161 -39.09  0.002916255    2.652    0.623
         7 -10.6044     13.1711      8.2024   4.1695657570e+01   7.7532015536e+01    0.2818432    0.2765446 -59.09  0.001370362    1.357    0.263
         8 -12.1724    164.8662     17.9242   3.5586342219e+02   4.1284732050e+01    0.5307043    0.2983925  46.02  0.002498287    2.319    0.569
         9 -12.2044    241.2258     15.3944   3.4988447071e+02   2.5206941338e+01    0.4464043    0.2073295  63.40 0.0006098537    2.621    0.618
        10 -12.1351    128.0840     15.4990   3.5953720990e+02   5.0848117965e+01    0.4916759    0.4455695 -47.92  0.001949323    1.169    0.145
        11 -11.2134    135.8521     14.6495   3.5815396333e+02   4.8927840068e+01    0.5501916    0.2585027  71.13  0.002426999    1.918    0.479
        12 -10.8765     88.4567      7.9050   3.6408723047e+00   6.1886489811e+01    0.3515653    0.2940581 -80.24  0.001405034    1.241    0.194
        13 -11.1064     85.9821     14.5970   7.4714929126e+00   6.1826196092e+01    0.4830757    0.3293212   2.59  0.001878513    1.959    0.489
        14 -12.1498    227.7769     14.8487   3.5045561771e+02   2.7795484083e+01    0.4146165     0.185486 -65.30  0.001512074    2.075    0.518
        15 -11.7824    104.7028     12.4989   2.2960618557e+00   5.7247589815e+01     0.438623    0.3355648 -13.27   0.00143586    1.565    0.361
        16 -12.4540     48.7504     12.8124   2.0015319849e+01   7.0747348755e+01    0.7371577    0.2865647  50.38  0.003022784    2.321    0.569
        17 -11.2506    190.9013     12.1992   3.5209424337e+02   3.5795338970e+01    0.3361032    0.1756516 -30.66 0.0009200544    1.847    0.459
        18 -11.6893    212.2654      9.0863   3.5000085380e+02   3.1508261756e+01     0.497651    0.2747366 -23.36  0.001736876    2.044    0.511
        19 -11.0016    120.4868     11.4377   3.5916466409e+02   5.3240256151e+01    0.2944464    0.1933337  75.26 0.0008309701    1.367    0.269
        20 -10.3661      5.5271      9.9915   5.0460925848e+01   7.8008892124e+01    0.4523769    0.1421577 -48.79  0.001916855    2.718    0.632
        21 -11.7956    168.4464      9.5158   3.5309195023e+02   4.1298573710e+01    0.5435923    0.2201403  66.36  0.002061174    2.316    0.568
        22 -10.8321     64.1961      9.9618   1.1742372454e+01   6.7648721540e+01     0.300548    0.2204998  70.31 0.0003051334    1.409    0.290
        23 -10.2272     62.9205      6.5019   1.0178822921e+01   6.8317950874e+01    0.3326788    0.1640112  56.93  0.001531501    1.753    0.430
        24  -9.8005      1.2379      7.1395   5.3355807052e+01   7.8914621772e+01    0.2255297   0.07921483 -51.88 0.0008184125    2.437    0.590
        25 -11.5280    185.2919      6.7744   3.5107193933e+02   3.7618359921e+01    0.2516973    0.1834927 -78.88 0.0009907275    1.187    0.157
        26 -11.5033    155.2120      6.4856   3.5334964497e+02   4.4832697571e+01    0.4698208    0.1758778  64.89  0.001747885    2.422    0.587
        27  -9.5910     78.1932      7.4256   5.9634605441e+00   6.4520032845e+01    0.1901623    0.1234091  79.03 0.0005494445    1.614    0.380
        28 -10.5065    232.1901      6.2250   3.4838018433e+02   2.7842235434e+01    0.1702866   0.09527645 -55.92 0.0005547667    1.352    0.260
        29 -10.0609     30.5694      5.1766   2.5291537904e+01   7.5328824591e+01    0.2590782    0.1182891 -40.40  0.001089969    2.448    0.591
        30 -10.0683     28.8648      1.4500   2.3571031323e+01   7.6127515927e+01    0.1771526    0.1432844  35.09 0.0003928541    1.116    0.104
        31 -11.4432    243.3098      3.3241   3.4731963268e+02   2.6066518089e+01    0.3446569    0.1217441 -64.99  0.001737543    2.571    0.611
        32  -9.5576    145.0008      9.9045   3.5545679290e+02   4.7067308184e+01    0.2024141    0.1481651  44.90 0.0006058708    1.631    0.387
        33 -10.8617    142.2112      3.6028   3.5367307245e+02   4.8367746699e+01    0.3359784    0.2195647 -65.96  0.001617113    1.424    0.298
        34 -10.9237    128.9666      4.2094   3.5533431853e+02   5.1712712163e+01    0.3802754    0.2485367 -15.24  0.001973074    1.870    0.465
        35 -10.9995    137.7910      3.8650   3.5421788179e+02   4.9471873952e+01    0.2750301    0.2131757 -83.28 0.0005443838    1.128    0.113
        36 -11.2080    134.4846      2.4618   3.5408880138e+02   5.0443015167e+01     0.363534     0.250261  75.55  0.001287257    1.290    0.225
        37 -10.7486     41.3956      3.9202   1.7840617731e+01   7.3379729553e+01    0.4012638    0.2117003  29.84  0.001835839    2.206    0.547
        38 -10.8833    235.2135      3.4465   3.4766514733e+02   2.7548581464e+01    0.2441981     0.120889 -39.39  0.001473295    1.538    0.350
        39 -10.9689    218.6519      3.3603   3.4836950985e+02   3.0780730986e+01    0.2377417    0.1769504 -87.38 0.0007628615    1.306    0.234
        40 -10.6578    223.6858      2.3264   3.4791268481e+02   2.9878975405e+01    0.2452815    0.1632251 -66.77 0.0006781365    1.213    0.176
        41 -11.6305    206.4920      1.8005   3.4859811287e+02   3.3442889482e+01    0.5481768    0.1701984  83.71  0.002050311    3.267    0.694
        42 -11.2755    113.4232      2.1281   3.5656600799e+02   5.5931280968e+01    0.4868552    0.2298525  84.29  0.001772377    2.093    0.522
        43  -9.7359     75.1817      2.7969   4.3149072215e+00   6.5697201652e+01    0.3182679    0.1521987  71.11  0.001390254    2.011    0.503
        44 -10.3737    105.4277      1.7559   3.5760800589e+02   5.8044975920e+01    0.2763526    0.1581327 -84.36 0.0009005335    1.855    0.461
        45  -9.2332     52.6470      1.8506   1.1163943527e+01   7.1158768246e+01    0.1681809    0.1164268 -36.82 0.0003780269    1.636    0.389
        46  -9.6781     12.5261      2.0157   3.7670125188e+01   7.8653110398e+01    0.1753122     0.113722 -37.63 0.0004895103    1.537    0.350
        47  -9.3533    152.2179      1.3523   3.5202341955e+02   4.6048725295e+01    0.1836962    0.1062383 -86.90 0.0005342342    1.576    0.365
        48  -9.5063    123.9832      1.4805   3.5493404284e+02   5.3238312565e+01    0.2107614    0.1179195  76.00   0.00102342    1.565    0.361
        49 -10.1365      1.8625      2.1554   4.9380597927e+01   7.9808068375e+01    0.2396412    0.1383578 -36.33  0.001099969    1.582    0.368
        50 -11.9633      8.0792    114.7614   7.3498118465e+01   5.1759361957e+01    0.3664298    0.2961683 -31.42 0.0003564415    1.391    0.281
        51 -10.4120    249.5030    250.0162   3.2285683901e+01  -5.9317920667e+00    0.1747342    0.1425364 -17.93  0.001200403    1.660    0.398
        52 -11.2961    246.3283    247.0136   3.2341547700e+01  -5.3472957083e+00    0.1617335    0.1287778 -31.37  0.001338783    1.896    0.472
        53  -9.4634    201.5127    250.4934   4.0034623981e+01  -1.5110351561e+00    0.1095115    0.0781795   3.57 0.0002915868    1.016    0.016
        54 -11.9702      2.7739    111.5032   7.5347684900e+01   5.2946090738e+01    0.4247655     0.318171  67.30  0.001017648    1.281    0.219
        55 -11.6589      3.1775    106.0328   7.4734276316e+01   5.4412634098e+01    0.5025709    0.4181996  51.34  0.002516053    1.216    0.178
        56  -9.5908     79.1667    114.8491   4.6000604549e+01   4.3210573629e+01     0.217082    0.1868764 -23.58 0.0007279149    1.339    0.253
        57 -10.0476     58.6399    115.1235   5.3538698813e+01   4.6431238706e+01    0.2492192    0.2001586  48.66 0.0003332729    1.241    0.194
        58 -11.1578     35.2536    102.9356   6.0620886073e+01   5.2728608066e+01    0.6422274    0.2979101   5.36 0.0003007412    3.415    0.707
        59 -11.7660     22.3001    114.0277   6.7710431532e+01   5.0927525433e+01    0.5773535     0.324489  -1.51   0.00243886    2.339    0.573
        60 -12.8869     26.8934    110.2234   6.5319299402e+01   5.1568746200e+01     1.213784    0.5819183 -84.85  0.004723433    2.303    0.566
        61 -10.0738     48.8762    111.6994   5.6645178157e+01   4.8705253642e+01    0.2480946    0.2036763 -54.57 0.0004989984    1.212    0.175
        62 -11.8426     79.2693    108.0402   4.4346953089e+01   4.4934215048e+01    0.5896224    0.4139903  17.93  0.001153591    1.758    0.431
        63 -10.0339    105.5705    107.4938   3.5527179041e+01   3.9983155704e+01    0.1553442    0.1523589 -86.08 0.0001599909    1.010    0.010
        64 -11.3533     50.2686    101.0991   5.3909831990e+01   5.1377289275e+01    0.7004897    0.4145491 -32.22  0.002801139    2.216    0.549
        65 -10.3708     91.6997    102.2759   3.8571197832e+01   4.4026276041e+01    0.4016097    0.3143018 -35.98  0.001878101    1.408    0.290
        66  -9.9005     86.0927    103.1835   4.0720053607e+01   4.4891994457e+01    0.2330455    0.2154402  -9.04 0.0004697469    1.211    0.174
        67  -9.7408     57.1963    103.2183   5.1554937614e+01   4.9821867243e+01    0.2211251    0.1778668  73.37 0.0006581116    1.371    0.270
        68 -10.7905     17.1340    100.3297   6.8101821292e+01   5.5102905320e+01    0.2520147    0.1756232 -63.07 0.0007804146    1.322    0.244
        69 -11.6154      9.2287     96.8964   7.1192182015e+01   5.6569236866e+01    0.4988645    0.3947019  64.38 0.0003824685    1.281    0.219
        70 -12.0562    210.4238     98.1340   1.0976907881e+01   2.0032662563e+01     0.231755     0.199347 -41.46 0.0002660785    1.013    0.013
        71 -11.9630     67.9937     94.6966   4.5158336703e+01   5.0310478163e+01    0.5843531     0.370783  36.25  0.001819822    1.573    0.364
        72 -10.8474     77.0241     96.7414   4.2255618623e+01   4.8190895126e+01    0.5061185     0.245002  40.88  0.001398556    2.029    0.507
        73 -11.5135     79.0450     93.0471   4.0489193544e+01   4.8728225311e+01    0.8267202    0.6343027  47.07  0.003915988    1.303    0.232
        74 -11.4488    248.5034     95.9979   5.9575985416e+00   1.3914134592e+01    0.2002099    0.1647838  21.28  0.001397137    1.613    0.380
        75 -12.1837     22.7904     94.4719   6.4680243664e+01   5.6250912319e+01    0.4581739     0.422984 -21.17  0.002065815    1.159    0.137
        76 -10.4462     42.2325     94.0222   5.5801514754e+01   5.4325498939e+01    0.3951697    0.2955507  37.63  0.001948548    1.354    0.261
        77  -9.8341     43.5177     90.4774   5.4426300591e+01   5.5105780341e+01    0.2406394    0.1765932 -63.56 7.722592e-05    1.320    0.243
        78 -10.4643     18.0909     86.6372   6.5597318115e+01   5.8754380624e+01    0.4685239    0.2733886  70.87  0.001778957    2.066    0.516
        79 -11.5428     28.2504     84.7207   6.0295885563e+01   5.8379402709e+01    0.5231211    0.4548887  -6.03 0.0007750287    1.242    0.195
        80 -10.5680     35.8659     92.5960   5.8351776052e+01   5.5464221075e+01    0.3739399    0.2313883  89.80 0.0008992975    1.961    0.490
        81  -9.7488     38.7914     90.3748   5.6543325013e+01   5.5719830042e+01    0.2725245    0.2025384  -9.51 0.0006710252    1.622    0.383
        82 -10.3351     98.2473     90.7469   3.3172203153e+01   4.5403470454e+01    0.2740434    0.2402845  47.60  0.000504759    1.130    0.115
        83 -10.1413     49.9461     91.2538   5.1765889113e+01   5.4032199713e+01    0.2975199    0.1961692  24.52  0.001337124    1.611    0.379
        84 -11.5425      6.7146     88.4561   7.1348399718e+01   5.8998719792e+01      0.73046    0.3580527  20.19  0.003264969    2.143    0.533
        85 -10.8875      2.3797     80.3661   7.2492547876e+01   6.1376423216e+01     0.600353    0.2365221  82.06  0.002059619    3.154    0.683
        86 -10.6888      2.0089     71.3008   7.1513125682e+01   6.3788047786e+01    0.4112464    0.2016474 -68.56  0.001888264    1.757    0.431
        87 -10.0428     66.4503     88.5808   4.4104308147e+01   5.2119204122e+01     0.316107    0.2204939 -18.03 0.0009364499    2.037    0.509
        88 -10.1756     90.6663     85.8825   3.4237476247e+01   4.8116574634e+01    0.3762605    0.2899006 -89.86  0.001693918    1.659    0.397
        89 -10.3010     52.1636     86.8735   4.9680826069e+01   5.4851020375e+01    0.2250155    0.2025473  78.82 0.0003716175    1.179    0.152
        90 -11.4971     44.9367     84.0446   5.2207276671e+01   5.6606035578e+01    0.4877741    0.3746248 -89.69  0.002045353    1.503    0.335
        91 -10.6635    113.6290     83.6052   2.6353973299e+01   4.3570777641e+01    0.5538763    0.3626631  89.73  0.002070325    2.592    0.614
        92 -10.4313     81.4091     83.5163   3.6807515070e+01   5.0556878857e+01    0.5479003    0.3352509  28.64   0.00222075    1.942    0.485
        93 -11.8621     75.3707     78.5982   3.7555377039e+01   5.2897903245e+01    0.6026028    0.5394734  88.86  0.001414037    1.220    0.180
        94 -10.7075     58.0567     77.9580   4.4554446845e+01   5.6176361379e+01    0.2291099    0.2220667 -40.37 0.0004569018    1.030    0.029
        95 -12.5886     60.9572     83.4036   4.4908522038e+01   5.4346473116e+01    0.3394081    0.3042219  40.99 0.0003728475    1.119    0.107
        96 -10.1581     67.4388     81.3388   4.1584679115e+01   5.3730698657e+01    0.3799208    0.2945861 -23.76  0.001782224    1.552    0.356
        97  -9.4126     37.0732     85.5359   5.6246274480e+01   5.7208163880e+01    0.2208437     0.144961  26.16 0.0008730915    1.571    0.363
        98  -9.1440    143.4848     84.4117   1.9127295356e+01   3.6499274394e+01    0.1487017    0.1426052 -78.35 0.0002335618    1.016    0.016
        99  -9.7145    162.3482     81.1242   1.4412244079e+01   3.2771860928e+01    0.1949356    0.1632304 -48.73 0.0002992609    1.116    0.104
       100 -10.8081     89.1933     77.1095   3.1976443432e+01   5.0406927273e+01    0.4914612    0.3042605  50.00  0.001345727    1.624    0.384
       101 -10.7040     94.3077     75.5724   2.9731568563e+01   4.9630834917e+01    0.4612266    0.3526729 -71.67  0.001735062    1.557    0.358
       102 -12.5284    247.7818     75.7172   1.9205563128e+00   1.6770832818e+01    0.4073486    0.2677447 -49.22  0.002637383    1.265    0.209
       103 -10.9438     53.2630     76.0023   4.6121024693e+01   5.7430822907e+01    0.4051007    0.3687924  64.43  0.001855049    1.172    0.146
       104 -10.8574     14.3288     74.4555   6.5364122340e+01   6.2276777128e+01    0.3384129    0.2501399 -72.29  0.001450091    1.274    0.215
       105 -10.3353     63.5982     74.8633   4.1173853375e+01   5.5974707104e+01    0.4718047    0.2748103  49.14  0.001884427    1.857    0.462
       106  -9.8996     47.2022     74.5125   4.8516966039e+01   5.8717427171e+01    0.3751845    0.1888296 -30.83   0.00128493    3.096    0.677
       107 -11.6904     27.5155     73.3831   5.8130586142e+01   6.1435742674e+01    0.4259157    0.3020004 -13.37 0.0001452127    1.630    0.387
       108 -10.7636     35.1401     71.6196   5.3697838746e+01   6.1047173095e+01    0.4511696    0.2342783  39.35  0.001295225    1.990    0.498
       109 -10.5257     40.6549     72.7262   5.1202903360e+01   6.0073185166e+01    0.3561448    0.2452027  15.36  0.001224951    1.614    0.380
       110 -11.0790     40.5637     68.8411   5.0108709544e+01   6.1055658916e+01    0.4010458     0.292928  39.25  0.001999649    1.408    0.290
       111  -9.5841    119.0827     78.1268   2.3159909922e+01   4.3431425880e+01    0.2094097    0.1733057 -69.50 0.0003926229    1.294    0.227
       112 -10.4666     80.6249     71.5760   3.3222215694e+01   5.3436486243e+01    0.4049698    0.2369088 -45.03  0.001467737    1.745    0.427
       113  -9.2149    154.0215     72.2064   1.3474826840e+01   3.6246510249e+01    0.1920187     0.116235  58.87 0.0005248927    1.692    0.409
       114  -9.7932     86.2457     69.4057   3.0417316882e+01   5.2714652633e+01    0.2987775    0.1938084 -34.73  0.001280599    1.747    0.428
       115 -11.1240    122.7768     68.3982   1.9109484098e+01   4.4430451746e+01    0.4112678    0.2616697  46.49  0.000985068    1.624    0.384
       116  -9.6222     13.4453     67.9065   6.4576367393e+01   6.4049588647e+01    0.4681937    0.2674943   0.08  0.001995846    2.013    0.503
       117 -10.2396    102.0796     66.5433   2.4195948240e+01   4.9726445963e+01    0.3180928    0.2160761 -39.14  0.001430726    1.538    0.350
       118 -11.6168     13.9417     56.9916   6.1829685557e+01   6.6796626636e+01     1.539082    0.7040246 -18.80  0.005893135    3.002    0.667
       119 -12.2090      7.5031     63.4808   6.7127103364e+01   6.5558346301e+01    0.2636887     0.222741 -30.80 0.0005185912    1.164    0.141
       120 -12.3897      4.2877     61.0467   6.8587696923e+01   6.6345911508e+01    0.3207424    0.2568662 -59.45 0.0003186115    1.114    0.102
       121 -10.0343    202.2654     63.1090   3.8192450442e+00   2.6928136813e+01     0.304509    0.1610583 -33.22  0.001163999    1.750    0.429
       122 -11.6900     46.6219     59.2912   4.3849475408e+01   6.2468442379e+01    0.7900765    0.3073759  45.89  0.002715751    3.057    0.673
       123 -11.7426     43.1242     60.5537   4.6107772058e+01   6.2701283619e+01    0.4991885    0.3010216 -59.06 0.0009783359    1.709    0.415
       124 -11.2205     39.5487     56.5193   4.6610204317e+01   6.4159588291e+01    0.3206101    0.2346479  26.92 0.0009339869    1.378    0.275
       125  -9.8875    158.8541     62.7223   9.8695398998e+00   3.6681835580e+01    0.2475867    0.1636717  57.50 0.0007121799    1.554    0.357
       126 -10.2365    105.9958     63.2396   2.1883114679e+01   4.9440431368e+01     0.308974    0.1648198  36.57  0.001140703    2.417    0.586
       127 -11.0544     92.4813     62.5387   2.5826387777e+01   5.2738964348e+01    0.4137165     0.277171  64.64  0.000874948    1.707    0.414
       128 -10.1488     58.2222     62.4040   3.9319979125e+01   5.9823235804e+01     0.299622    0.2561963 -79.23  0.001550121    1.363    0.266
       129  -9.5009    150.8895     60.8506   1.0723596560e+01   3.8895662677e+01    0.2040832    0.1966953  13.84 0.0004968207    1.228    0.186
       130 -10.0083    113.6097     60.5716   1.8845026116e+01   4.8096340514e+01    0.2889017    0.1852724 -42.07 0.0008401097    1.580    0.367
       131 -10.4297     25.4886     59.3174   5.5511258066e+01   6.5202146574e+01    0.4046858    0.2072953  15.78   0.00130716    2.163    0.538
       132 -10.8240     25.5043     55.4925   5.4344802854e+01   6.6135532533e+01    0.4040731    0.2401449 -31.82  0.001001333    1.846    0.458
       133 -10.3860    124.7435     56.6151   1.4735353088e+01   4.6042247580e+01    0.3006255    0.2394463  25.29 0.0008989777    1.611    0.379
       134 -10.7788    117.8386     55.6334   1.6047203990e+01   4.7925479060e+01    0.7147464    0.3946016 -76.87  0.002214727    3.993    0.750
       135 -11.9342     75.4498     55.8479   2.9448949613e+01   5.7843540964e+01    0.7204196    0.4591236 -47.64  0.003251971    1.632    0.387
       136 -11.4037     72.6154     46.3410   2.6678862717e+01   6.0289459759e+01    0.5683766    0.2930512 -49.81  0.002300941    2.190    0.543
       137 -10.1534    106.6131     58.2840   1.9951980219e+01   5.0213163395e+01    0.2716268    0.1797691  66.26 0.0005686022    1.626    0.385
       138 -10.3227     88.0000     56.0237   2.4908524379e+01   5.5031985434e+01    0.4231253    0.1777345 -37.25  0.001236788    2.644    0.622
       139 -10.5703     88.5134     51.3714   2.2923053106e+01   5.5782577262e+01    0.5088946    0.2229732 -48.66  0.001373532    2.580    0.612
       140 -10.5991    237.8683     55.8633   3.5864285453e+02   2.1059745834e+01    0.1688436    0.1440396 -34.58 0.0003360655    1.225    0.183
       141  -9.8461    157.2904     54.7961   7.8136847596e+00   3.8300024880e+01    0.3493918    0.2020843 -46.29  0.001603456    1.627    0.385
       142  -9.6585     50.9512     56.5049   4.0627400989e+01   6.2402131281e+01    0.2242399    0.1421924  33.76  0.001026309    1.574    0.365
       143 -11.2464     60.4232     51.4880   3.4087074631e+01   6.1776603977e+01    0.6256394    0.3135633 -57.55  0.002375469    2.596    0.615
       144 -10.2525     61.5698     46.6839   3.1538995905e+01   6.2519213523e+01    0.4089987    0.2224091 -33.38  0.001487192    2.167    0.538
       145 -11.4813    244.0578     51.4117   3.5721178418e+02   2.0532161324e+01    0.2961128    0.1508261 -55.05 0.0005916805    1.739    0.425
       146 -10.8072     32.1057     52.5581   4.9433154978e+01   6.6073837539e+01    0.4803925    0.2536669  13.36  0.001981614    2.372    0.578
       147  -9.2079    202.2851     52.3591   1.1923152090e+00   2.8430770109e+01    0.1207681    0.1013072   6.99 0.0006161454    1.678    0.404
       148  -9.5939     54.4372     51.6391   3.6990232070e+01   6.2855760129e+01    0.3790852    0.2256343 -24.01  0.001510295    2.475    0.596
       149 -10.8891    110.4618     39.9529   1.2129872245e+01   5.2301472954e+01    0.7168867    0.4463021 -33.37  0.003293568    1.710    0.415
       150 -11.8299    116.8279     47.5951   1.3440777705e+01   4.9508929151e+01    0.7916295    0.3943894  41.94  0.002103048    2.449    0.592
       151 -12.2897    119.3668     38.5603   9.5739303954e+00   5.0235237066e+01    0.8525001    0.5875465 -23.31  0.003421855    1.712    0.416
       152  -9.3493     97.6872     49.9679   1.9456617878e+01   5.3854690640e+01    0.2013441    0.1916572 -59.45 0.0003956969    1.080    0.074
       153  -9.9079    155.2584     48.4758   6.2528425106e+00   3.9740942109e+01    0.2451213    0.1662854 -23.97 0.0005996831    1.727    0.421
       154 -10.4574     82.8259     47.1648   2.3184306935e+01   5.7858006673e+01    0.4068054    0.2625707 -16.90  0.001599164    2.278    0.561
       155  -9.8449     52.0330     48.0296   3.6689623639e+01   6.4042275921e+01    0.2334996    0.1733627  -6.46 0.0006557716    1.715    0.417
       156  -9.1340      2.2830     48.6476   6.7434783945e+01   6.9553916681e+01      0.13168   0.09480155  61.71 0.0007017359    1.658    0.397
       157 -12.3309     41.9075     44.0809   4.0411732471e+01   6.6572032853e+01    0.9064278    0.3545675  33.06  0.002569157    2.599    0.615
       158 -10.4803     20.4111     45.7736   5.4370390801e+01   6.8966761901e+01    0.3237489    0.2095515 -36.81 0.0009230625    1.507    0.337
       159 -11.3827     26.1615     42.4931   4.9365090864e+01   6.9098396367e+01    0.4342878    0.2764692  40.22   0.00109586    1.703    0.413
       160 -10.4623     22.6060     37.0582   4.9562569750e+01   7.0711674297e+01    0.4477936    0.1883643  40.46  0.001213699    2.689    0.628
       161  -9.5230     26.9906     47.5096   5.0734110958e+01   6.7860978459e+01    0.2069513    0.1343392  20.67  0.001024565    1.575    0.365
       162 -10.9771     18.0668     40.7180   5.4172334117e+01   7.0362762610e+01    0.3281368    0.1975932 -43.02 0.0005989198    1.546    0.353
       163  -9.9403    234.6658     44.6843   3.5649937056e+02   2.3047418143e+01    0.1055689   0.09119753   9.63 0.0007047131    1.690    0.408
       164  -9.9483    126.7493     50.6157   1.2246853051e+01   4.6526883187e+01    0.4330287    0.1906364 -23.33    0.0013822    3.712    0.731
       165  -9.9135    138.8587     43.8775   7.5797455002e+00   4.4497321613e+01    0.2927641    0.1562421  41.28 0.0009520236    2.483    0.597
       166  -9.8155    156.0599     42.4409   4.3031380861e+00   4.0406178910e+01    0.2485215    0.2029465 -11.65  0.001036113    1.555    0.357
       167  -9.5909    145.5246     42.5732   6.0015605559e+00   4.3006641239e+01    0.1439977    0.1298464 -81.29 6.436126e-06    1.010    0.010
       168  -9.9953     56.9882     41.8158   3.1519675816e+01   6.4360035645e+01     0.219047    0.1928275  64.04 0.0009092709    1.281    0.220
       169  -9.4981     10.4692     31.5278   5.6370251027e+01   7.3102196228e+01    0.2554744    0.1630279 -31.06 0.0006127271    1.505    0.336
       170  -9.2970      6.8175     30.3200   5.8856719275e+01   7.3641509655e+01    0.8030049    0.2783456  -3.37  0.002435191    5.379    0.814
       171 -11.1358      3.8766     35.4802   6.2924595422e+01   7.2639399049e+01    0.3524074     0.313028 -78.73  0.001080924    1.240    0.194
       172 -10.4762    249.7389     38.9472   3.5424618896e+02   2.1055631320e+01    0.1927498    0.1377519 -68.00 0.0003776557    1.307    0.235
       173 -10.6614     78.7026     37.3697   2.0432942828e+01   6.0485637689e+01    0.4710575    0.3114995 -68.42  0.002030458    2.244    0.554
       174 -10.9780     78.9429     33.6547   1.8661324168e+01   6.1019982324e+01    0.5755464     0.382061  24.46  0.002584524    2.002    0.501
       175 -10.6310     61.6696     34.8644   2.6077847952e+01   6.4676563345e+01    0.5073546    0.3256067 -16.17  0.002237565    2.187    0.543
       176  -9.7118     67.2434     31.9499   2.2275925192e+01   6.3960005024e+01    0.3043795    0.1794545  32.57  0.001322283    1.985    0.496
       177  -9.5110     12.8113     36.8127   5.6545598433e+01   7.1721427431e+01    0.1643749    0.1482111  87.75   0.00100582    1.325    0.245
       178 -10.4103    176.0095     34.7447   3.5947970382e+02   3.6622166143e+01     0.356695    0.1855244 -62.86  0.001613786    2.030    0.507
       179 -10.3901    153.0415     35.7963   2.7053229283e+00   4.2053863608e+01    0.2263104    0.1918279 -48.96  0.000544158    1.146    0.127
       180 -10.0074    219.0977    248.1684   3.6757351264e+01  -2.9810124718e+00    0.1685446    0.1051267  -1.24 0.0008302759    1.270    0.212
       181 -10.1810    103.0225     32.7495   1.1119522619e+01   5.5234132966e+01    0.2125334    0.1355516  76.54 0.0004544593    1.708    0.414
       182 -12.4434    105.6587     19.9547   5.2333041470e+00   5.6190710372e+01    0.3374241    0.2820009 -72.85 0.0003583653    1.219    0.179
       183 -10.9296    240.5387     32.6013   3.5351611280e+02   2.3421256129e+01     0.228375    0.1823268   8.34  0.001509063    2.010    0.502
       184 -10.5970    216.9836     32.0375   3.5501545409e+02   2.7993667308e+01    0.1856188    0.1469646 -54.99 0.0003151163    1.013    0.013
       185 -10.3551     60.4036     23.3365   2.0736258767e+01   6.6786615082e+01     0.432378    0.1359479 -34.18  0.001492842    3.446    0.710
       186 -11.9009     58.2079     29.3972   2.4915616251e+01   6.6316520659e+01    0.4077637    0.3065996  18.77  0.002104482    1.520    0.342
       187 -11.5355     48.8982     30.0030   2.9829302910e+01   6.8073712422e+01    0.6274597    0.2980243  37.49  0.001946136    2.103    0.524
       188  -9.4138     36.1278     30.8843   3.7655953752e+01   7.0145380490e+01    0.1905134    0.1828902  59.64 0.0005324573    1.238    0.192
       189 -11.7193     26.5373     27.7515   4.2449858700e+01   7.2167366759e+01    0.4731861    0.3308265 -57.51  0.002163409    1.642    0.391
       190  -8.8610     22.2697     31.3199   4.7273970117e+01   7.1981053113e+01    0.1371115   0.09244851 -24.35 0.0002584925    1.563    0.360
       191 -10.7479    155.7787     24.5869   3.5887380247e+02   4.2768093245e+01    0.3305472    0.1736558 -49.04 0.0007912737    1.778    0.438
       192 -11.5395    149.8783     22.2437   3.5886830719e+02   4.4517993232e+01    0.8119441     0.165335  63.11  0.002593133    3.823    0.738
       193 -10.9521    157.1404     28.8697   1.9016203041e-02   4.1915819102e+01    0.3079737    0.2350286 -60.62 0.0003806601    1.199    0.166
       194 -11.7215    126.3292    241.0585   5.3420357504e+01   8.3858212347e+00    0.3177959    0.1681435  36.27  0.001438153    1.592    0.372
       195 -12.1401    127.3444     28.4141   4.3234104180e+00   4.9547353948e+01    0.8334096    0.3914697  76.56  0.002266251    2.304    0.566
       196 -11.4050    229.9646     26.7976   3.5293996573e+02   2.6056071769e+01    0.2292636    0.2109435  61.69  0.001238508    1.458    0.314
       197 -10.7791    189.2259     26.9438   3.5604832892e+02   3.4532104201e+01    0.3134034    0.2376187  42.81  0.001504755    1.775    0.437
       198 -11.0936    148.3895     27.7438   8.2007270552e-01   4.4242555137e+01    0.5712874    0.2284437  64.71  0.002317603    2.293    0.564
       199 -10.8123    143.0069     25.4715   8.3145632192e-01   4.5881944074e+01    0.3732044    0.1967583  67.84   0.00144738    1.761    0.432
       200  -9.0261    200.6835     27.6928   3.5525627779e+02   3.1913228818e+01    0.1135219   0.09756113  33.66 0.0002576656    1.630    0.387
       201 -10.8332    183.5164     25.7251   3.5624865792e+02   3.5976554537e+01    0.4029864    0.1374272 -47.75  0.001641396    2.510    0.602
       202 -10.0349     45.7918     24.5509   2.8550806047e+01   6.9589997023e+01    0.2261316    0.1795669 -30.26 0.0002551316    1.304    0.233
       203  -9.6919     20.3275     25.3089   4.5797842604e+01   7.3446141830e+01     0.250248    0.1660754   1.68  0.000713494    1.669    0.401
       204  -9.7240    239.4682    250.4346   3.3846712027e+01  -5.1098793110e+00    0.1017391   0.06814241  -2.39 0.0001778766    1.014    0.014
       205 -11.8633    246.9983     20.6719   3.5068083689e+02   2.3601706230e+01    0.3289859    0.2417045  88.54  0.002399121    1.470    0.320
       206 -10.8570    178.2705     21.2284   3.5551496226e+02   3.7712866907e+01     0.384449    0.2324511  39.67  0.001721799    2.485    0.598
       207 -10.4779    169.4107     22.9554   3.5686263709e+02   3.9619833503e+01    0.2491287     0.178978  80.81 0.0005728445    1.319    0.242
       208 -10.8827    134.1674     21.9238   9.1578325479e-01   4.8564960116e+01    0.3602622    0.2852611 -80.32  0.001331122    1.183    0.155
       209  -8.9903     86.2716     23.2961   1.1512963259e+01   6.0714814467e+01    0.1398207    0.1040471  30.87  0.000258627    1.522    0.343
       210 -10.0663     13.7092     22.9769   4.9953032099e+01   7.4647519667e+01    0.2123219    0.1718177   8.82  0.000512277    1.181    0.153
       211 -10.6220     68.5856     20.4920   1.5930120943e+01   6.5338949434e+01    0.3612682    0.2696113 -47.67   0.00191537    1.521    0.343
       212 -11.3374     67.7920    240.4700   6.6350801475e+01   1.5512699563e+01    0.4015463    0.2462786 -15.07  0.001997062    2.798    0.643
       213 -11.6287      9.1280     19.5209   5.2217725735e+01   7.5789775089e+01    0.5025489    0.2591303 -14.30 0.0004017761    2.458    0.593
       214 -11.3973     73.6195    238.6035   6.4879301659e+01   1.5187831448e+01    0.5799259    0.2172137  39.18   0.00273348    2.017    0.504
       215 -11.1801    146.9175    237.8348   4.8715360211e+01   6.3681763944e+00    0.3661864    0.2980772  56.16  0.002426315    1.747    0.428
       216 -10.8313    131.7472    240.5396   5.2209660968e+01   7.8043810311e+00    0.2308062   0.09968842  25.69  0.001120772    1.970    0.492
       217  -9.7369    216.8038     19.8205   3.5221146575e+02   2.9432790449e+01    0.1766642    0.1085589 -57.44 0.0004732837    1.317    0.241
       218  -9.8882    243.5017    235.5230   3.1140317996e+01  -3.8508557543e+00    0.1044369   0.07117691  -5.60 0.0008101565    1.020    0.020
       219 -10.0076     46.2287     19.8967   2.5636455101e+01   7.0247617830e+01    0.2463864    0.1825812  40.60  0.001352743    1.251    0.200
       220  -9.7986     74.9105     19.1132   1.2993973928e+01   6.4022302633e+01    0.2252052    0.1551801  29.50 0.0009094025    1.661    0.398
       221  -9.8317    246.4921    230.5104   2.9965317048e+01  -3.5660095548e+00    0.1039671   0.07217214  -6.93 0.0003703963    1.010    0.010
       222 -10.1572    248.6832    223.6556   2.8627291748e+01  -2.9938175494e+00    0.1675825   0.09020882  -6.90  0.001092309    1.726    0.421
       223  -9.4912    171.5266    208.5178   3.9566273333e+01   7.8350425643e+00    0.1259111    0.1027891   3.57 0.0002656327    1.027    0.026
       224  -9.5934     39.6346    206.1707   7.0655457736e+01   2.5631490699e+01    0.1734555    0.1135535 -64.58 0.0009509732    1.715    0.417
       225 -10.7419      4.1748    204.8403   7.9558452492e+01   2.9232994895e+01    0.1550871    0.1421361 -69.18 0.0005789108    1.343    0.256
       226  -9.2589    135.4628    196.5029   4.5445260639e+01   1.5005598808e+01    0.1344417    0.1187745  17.11 4.579559e-05    1.010    0.010
       227 -10.0237    186.8248     14.9026   3.5309619679e+02   3.6431315913e+01    0.1780159    0.1675936 -69.06 0.0007314726    1.214    0.176
       228  -9.7629    148.0638     15.6378   3.5697240245e+02   4.5705385686e+01    0.3076845      0.11806  73.43  0.001228876    2.410    0.585
       229 -10.5875     15.9886    190.8683   7.5952352806e+01   3.1439248821e+01    0.2414941    0.1653805  73.20 0.0005561127    1.329    0.248
       230 -12.0426      6.7781    185.9368   7.8206862707e+01   3.3371354798e+01    0.3450529    0.2224403  83.75  0.001546824    1.440    0.305
       231  -9.3828    196.4744     14.4555   3.5227621580e+02   3.4318206914e+01    0.1280359    0.1000573 -62.44 0.0001298945    1.026    0.025
       232 -12.3185      2.9917    183.1755   7.9124842310e+01   3.4320082963e+01    0.5282118    0.2860375 -71.14  0.002729706    1.887    0.470
       233  -9.2968    175.5408    179.5273   3.3906773471e+01   1.2103609594e+01    0.1303166    0.1145014  -3.62 0.0001027953    1.019    0.019
       234 -11.0387     15.9321    173.6652   7.5045511732e+01   3.5610990061e+01    0.2731835    0.1797455  78.01  0.001460775    1.413    0.292
       235 -12.2358      9.3641    166.6123   7.6585129431e+01   3.7910700642e+01    0.6535981    0.2131343  36.42  0.002671881    2.431    0.589
       236  -9.6597    156.8443    165.8326   3.5298322676e+01   1.7557991759e+01    0.1786464    0.1692748  81.40 0.0008157478    1.322    0.243
       237 -10.8900     18.1294    164.7978   7.3843896496e+01   3.7660274862e+01    0.2498239    0.1952928 -68.61   0.00141631    1.328    0.247
       238  -9.8959    205.0640    162.9920   2.5344115118e+01   1.0462793653e+01    0.1949131    0.1626251 -21.14 0.0006587701    1.041    0.039
       239  -9.4641    214.9954    161.2800   2.3365722737e+01   9.2963974644e+00    0.1387241    0.1051565  29.25 0.0006456928    1.424    0.298
       240 -13.0322     13.2530    160.2146   7.5043756626e+01   3.9238895158e+01    0.5929279    0.4442731 -58.45  0.001997184    1.451    0.311
       241  -9.8103    104.5815    154.3233   4.6180533059e+01   2.8965709503e+01     0.278617    0.1508955 -61.82  0.001125634    2.091    0.522
       242 -12.3531     16.8466    147.6365   7.3029195180e+01   4.2241164340e+01     1.085845    0.3211593  88.89  0.003210626    4.402    0.773
       243 -11.3738     21.0371    150.4927   7.1873992160e+01   4.1132150136e+01    0.2530644    0.2492783 -74.98 0.0003539812    1.152    0.132
       244 -11.5346     24.0128    147.9994   7.0678870894e+01   4.1530599194e+01    0.3258235    0.3039649 -56.27 0.0007264872    1.188    0.158
       245 -11.5285      4.6711    153.3287   7.7331287452e+01   4.1652604875e+01    0.2539091    0.1773397  59.50 0.0009736479    1.270    0.212
       246  -9.2032     55.5356    152.5238   6.0815323072e+01   3.6865822024e+01    0.1460008    0.1385399  63.71 0.0002592058    1.034    0.033
       247 -11.0811     46.8558    147.5209   6.3000743140e+01   3.9263098034e+01    0.6640749    0.3632018 -50.48  0.002846334    1.977    0.494
       248 -12.8036      3.8863    142.6597   7.7010246815e+01   4.4498974665e+01     0.808044    0.5121933  58.38  0.002418522    1.443    0.307
       249 -12.1121     12.3075    135.6494   7.3653890852e+01   4.5798799548e+01    0.6223124    0.3479713 -49.45  0.002873227    1.943    0.485
       250  -9.4311    104.4648    147.5134   4.4923015067e+01   3.0604005173e+01    0.1525321    0.1432393  58.32 5.966984e-05    1.069    0.065
       251 -10.7432     32.8115    143.8875   6.7306731083e+01   4.1788062304e+01    0.3035386    0.2496643  86.20 0.0006831223    1.153    0.133
       252  -8.9554    105.3514    142.7360   4.3722095548e+01   3.1590519957e+01    0.1570112    0.1148079  63.42 0.0005846157    1.617    0.381
       253 -10.7960     40.8021    138.3994   6.3890903182e+01   4.2413394301e+01    0.4329293    0.3158927 -80.59  0.001411499    1.347    0.258
       254 -11.3491     30.3193    132.5496   6.6900841152e+01   4.5108727387e+01    0.3955052    0.2877099 -19.31  0.001399297    1.733    0.423
       255 -11.8341     20.4896    134.0148   7.0603470937e+01   4.5602112004e+01    0.3912687    0.3061828  46.27  0.001755187    1.230    0.187
       256 -11.8713     24.1738    136.4879   6.9534037460e+01   4.4611879154e+01    0.6286405    0.2774514 -46.72  0.002428428    2.629    0.620
       257 -11.1502     11.3937    125.2192   7.3133237307e+01   4.8690794833e+01    0.5355723    0.2672177 -57.15  0.001776437    1.943    0.485
       258  -9.3715     26.7488    127.3744   6.7606172378e+01   4.6864124929e+01    0.1809605     0.139915   5.22 0.0002484885    1.498    0.333
       259  -9.7205     22.9618    126.5142   6.8924920045e+01   4.7438781817e+01    0.2027923    0.1407755  23.33 0.0004015849    1.508    0.337
       260 -10.1683      2.1083    125.1912   7.6579200624e+01   4.9273845238e+01    0.2969163    0.1705173  79.54  0.001418586    1.637    0.389
       261 -10.5810    104.8104    122.4850   3.9472788838e+01   3.6565018523e+01    0.3160187    0.3059846  76.84 0.0009695601    1.032    0.031
       262 -10.3882     43.5910    117.3758   5.9742010801e+01   4.7821867793e+01    0.5525886    0.2296526 -81.00  0.001768724    3.284    0.695
       263 -11.5550     16.5325    109.0517   6.9465494681e+01   5.2754279197e+01    0.5444973    0.3715561   4.47  0.002140332    1.697    0.411
