#   1 NUMBER                 Running object number                                     
#   2 MAG_AUTO               Kron-like elliptical aperture magnitude                    [mag]
#   3 X_IMAGE                Object position along x                                    [pixel]
#   4 Y_IMAGE                Object position along y                                    [pixel]
#   5 X_WORLD                Barycenter position along world x axis                     [deg]
#   6 Y_WORLD                Barycenter position along world y axis                     [deg]
#   7 A_WORLD                Profile RMS along major axis (world units)                 [deg]
#   8 B_WORLD                Profile RMS along minor axis (world units)                 [deg]
#   9 THETA_WORLD            Position angle (CCW/world-x)                               [deg]
#  10 FWHM_WORLD             FWHM assuming a gaussian core                              [deg]
#  11 ELONGATION             A_IMAGE/B_IMAGE                                           
#  12 ELLIPTICITY            1 - B_IMAGE/A_IMAGE                                       
         1 -11.3091    248.4872     31.8619   5.9537666499e+01   2.0923915305e+01    0.6926675    0.3743085 -53.75  0.003807839    1.575    0.365
         2 -10.7696    250.0751     19.1796   5.6926527447e+01   2.2214441951e+01    0.5170841    0.2120418 -32.93   0.00241891    2.854    0.650
         3 -10.0644    234.3046     19.7508   5.8375221912e+01   2.5507808967e+01    0.2819726    0.2228382  22.92  0.001670604    2.253    0.556
         4 -10.8427    243.9285     22.2752   5.8039648193e+01   2.3123322453e+01    0.3305604    0.2766998 -73.54  0.001797007    1.125    0.111
         5 -11.1172    239.5000     18.0028   5.7570380596e+01   2.4595308710e+01     0.555413    0.2842652 -59.61  0.002983937    1.748    0.428
         6 -10.2427    226.1503     17.8772   5.8730569323e+01   2.7529230328e+01    0.3040224    0.1587542 -55.99  0.001605372    1.756    0.431
         7 -10.5276    221.8357     13.3275   5.8173318021e+01   2.9020364447e+01    0.3077765    0.2105419 -80.39  0.001377029    1.253    0.202
         8  -9.7380    221.1744     17.4492   5.9108722507e+01   2.8692391648e+01    0.2635477    0.1749309 -35.39  0.001229483    1.691    0.409
         9  -9.3518    201.7658     12.0162   5.9850039130e+01   3.3739350077e+01    0.1698626    0.1478253 -74.51 0.0006979282    1.124    0.110
        10 -10.9921    245.6548     13.5783   5.6200973705e+01   2.3817656929e+01    0.5948933    0.2059115  63.06  0.002763159    2.764    0.638
        11 -10.4544    248.8723      7.6093   5.4823370672e+01   2.3842941788e+01    0.3145517    0.2506638  70.37  0.002204569    1.434    0.303
        12 -10.2343    249.0614      2.7574   5.3906279553e+01   2.4352799895e+01    0.3213768    0.1581878 -66.31  0.001792659    1.781    0.439
        13  -9.9739     68.2797     10.5557   8.4302124991e+01   6.3156670438e+01    0.2082109    0.1476234  12.09 0.0008151013    1.295    0.228
        14 -10.2309    233.1361     10.6853   5.6643957781e+01   2.6830728672e+01    0.2415536    0.2064151  40.40   0.00134674    1.750    0.428
        15 -10.4415    238.2256      8.4660   5.5793447661e+01   2.5986762971e+01    0.4424216    0.1791234 -64.69  0.002021756    2.599    0.615
        16 -10.7723    213.0358      8.6388   5.7988619591e+01   3.1520916369e+01    0.4387928    0.2488396 -47.71  0.002476204    1.687    0.407
        17  -9.8656    186.9800      9.6005   6.0895548452e+01   3.7441503761e+01    0.3375302    0.1857361 -57.98   0.00174106    1.926    0.481
        18 -10.4007    155.2400      9.5480   6.4973867297e+01   4.4925191353e+01    0.2573584    0.1746842 -21.25  0.001474748    1.802    0.445
        19  -9.0151     84.4241     10.2293   7.9447988609e+01   6.0264068511e+01    0.1508489    0.1089697 -30.57 0.0009448928    1.593    0.372
        20  -9.8592    224.0882      5.8359   5.6418195485e+01   2.9351392701e+01    0.2865642    0.1393442  77.17 0.0007446102    1.783    0.439
        21  -9.6200    171.4310      5.3238   6.1676566334e+01   4.1509414153e+01    0.1978921     0.128894 -19.63  0.000860097    1.983    0.496
        22  -9.6830    116.5363      6.5078   7.0635056515e+01   5.3998099357e+01    0.1237395    0.1049506  51.11 0.0002651826    1.018    0.018
        23  -9.5881    192.8251     11.1616   6.0612126244e+01   3.5911397757e+01     0.193449    0.1475815 -80.89 0.0005167078    1.172    0.146
        24  -9.1405     60.5005      5.4505   8.4675850182e+01   6.4935443031e+01    0.1159257   0.09067327  19.86 0.0004738331    1.005    0.005
        25  -9.7148    240.0757      2.4596   5.4491816473e+01   2.6262505973e+01     0.301554    0.1319233  86.00  0.001451801    2.144    0.534
        26 -10.0816    231.8082      2.8976   5.5201635621e+01   2.7982364905e+01    0.2922592    0.1504257 -86.40 0.0009351567    1.788    0.441
        27  -9.0755    165.0000      2.9905   6.1878228087e+01   4.3227667960e+01    0.1835615   0.07246143 -25.50 0.0008139755    3.023    0.669
        28 -10.1556     63.6581      2.2464   8.2301267381e+01   6.4687848252e+01    0.2184888    0.1682933  24.57 0.0008610252    1.023    0.022
        29  -9.4939    206.4314      6.7260   5.8197257825e+01   3.3226242663e+01    0.2167447    0.1062823 -39.54  0.001128559    2.054    0.513
        30  -9.3082    190.3484      2.2330   5.8782776395e+01   3.7379101907e+01     0.169582    0.1357275  72.33  0.001056296    1.139    0.122
        31  -9.5263    198.0619     10.3931   5.9867278573e+01   3.4771225108e+01    0.2561105     0.172974 -18.31  0.001441959    2.075    0.518
        32 -10.3214    231.9364    212.5961   1.0001446533e+02  -6.6700474512e+00    0.3555649    0.2667932 -52.57  0.001913047    1.720    0.419
        33  -9.1030    209.7387    250.4052   1.1081865414e+02  -8.9811105308e+00    0.1792358    0.1008094  28.10    0.0009504    1.648    0.393
        34  -9.5963    132.4988    214.0107   1.2060308965e+02   1.0800771461e+01    0.2030929    0.1391544 -58.43 0.0006217694    1.559    0.358
        35  -9.8321    206.7081    208.9972   1.0415807639e+02  -1.8150003857e+00    0.2755832    0.1750467  64.24  0.001181629    2.749    0.636
        36  -9.0555     86.3292    208.6708   1.2988760105e+02   1.9842202486e+01    0.1474185    0.0929369  72.10 0.0003545691    1.711    0.416
        37 -10.1527    124.0295    205.9868   1.2118267601e+02   1.4049347476e+01    0.2037365    0.1832722  67.88            0    1.022    0.022
        38  -9.6106    235.7890    204.0542   9.7681206850e+01  -5.8968115876e+00    0.1915365    0.1771653 -42.06 0.0009883393    1.296    0.228
        39 -10.7522    165.1974    202.3244   1.1149838862e+02   7.1245647294e+00    0.3624488    0.2579564 -63.50  0.001764279    1.678    0.404
        40 -10.1234    218.1671    201.8949   1.0056662360e+02  -2.5687676235e+00    0.1988976    0.1917461 -86.91  0.001044529    1.320    0.242
        41  -9.7664    193.4707    202.9673   1.0567342827e+02   1.6724438702e+00    0.2704928    0.1754531  75.36   0.00102869    3.361    0.703
        42  -9.0949     16.4722    201.5268   1.4371471579e+02   3.0507119658e+01    0.1217553   0.09184834  87.18 0.0003806573    1.012    0.012
        43  -9.7902    241.5615    200.0028   9.5853704953e+01  -6.1599630845e+00    0.2412644    0.2027269  -1.69 0.0008746759    1.094    0.086
        44  -9.3669    204.0944    198.1103   1.0258790450e+02   6.2540147232e-01    0.2225471    0.1854632   2.08  0.001230501    1.253    0.202
        45  -9.5573    249.8049    201.6083   9.4706347061e+01  -7.7147453148e+00    0.2315779    0.1525474 -47.89 0.0009213648    1.763    0.433
        46 -10.7263    248.2215    194.3530   9.3573873375e+01  -6.2928068916e+00    0.4320266    0.3558624  89.68  0.002428195    2.103    0.524
        47  -9.7806    184.5667    196.7377   1.0631933109e+02   4.5430484381e+00    0.2745423    0.1380552 -41.18  0.001142172    2.064    0.515
        48  -9.9186    231.0971    194.6546   9.6709877262e+01  -3.5311093525e+00    0.2376698    0.2234125 -40.62 0.0009173906    1.224    0.183
        49 -11.2053    237.8769    190.5861   9.4665316236e+01  -3.9744481799e+00    0.6796722    0.2887917 -45.60  0.002828904    2.448    0.592
        50  -9.2909    199.9762    192.4958   1.0230941968e+02   2.4450917022e+00    0.1980629    0.1244386  64.48  0.000810162    2.550    0.608
        51  -9.0571    194.0340    188.5063   1.0272529037e+02   4.3476701703e+00    0.2193414    0.1399253  42.81  0.001022505    1.564    0.361
        52 -10.7339    225.0716    185.0394   9.5905270687e+01  -7.7944530602e-01    0.3394007    0.2543606 -44.85  0.001309972    1.352    0.260
        53 -10.0105    249.7198    184.9117   9.1447753949e+01  -4.9625253728e+00    0.3447534    0.2069883 -52.70  0.001671663    2.091    0.522
        54 -10.2060    242.1478    180.8181   9.1942367611e+01  -3.0063235897e+00    0.4062783    0.1675958 -44.53  0.001668609    2.367    0.578
        55  -9.4170    236.1617    181.3105   9.3107967835e+01  -2.0658852368e+00    0.2646886     0.149788 -47.94   0.00123458    1.865    0.464
        56  -9.0608    198.3008    182.6405   1.0065754868e+02   4.6772466806e+00    0.1451549    0.1169665 -82.52 0.0005453939    1.716    0.417
        57 -10.8058    227.6735    179.8052   9.4350529799e+01  -2.9555257191e-01    0.4785157    0.2836092  53.12  0.002213844    2.100    0.524
        58 -10.4588    157.9484    179.0672   1.0862420266e+02   1.3487084919e+01    0.3243636    0.1882243 -40.83   0.00135604    1.851    0.460
        59  -9.4979    219.3452    178.7341   9.5695024427e+01   1.4248807247e+00    0.2505699     0.168884  52.49  0.001004159    1.731    0.422
        60  -9.4214    151.9045    178.7778   1.0994212282e+02   1.4768999001e+01    0.2305665    0.2115106   0.05 0.0007570045    1.247    0.198
        61 -10.2579    233.5225    174.8025   9.2248761617e+01  -4.3604366917e-01    0.3526247    0.2639789 -42.88  0.001717589    1.283    0.221
        62 -10.6648    224.7084    171.6347   9.3204043070e+01   1.7557786709e+00      0.57766    0.2828713 -51.71  0.002315408    2.407    0.585
        63  -9.3046    193.4951    174.0088   9.9847080659e+01   7.3547773287e+00     0.231623    0.1433534 -44.84  0.001031773    1.594    0.373
        64 -10.8374    212.4709    169.5789   9.5095475421e+01   4.4796063698e+00    0.4858005    0.2493927 -42.63  0.001902338    1.857    0.462
        65  -9.2661    237.4848    170.0805   9.0561279669e+01  -2.8939173983e-01    0.2154667    0.1248885 -39.67  0.001024113    1.566    0.362
        66  -9.5819    170.0087    169.2863   1.0388698503e+02   1.3159470369e+01    0.3130074    0.1924273 -70.91  0.001110572    2.595    0.615
        67  -8.6547    242.6565    169.6994   8.9577301714e+01  -1.1349535826e+00    0.1392815     0.101541  -2.40 0.0004893374    1.676    0.404
        68 -10.0458    147.3530    168.2888   1.0885665298e+02   1.8064702363e+01    0.2772201    0.2518322 -89.45 0.0004177249    1.140    0.123
        69  -8.7172    249.3831    167.6889   8.8015475306e+01  -1.9431027290e+00    0.1321968    0.1054326 -74.55 0.0007021877    1.807    0.447
        70 -10.4819    193.1179    166.5141   9.8322509206e+01   8.9665648379e+00    0.3051078    0.2568679 -48.24  0.001085526    1.180    0.153
        71  -9.4819    234.1827    164.6829   9.0016612939e+01   1.2936699387e+00    0.2645529    0.1745047 -58.24  0.001249762    1.887    0.470
        72 -10.6106    246.4097    158.5841   8.6625017792e+01   1.9216372120e-01    0.5665613     0.240731  41.75  0.002349413    2.694    0.629
        73  -8.6978     51.3463    159.6759   1.3120108463e+02   3.6487969395e+01     0.144404   0.09358143  74.05 0.0007049984    1.742    0.426
        74  -9.7883    226.3869    157.1173   8.9802552468e+01   4.1791045445e+00    0.3243247    0.2320408   2.26  0.001246263    1.966    0.491
        75  -9.5728    233.1203    152.6594   8.7640066411e+01   3.7294601307e+00    0.2875087    0.1881759 -27.43   0.00137362    1.614    0.381
        76  -9.5654    229.0212    152.6688   8.8365991829e+01   4.5152244526e+00    0.2698267    0.2334276 -39.03 0.0009164176    1.055    0.052
        77 -10.2234    229.8174    148.2420   8.7261992003e+01   5.2005901947e+00    0.2866402    0.1858082 -53.31   0.00124851    1.614    0.380
        78  -9.0467    184.0000    157.9864   9.8369066075e+01   1.2656108582e+01    0.2614084    0.0857073 -44.45 0.0008078402    2.980    0.664
        79  -8.9764    156.3331    157.3392   1.0440188155e+02   1.8691259521e+01    0.1607467     0.126476  -5.19 0.0007051682    1.747    0.428
        80  -9.9652    250.4027    152.2674   8.4644560340e+01   6.1397321222e-01    0.4056178     0.195168 -49.42  0.001655306    2.128    0.530
        81 -10.1568    242.8848    153.3267   8.6108318146e+01   1.7802615070e+00    0.3325341    0.2964946 -70.42  0.001558203    1.305    0.234
        82 -11.3131    244.1177    148.8335   8.4948520341e+01   2.3737042644e+00     0.533151     0.405656 -47.38  0.001972299    1.228    0.186
        83  -9.5946    221.9071    153.3967   8.9812200280e+01   5.7682540371e+00    0.2910928    0.1898264 -54.57 0.0009222805    1.667    0.400
        84 -10.6809    197.1729    149.6337   9.3748768506e+01   1.1610098509e+01    0.5152712     0.205381 -47.88  0.001786086    2.528    0.604
        85  -9.6785    191.8531    148.5173   9.4582641878e+01   1.2979838442e+01    0.2628466    0.2143831 -64.78  0.001288864    1.340    0.254
        86  -9.4787    234.8209    147.8235   8.6300103117e+01   4.3107091319e+00    0.1959953    0.1634168 -65.49  0.001010609    1.353    0.261
        87 -10.5328    206.2343    147.6913   9.1510123463e+01   1.0093225202e+01    0.2800348     0.215732 -39.07  0.001389908    1.238    0.192
        88 -10.3143    224.2310    146.6672   8.7910874218e+01   6.6056953289e+00    0.2897316    0.2646962   7.08  0.001381957    1.204    0.169
        89  -9.1303    111.6764    147.3226   1.1323121566e+02   3.0113461455e+01    0.1599555    0.1186156  82.53 0.0007046962    1.681    0.405
        90 -10.5985    230.6503    141.2193   8.5577874139e+01   6.3702198050e+00    0.3422514    0.2666227 -52.67  0.001032526    1.254    0.202
        91  -9.7624    250.0907    140.3959   8.2191234849e+01   2.8048201893e+00    0.2757702    0.2203689  37.44  0.001091226    1.459    0.315
        92 -11.1016    249.0836    133.5078   8.0882443253e+01   4.2372361886e+00    0.6875774    0.2261597 -44.04  0.002515337    2.653    0.623
        93 -10.0458    224.9453    138.6405   8.6002678763e+01   8.0091494840e+00     0.446972    0.1763104 -33.80  0.001520125    2.933    0.659
        94  -9.0344    187.4894    140.5041   9.3637229146e+01   1.5616073491e+01    0.1544561    0.1486596 -52.44 6.781725e-06    1.005    0.005
        95  -9.8446    218.8046    138.6538   8.7104445946e+01   9.2678493418e+00    0.2745317    0.2017172  87.11 0.0009878697    1.931    0.482
        96 -10.3964    216.0549    135.5057   8.6891986768e+01   1.0459941001e+01    0.3385779    0.2493144  37.04  0.001657229    1.554    0.357
        97  -9.1331    164.5229    136.4915   9.7695797573e+01   2.1590072966e+01    0.1570717     0.153304 -57.11  0.000303122    1.026    0.025
        98  -9.2671     52.9425    135.9516   1.2689724983e+02   4.2092427314e+01    0.1640327    0.1453564 -67.47 0.0005142905    1.031    0.030
        99 -10.9332    241.9406    133.3245   8.1969880987e+01   5.6338550546e+00    0.4763391    0.3823243 -68.86  0.002611424    1.402    0.287
       100  -9.6709    233.8208    134.7620   8.3616016385e+01   6.9609385915e+00     0.403897     0.118473 -37.07  0.001241363    3.540    0.717
       101 -10.2435    169.7968    134.3745   9.5997863640e+01   2.0874775025e+01    0.3180586    0.2193205 -48.69 0.0009095289    1.420    0.296
       102  -9.9118    139.5132    135.4848   1.0341046737e+02   2.7302509021e+01    0.2890121    0.1518449  33.24  0.001032286    2.423    0.587
       103  -9.4491    221.0068    129.5147   8.4641199754e+01   1.0587044085e+01    0.2123182    0.1477513  52.89 0.0005551916    1.564    0.361
       104  -9.7167     85.6914    129.3296   1.1633832392e+02   3.9051070683e+01    0.1503257    0.1132584  84.09 0.0002858302    1.663    0.399
       105  -8.9947     61.7322    129.6704   1.2323033771e+02   4.2500384270e+01    0.1417251   0.09782963 -37.88 0.0001897669    1.579    0.367
       106  -9.6244    193.1332    127.8672   8.9490880296e+01   1.6997743978e+01    0.2420867    0.2078613 -78.77 0.0008132788    1.268    0.212
       107  -9.8929    229.1422    125.7651   8.2398203605e+01   9.6085729754e+00    0.3269929    0.2725974 -10.04  0.001735128    1.469    0.319
       108 -10.0843    206.3272    127.0207   8.6732613767e+01   1.4236282697e+01    0.2444597    0.2133829  80.90 0.0005721999    1.252    0.201
       109 -10.5626    211.6963    124.8591   8.5235121865e+01   1.3489790352e+01      0.51215    0.3325322  31.34  0.002216335    2.091    0.522
       110  -8.9773    114.0109    126.9361   1.0794524198e+02   3.4536317574e+01    0.1887196     0.174199 -56.84 0.0005388978    1.038    0.037
       111 -10.7201    241.5835    124.6193   8.0130941974e+01   7.3055156980e+00    0.4156629    0.3099283  71.14  0.002039135    1.628    0.386
       112  -9.4588    161.5316    124.3426   9.5403303761e+01   2.4930430591e+01    0.2729121    0.1516526 -48.52 0.0005396871    1.782    0.439
       113  -9.6972    189.0738    123.2167   8.9186157252e+01   1.8872882009e+01    0.3535223    0.2306488 -41.79  0.001559614    1.484    0.326
       114 -10.6444    196.3639    122.0617   8.7459734857e+01   1.7454692110e+01    0.3566256    0.2212228  46.53  0.001550794    1.712    0.416
       115  -9.7718    221.7866    121.0238   8.2567515852e+01   1.2056137751e+01    0.2472718    0.2194763  59.79 0.0008658801    1.217    0.179
       116 -10.0411    235.7421    115.9632   7.9137305428e+01   1.0077359752e+01    0.4625459    0.1968938 -52.83  0.001715565    2.602    0.616
       117 -10.5546    230.2699    115.9551   8.0005188720e+01   1.1216548235e+01    0.4216351    0.3368354  83.19  0.001836854    1.442    0.306
       118  -9.5968    218.6975    115.5715   8.1839653542e+01   1.3764054831e+01    0.4040038    0.1513978  57.04  0.001388838    3.125    0.680
       119 -10.8930    241.7077    104.8263   7.5773231252e+01   1.0868602668e+01     0.524548    0.2599113 -43.67   0.00233309    1.761    0.432
       120 -10.3272    243.2377     93.2297   7.3018607872e+01   1.2589362396e+01    0.3262534     0.259919 -81.77  0.001438639    1.293    0.226
       121  -9.7263    249.3230     98.6579   7.3363627869e+01   1.0403229180e+01    0.2927375    0.2070819 -78.94 0.0009885203    1.637    0.389
       122 -10.0585    245.3572     98.5668   7.3887959003e+01   1.1224577247e+01    0.3316427    0.1752962 -44.77  0.001533621    1.637    0.389
       123 -11.7832    246.6251    112.4579   7.6721134442e+01   8.5105947596e+00    0.6244843    0.4850063 -52.61  0.003504814    1.138    0.121
       124 -11.1132    248.6575    105.5502   7.4937754744e+01   9.3320177711e+00    0.6435997    0.2798362 -45.69  0.002735757    1.986    0.496
       125  -9.1987    203.5656    115.9969   8.4634565964e+01   1.7038754735e+01    0.2337385    0.1417576 -42.14  0.000668677    1.561    0.359
       126  -9.0186     52.3490    113.2199   1.2260362317e+02   4.7587842017e+01    0.1909027    0.1165913 -65.95 0.0005628628    1.601    0.376
       127 -10.2985    104.4366    111.9258   1.0682561560e+02   3.9836225960e+01    0.2692586    0.2196938  31.18 0.0004631654    1.325    0.245
       128  -9.6920     15.0273    112.0148   1.3363790229e+02   5.1426860456e+01    0.1895488    0.1497534 -61.91 0.0004720266    1.001    0.001
       129 -10.6411    183.7341    109.1116   8.6775871237e+01   2.2975092075e+01     0.393675    0.2045026 -44.05  0.001555921    1.857    0.461
       130 -10.2009    215.1857    107.8536   8.0636590581e+01   1.6002835260e+01    0.4028079    0.2248141  63.85  0.001695338    2.092    0.522
       131 -10.6944    213.0352    115.7461   8.2863724840e+01   1.4972601702e+01    0.4265979    0.2899143  24.01  0.001676459    2.304    0.566
       132  -8.9289    196.2009    103.4066   8.2938181053e+01   2.1182892102e+01    0.2084614    0.1444898  69.96 0.0005603481    1.624    0.384
       133  -9.6107    236.2527    107.9992   7.7285256383e+01   1.1427440749e+01    0.2046173    0.1732754 -52.94 0.0005857964    1.041    0.039
       134 -10.4838    235.9417     99.7272   7.5487454324e+01   1.2979935116e+01    0.4514729    0.1974048 -36.79  0.001805373    2.251    0.556
       135  -9.5993    221.2584    100.5995   7.7938490071e+01   1.6003022895e+01    0.2836314    0.1589565 -51.01  0.001244011    1.702    0.412
       136  -9.0299    217.3419    100.2943   7.8500682890e+01   1.6931103641e+01    0.1407534    0.1175326  13.95 0.0007030093    1.659    0.397
       137  -9.4332    168.0069    100.5098   8.7831113404e+01   2.8400153766e+01    0.2435113      0.15224  52.45  0.001039529    1.611    0.379
       138 -10.1917    130.0645     98.0665   9.6119992292e+01   3.7609227783e+01    0.2320304    0.2278636   1.86 0.0006907096    1.046    0.044
       139  -9.4788    175.8121     96.4030   8.5123243436e+01   2.7350034317e+01    0.2177027    0.1424741  44.68 0.0009494078    1.633    0.388
       140 -10.0531    230.9310     94.5943   7.5072843754e+01   1.4964600961e+01    0.3692597    0.1868099 -42.37  0.001619054    1.780    0.438
       141  -8.9584    150.9955     93.2548   8.9663384982e+01   3.3837925288e+01    0.2083499    0.1313162  51.67 0.0008933232    1.584    0.369
       142  -8.8516    108.7740     91.0170   9.9873333863e+01   4.3502322592e+01    0.2020682    0.1193218 -44.01 0.0005612297    1.656    0.396
       143 -10.4938    236.8269     89.8385   7.3159260260e+01   1.4527513018e+01    0.3315737     0.236779  82.34  0.001135317    1.567    0.362
       144  -9.9729    237.9033     84.0178   7.1722811362e+01   1.5293105852e+01    0.5871176    0.2412788 -58.55  0.002039076    3.333    0.700
       145 -10.9050    235.9645     74.2344   6.9820552766e+01   1.7340971567e+01    0.8909186    0.2681249 -45.26  0.003224702    2.874    0.652
       146 -10.3402    247.2424     86.8721   7.1108559775e+01   1.2845110600e+01    0.3933502    0.2161762  64.18  0.001894504    2.015    0.504
       147 -11.7772    244.6206     79.9807   6.9962496017e+01   1.4543251422e+01     1.028668     0.561947 -60.36  0.004789106    1.901    0.474
       148 -10.0751    215.4727     89.0152   7.6142348683e+01   1.9394891537e+01    0.2293185    0.1347776 -41.44  0.001036841    1.606    0.377
       149 -10.6693    225.8197     86.7472   7.4038881119e+01   1.7463312549e+01    0.4164748    0.3375791  -9.02   0.00204534    1.757    0.431
       150 -10.0907    176.0363     87.0731   8.2628757371e+01   2.9056940529e+01    0.2532684    0.1810237 -77.18  0.001130701    1.735    0.424
       151  -9.3607    165.4969     87.4874   8.4886974553e+01   3.1509923361e+01    0.1526782    0.1451195 -85.07 0.0008104876    1.018    0.018
       152  -8.9315    139.4951     87.4928   9.0774021618e+01   3.7611586399e+01    0.1495475    0.1478063  79.77 0.0001514866    1.002    0.002
       153  -9.2703    232.6550     85.3183   7.2734062655e+01   1.6205763080e+01    0.2407719    0.1522068 -54.97 0.0006789401    1.469    0.319
       154 -10.0988    231.2511     82.3795   7.2269549397e+01   1.7013828760e+01    0.3249676    0.2299713  62.92  0.001417686    1.487    0.328
       155  -9.4266    116.9967     84.7315   9.5759219597e+01   4.3076307579e+01    0.2083452    0.1973657  37.45 0.0006472041    1.059    0.056
       156  -9.0176     88.0000     82.0113   1.0336931091e+02   4.9185531069e+01    0.2339008   0.07679203 -45.14 0.0007987954    2.917    0.657
       157  -9.3936    159.3248     80.3269   8.4231212198e+01   3.4300991054e+01    0.1528634    0.1197942  17.26  0.000704936    1.694    0.410
       158  -9.8418    119.1812     78.8206   9.3411322244e+01   4.3738190514e+01      0.20835    0.1758286   4.24 0.0007281944    1.342    0.255
       159  -9.9742    175.9260     77.4644   8.0101803760e+01   3.0807956859e+01    0.2939905     0.198715 -55.69  0.001221279    1.555    0.357
       160 -10.3788    226.1161     74.6175   7.1223299010e+01   1.9454341332e+01    0.3993571    0.3257298 -33.06  0.002233031    1.381    0.276
       161  -9.9754    189.7836     77.4026   7.7553373186e+01   2.7472240437e+01    0.2109562    0.1327788  49.72 0.0007208986    1.664    0.399
       162  -9.9372    214.6754     75.6606   7.3104371753e+01   2.1885538380e+01    0.3720565     0.212672  61.02  0.001719183    1.773    0.436
       163  -9.5389    126.4735     76.5005   9.0809522489e+01   4.2585722993e+01    0.1453433    0.1419754  22.32 0.0001237316    1.009    0.009
       164  -9.8122    200.0251     72.1496   7.4515525720e+01   2.5911051619e+01    0.2906328    0.1737908  62.29  0.001336452    1.659    0.397
       165  -9.2258    249.9957     70.9417   6.7383625304e+01   1.4888147087e+01    0.1790259    0.1648726  11.08  0.000792534    1.579    0.367
       166  -9.3740    241.1143     69.3055   6.8096740150e+01   1.7024124037e+01    0.2653195    0.1063868  55.93  0.001104294    2.675    0.626
       167 -11.1591    225.5855     66.7044   6.9495972610e+01   2.0858790940e+01    0.5624055    0.3397894 -88.35  0.002608384    2.006    0.501
       168  -9.7681    221.1491     61.2145   6.8830480259e+01   2.2730493950e+01    0.3153785    0.1817003 -58.94  0.001211366    1.735    0.424
       169 -10.1505    250.1021     65.8081   6.6296779752e+01   1.5675381120e+01    0.3086156    0.1642867 -46.08 0.0009055689    1.611    0.379
       170  -9.3054    238.2859     65.1663   6.7545255730e+01   1.8289894917e+01    0.2323352    0.1524375 -39.20 0.0009669899    1.507    0.337
       171 -10.5417    206.7836     60.0306   7.0528638510e+01   2.6254239415e+01    0.4222908    0.1460385 -46.97  0.001537258    2.811    0.644
       172  -9.4037    238.4902     60.4952   6.6510561780e+01   1.8971156215e+01    0.1772274    0.1207037  58.73 0.0009587314    1.609    0.378
       173  -9.6256    235.0294     59.9788   6.6809519201e+01   1.9807130080e+01    0.2733583     0.183697  83.99 0.0009427575    1.511    0.338
       174 -10.7509    202.2313     57.8155   7.0650873113e+01   2.7673725977e+01    0.2750005    0.1805168  52.48 0.0006848226    1.616    0.381
       175 -11.3059    199.1288     47.4351   6.8558329713e+01   2.9944588265e+01    0.5187179    0.2316573 -50.66  0.002167365    2.308    0.567
       176 -11.2019    200.7257     53.9659   6.9928655430e+01   2.8612869445e+01     0.420252     0.282193  15.10  0.001759219    3.078    0.675
       177  -9.4241    171.2154     59.2820   7.6081277356e+01   3.4945383048e+01     0.260841     0.172607  57.48 0.0009588868    1.433    0.302
       178 -10.0927    126.5238     58.9311   8.5420978844e+01   4.5545594611e+01    0.2095828    0.1399593 -35.59 0.0006637948    1.559    0.359
       179  -9.9780    214.0503     57.7258   6.8969624825e+01   2.4905138213e+01    0.3810119    0.2286822  62.33  0.001486322    1.636    0.389
       180 -10.4839    131.7070     55.2079   8.3028039428e+01   4.4949803780e+01    0.3008015    0.1474236 -33.09  0.001263866    2.184    0.542
       181  -9.7383    250.4517     54.7131   6.3961976439e+01   1.7293892782e+01    0.2808512     0.134472 -42.07  0.001219629    1.856    0.461
       182 -10.1768    237.1260     53.7066   6.5207668280e+01   2.0295131241e+01    0.4754423    0.2462399  78.92  0.002218757    2.140    0.533
       183 -10.7973    228.5685     52.0864   6.5848109930e+01   2.2431489664e+01    0.4760281    0.3887815 -69.95  0.002877056    1.046    0.044
       184 -10.5783    244.5069     51.4610   6.3919557591e+01   1.9031208139e+01    0.4327967    0.2407572 -75.76   0.00177147    2.024    0.506
       185  -9.3396    158.4952     61.9618   7.9247279504e+01   3.7608183690e+01    0.2187308    0.1440706 -36.44  0.001033901    1.593    0.372
       186  -9.7951    163.4780     53.0698   7.5785443485e+01   3.7759149528e+01     0.210394    0.1406301 -36.38  0.001029702    1.583    0.368
       187 -10.0540    197.8597     51.8032   6.9811629670e+01   2.9617097007e+01    0.3133343    0.1898327  89.64 0.0008191552    1.946    0.486
       188 -10.9335    244.2588     42.1165   6.2010851380e+01   2.0424233422e+01    0.3838573    0.3102818 -51.73  0.001577995    1.217    0.179
       189  -9.6028    249.9697     48.4968   6.2740994069e+01   1.8306554847e+01    0.2092591    0.1554025  72.80 0.0008125665    1.373    0.272
       190  -9.6906    249.7878     44.7727   6.2003204964e+01   1.8878113473e+01    0.3762816    0.1181288 -52.38  0.001459041    3.012    0.668
       191  -9.3462    158.4684     48.4774   7.5423124459e+01   3.9629887965e+01    0.1407807    0.1294009  76.20 0.0008093067    1.022    0.021
       192  -8.9146    162.4275     46.2110   7.4058269049e+01   3.8990517889e+01    0.1946467    0.1239096 -48.94   0.00093868    1.679    0.404
       193  -9.3389    238.3036     45.3873   6.3306900231e+01   2.1248549801e+01    0.1740141    0.1105675  85.64 0.0009352362    1.542    0.352
       194 -10.3859    216.1602     41.6629   6.4990562489e+01   2.6749422499e+01     0.380612     0.271044 -15.83  0.001616208    2.129    0.530
       195 -10.6535    189.5476     44.2858   6.9145767243e+01   3.2685305719e+01    0.3489279    0.1334248 -34.74  0.001124096    2.726    0.633
       196  -9.2138     76.6234     44.6879   9.4747080001e+01   5.7598407099e+01    0.1746028     0.115114 -40.98 0.0006927358    1.641    0.391
       197  -9.4385    233.3376     43.6616   6.3473620960e+01   2.2583480474e+01    0.3282719    0.1855589  40.22   0.00143048    3.173    0.685
       198 -10.2761    174.3818     40.3094   7.0424801719e+01   3.6891745085e+01    0.4033957    0.2263766 -71.18  0.001685511    2.521    0.603
       199  -9.3723    209.0603     39.6542   6.5392519448e+01   2.8675609208e+01    0.1871401    0.1536595  85.97 0.0005228539    1.080    0.074
       200 -11.3645    201.1254     38.2461   6.6064395233e+01   3.0734710706e+01    0.5445087    0.2615606 -24.88  0.002256259    2.957    0.662
       201  -9.5697    165.6543     39.9992   7.1769582053e+01   3.9045368205e+01    0.1882765    0.1755068 -55.02 0.0007091346    1.144    0.126
       202 -10.1626    238.4728     38.3640   6.1816216893e+01   2.2192150972e+01    0.2525305    0.2015311 -76.42  0.001124234    1.028    0.028
       203 -11.5065    185.6751     37.5836   6.8008380867e+01   3.4518764384e+01    0.4365219    0.1976615 -44.83   0.00190933    2.223    0.550
       204  -9.1839     61.4415     38.0480   9.7468061346e+01   6.0991191674e+01    0.1858764    0.1105243 -31.93  0.001029738    1.603    0.376
       205  -9.5475    233.7512    247.8571   1.0596184395e+02  -1.2198092331e+01    0.2198252    0.1520658  54.29  0.001241405    2.275    0.560
       206  -8.8033    140.6791     37.6798   7.5697405143e+01   4.5298887227e+01    0.1415817    0.0981189  30.87 0.0007044079    1.669    0.401
       207 -10.0104    236.6384     31.0842   6.0485758977e+01   2.3566979694e+01    0.2786317    0.2524723  45.22  0.001847641    1.557    0.358
       208 -10.7540    227.4715     33.5534   6.1928346987e+01   2.5269681982e+01     0.571304    0.2469711 -47.07  0.002679939    2.079    0.519
       209  -9.6491    231.7425     32.2717   6.1216862032e+01   2.4487340757e+01    0.2925665    0.1587752  87.82  0.001461618    1.890    0.471
       210  -9.7064    242.0684     34.2235   6.0608885547e+01   2.1974880091e+01    0.2219498     0.155392 -57.63 0.0008674939    1.221    0.181
       211  -9.5068    190.6275     34.1953   6.6465759612e+01   3.3765630358e+01    0.1715197    0.1315998 -21.08 0.0009463546    1.669    0.401
       212  -9.5251    161.9884     38.0332   7.1847315287e+01   4.0184430640e+01     0.291061    0.1911803   8.94  0.001305773    2.565    0.610
       213 -10.5889    169.8755     31.3155   6.8721483379e+01   3.9118197665e+01     0.378957    0.2272969  -4.77  0.001637775    2.975    0.664
       214  -9.6373    221.3042     31.1458   6.2057749961e+01   2.6975670576e+01    0.2973687    0.2227112 -65.30   0.00179289    1.177    0.151
       215 -10.0007    209.1898     31.6080   6.3514212960e+01   2.9704689310e+01    0.2361483    0.1156439  64.44 0.0004792515    1.864    0.464
       216 -10.4244    213.1338     31.0000   6.2923136907e+01   2.8867051673e+01    0.3860212    0.2199645 -63.02  0.001947095    1.766    0.434
       217 -10.1695    216.4712     30.5032   6.2439720683e+01   2.8161861373e+01    0.2639723    0.2542551  70.28  0.001766779    1.315    0.240
       218  -9.2423    199.5933     20.7763   6.2109857811e+01   3.3268113873e+01    0.3623737   0.08167607 -37.65  0.001306381    3.805    0.737
       219 -11.0905    201.1533     27.9833   6.3620221047e+01   3.2042156347e+01    0.5443875    0.2914752 -14.59  0.002226539    3.611    0.723
       220 -10.0837    110.3775     31.2081   8.0335918310e+01   5.2869639459e+01    0.1743335    0.1189419 -38.38 0.0006796988    1.644    0.392
       221 -11.2496    224.9526     23.0346   5.9932832870e+01   2.7174208416e+01    0.4993064    0.3006691  84.91  0.002765795    1.516    0.341
       222  -9.4636    145.5959     24.8028   7.0906371494e+01   4.5658118195e+01    0.1791838    0.1183799 -43.66 0.0008800283    1.682    0.406
       223 -10.0097    118.3543     24.9172   7.6359681840e+01   5.1855138908e+01    0.1955363    0.1599299 -49.82  0.001174675    1.458    0.314
       224  -9.5664    186.9691    247.3530   1.1468525731e+02  -4.8907757380e+00    0.1843943    0.1426086  33.34 0.0004955477    1.116    0.104
       225  -9.5974    202.4530    242.3072   1.1087931626e+02  -6.6225882076e+00    0.2171246     0.145992  52.04  0.001184583    1.786    0.440
       226  -9.4335    246.6206    240.7483   1.0244191453e+02  -1.3045055145e+01    0.1915546    0.1497857 -19.45 0.0006944276    1.203    0.169
       227  -9.1583    243.6311    236.8236   1.0228874941e+02  -1.2084331079e+01     0.171166     0.143163 -58.28  0.001005553    1.934    0.483
       228 -10.4370    174.1007     20.1005   6.5138223458e+01   3.9391598006e+01    0.3763079      0.15349  64.36  0.001651339    2.079    0.519
       229  -9.6880    165.2894     19.6425   6.6266026393e+01   4.1543788934e+01    0.1351795   0.09071798 -68.76 0.0007026223    1.684    0.406
       230 -10.1291    239.9001    240.4651   1.0359110313e+02  -1.2060361179e+01    0.2387831    0.2002035  52.69  0.001215464    1.755    0.430
       231  -9.4603    230.3356     16.0727   5.7976754710e+01   2.6817403414e+01    0.2413443    0.2185988 -78.74  0.001693254    1.241    0.194
       232  -9.3538    214.9658    240.9717   1.0827325117e+02  -8.4037541002e+00    0.1758436    0.1573522  70.35  0.001125691    1.647    0.393
       233 -10.0857    225.1272    243.0945   1.0673515505e+02  -1.0268754921e+01    0.2790576    0.2492996 -48.00  0.001886851    1.531    0.347
       234  -9.4043    217.9964     16.0000   5.9103490788e+01   2.9577427746e+01     0.246558    0.1492504  76.14  0.001081765    1.445    0.308
       235  -9.0421     67.7608     17.9742   8.7476855382e+01   6.2493115451e+01    0.1444359   0.09286897 -20.98 0.0004576616    1.552    0.356
       236  -9.7965    199.8128     15.3642   6.0826408404e+01   3.3828061025e+01    0.2849993    0.2045732 -88.50 0.0009810213    1.222    0.182
       237 -10.0876    230.9208    237.0304   1.0462570892e+02  -1.0261028168e+01    0.2564873    0.1719339 -40.37  0.001010209    1.658    0.397
       238 -10.7619    205.9913    236.0916   1.0915626318e+02  -6.2260494775e+00    0.3729926    0.3479253 -81.32   0.00213505    1.491    0.329
       239  -9.9433    219.2343    235.7901   1.0658260240e+02  -8.2908218663e+00    0.3036169    0.1933949  34.89  0.001274883    1.443    0.307
       240  -9.4481    244.8829    231.9056   1.0119686453e+02  -1.1568525534e+01    0.1608084    0.1541115 -74.90 0.0006435402    1.654    0.395
       241  -9.4766    162.4599     14.9888   6.5418624435e+01   4.2697533369e+01    0.1769318    0.1280957 -31.82  0.001025956    1.581    0.368
       242  -9.1287    105.0000     14.9695   7.6006369855e+01   5.5718883672e+01    0.1849058   0.07075603 -24.52 0.0007189019    2.921    0.658
       243  -8.5358    173.3029     14.3441   6.3754251088e+01   4.0189529674e+01    0.1290201   0.08981802  40.87 0.0005927334    1.683    0.406
       244  -9.9925    238.2267    231.6413   1.0234534048e+02  -1.0562178369e+01    0.3432911    0.1979203  53.38  0.001638721    2.879    0.653
       245  -9.8780    227.2971    219.5644   1.0217221856e+02  -7.0449089750e+00    0.3083413    0.1899086 -23.73  0.001614206    1.704    0.413
       246 -10.5973    229.3802    228.1955   1.0335046853e+02  -8.7143266928e+00    0.3801094    0.2276158 -43.26  0.001764399    1.856    0.461
       247  -9.5183    229.4329    222.7905   1.0236486830e+02  -7.8905300812e+00    0.2307384    0.1727575  29.22  0.001095544    1.265    0.209
       248  -9.8665    248.1045    227.3857   9.9815247093e+01  -1.1382056768e+01    0.2177707    0.1618488 -30.86  0.000633474    1.323    0.244
       249  -9.2918     99.2603    226.2427   1.2942167210e+02   1.3942428656e+01    0.1891359    0.1354121  70.03 0.0008230158    1.347    0.258
       250 -10.4429    208.3564    223.8998   1.0657107179e+02  -4.6482663048e+00    0.3183108    0.2081994   2.48   0.00156966    2.006    0.501
       251 -10.8891    239.0255    220.6178   1.0020804354e+02  -9.0366747927e+00     0.394394    0.3431577 -64.61  0.002410408    1.758    0.431
       252 -10.2379    193.8458    219.8343   1.0871004118e+02  -1.4652796512e+00    0.3477573     0.277424  77.57  0.001863709    1.862    0.463
       253  -9.1162    204.5056    220.5082   1.0671448390e+02  -3.4286255339e+00    0.1336102    0.1194518  12.29   0.00014731    1.003    0.003
       254 -10.9878    247.1993    215.2773   9.7755037481e+01  -9.4529959642e+00    0.6011218    0.2744274 -40.46   0.00288961    2.153    0.536
       255  -8.9993    159.9952    219.0000   1.1553724558e+02   4.7806116743e+00    0.2352208   0.07369783  41.06  0.000800907    2.932    0.659
       256  -9.4404     63.6728    217.3505   1.3571474679e+02   2.1271625988e+01    0.1423393    0.0822213  71.51 0.0006342828    1.762    0.432
       257 -11.1575    214.4539    215.6093   1.0388120969e+02  -4.2898200527e+00    0.3477872    0.2521422 -49.85  0.001909082    1.633    0.388
       258 -10.1696    218.7801    215.4306   1.0301737724e+02  -4.9846455489e+00    0.2604594    0.2249094  73.07  0.001500868    1.692    0.409
       259  -8.6475    109.2986    216.6659   1.2601590300e+02   1.4310814507e+01    0.1444134    0.0976123  73.85 0.0007031965    1.650    0.394
       260  -8.7405     56.2499    216.7009   1.3715740856e+02   2.2434023428e+01    0.1282758    0.0805146  75.09            0    1.493    0.330
       261 -10.2651    186.9475    213.9862   1.0905610974e+02   8.1546147917e-01    0.3266817    0.2070604 -53.58     0.001586    1.863    0.463
