#   1 NUMBER                 Running object number                                     
#   2 MAG_AUTO               Kron-like elliptical aperture magnitude                    [mag]
#   3 X_IMAGE                Object position along x                                    [pixel]
#   4 Y_IMAGE                Object position along y                                    [pixel]
#   5 X_WORLD                Barycenter position along world x axis                     [deg]
#   6 Y_WORLD                Barycenter position along world y axis                     [deg]
#   7 A_WORLD                Profile RMS along major axis (world units)                 [deg]
#   8 B_WORLD                Profile RMS along minor axis (world units)                 [deg]
#   9 THETA_WORLD            Position angle (CCW/world-x)                               [deg]
#  10 FWHM_WORLD             FWHM assuming a gaussian core                              [deg]
#  11 ELONGATION             A_IMAGE/B_IMAGE                                           
#  12 ELLIPTICITY            1 - B_IMAGE/A_IMAGE                                       
         1 -16.3528    135.1575     41.9336   6.4262962563e+01   4.6381390791e+01       15.824     9.905456  82.01   0.06389169    2.445    0.591
         2 -17.7273    244.3168     44.3239   4.7640211137e+01   1.8517198746e+01     3.939734     1.594399 -34.85   0.01650701    2.165    0.538
         3 -14.0047    234.1714     11.9415   4.0777363294e+01   2.4901890343e+01      1.25844    0.7523704  81.40  0.004947901    1.617    0.382
         4 -15.1266    217.4065     22.3732   4.4983213557e+01   2.7770406176e+01     1.722377     1.339289  57.92   0.00800559    1.356    0.262
         5 -16.2961    218.6941     68.5681   5.7060833894e+01   2.1059876507e+01     4.577244    0.9112589 -37.53   0.01291272    3.991    0.749
         6 -15.6424    223.6093     27.4346   4.5634283119e+01   2.5628647233e+01     2.763716     1.296071  35.89    0.0093144    4.345    0.770
         7 -15.7186    232.0591     70.4080   5.5635323309e+01   1.7587443627e+01     1.809328     1.092189 -59.75  0.008056347    1.915    0.478
         8 -16.2427    222.9819     47.8629   5.1008418197e+01   2.3086784098e+01     2.910715     1.827298   5.19   0.01172753    2.890    0.654
         9 -10.0637    166.8070     23.3662   5.1833191492e+01   4.0696686706e+01    0.6663877    0.3071498 -48.32  0.002374113    2.498    0.600
        10  -9.8157    174.3790     17.7130   4.8920287130e+01   3.9349613370e+01    0.2911704    0.2205897   2.45  0.001447777    1.636    0.389
        11  99.0000    181.9544     16.7953   4.7608959936e+01   3.7472153263e+01    0.3922201    0.2940989  37.36  0.001733122    1.511    0.338
        12  -9.0196    199.1631     12.9755   4.4431875836e+01   3.3434610989e+01    0.2109201    0.1655128 -55.78 0.0004064204    1.234    0.190
        13  -9.7015    166.8180     14.3681   4.8952645771e+01   4.1676636834e+01    0.3834265    0.2363114 -26.88  0.001850135    1.729    0.422
        14  -9.0909    171.1464      9.3784   4.6777737319e+01   4.1050897268e+01    0.2175171    0.1805328  19.77 0.0006271545    1.405    0.288
        15  -8.5664    179.0388      6.6142   4.4930789455e+01   3.9268636104e+01    0.2656407    0.1759728 -28.64  0.001363484    1.612    0.380
        16  -9.2284    201.8654      6.4415   4.2357021608e+01   3.3423970289e+01    0.2119904    0.1773161  20.58  0.001078007    1.515    0.340
        17  -9.1065    202.6668      2.7133   4.1274329683e+01   3.3589697018e+01    0.1781732    0.1267768 -25.68 0.0002794766    1.550    0.355
        18  -8.7943    166.1196      5.6012   4.6263995420e+01   4.2713258289e+01    0.2520423     0.196172  -8.28 0.0008532424    1.500    0.333
        19  -9.1457    160.0146      3.5145   4.6423700343e+01   4.4478883285e+01    0.3543959    0.1935947 -24.64 0.0009484488    1.979    0.495
        20  -9.8693    243.5009      3.8890   3.8160630116e+01   2.3609904659e+01    0.1956385    0.1275107  89.81 0.0005225673    1.432    0.302
        21  99.0000    210.7599      4.5917   4.1008341255e+01   3.1375569636e+01    0.1666868    0.1152142 -11.77 0.0005702721    1.840    0.457
        22  -9.9591    194.4720      3.1517   4.2208199834e+01   3.5626605760e+01    0.1720776    0.1593014 -88.34 0.0003090881    1.062    0.058
        23  -9.6312    220.7188      1.9702   3.9470469380e+01   2.9188323351e+01    0.1728139    0.1521401 -34.46 0.0005782668    1.259    0.206
        24  -9.0920    228.7253      1.1691   3.8631895618e+01   2.7342592031e+01    0.1195802    0.0788449 -76.50 0.0006397593    1.399    0.285
        25  -8.0297    180.6206      1.4628   4.3217815855e+01   3.9338226544e+01    0.1341827    0.1193066  58.35 0.0007934237    1.138    0.121
        26  -9.3051    175.0830      1.3792   4.3832096827e+01   4.0774524598e+01    0.1945073    0.1195301  74.00  0.000435116    1.472    0.321
        27  -8.6444    215.3269    162.3594   8.0641133055e+01   5.8457640109e+00    0.2967655     0.206555 -42.06  0.001000755    1.524    0.344
        28  -7.1280     49.7176    244.3247   1.2472286453e+02   1.9217571582e+01    0.1137313   0.05872573  67.05 0.0002455316    1.597    0.374
        29  -9.5000    123.9967    206.0003   1.0709859603e+02   1.5345925255e+01    0.1867255    0.1579968  58.86  0.001158885    1.019    0.019
        30  -8.9989    179.5289    156.5089   8.6508523869e+01   1.4226190266e+01     0.495013    0.2659221 -41.63  0.002093449    1.924    0.480
        31  -9.5232    178.9157    151.2427   8.5485178783e+01   1.5367862804e+01    0.5123798    0.3582831  55.11  0.002065759    1.525    0.344
        32  -8.6883    214.5251    156.4303   7.9508367222e+01   6.9996309278e+00    0.3876385    0.2348228  26.33  0.001483619    1.938    0.484
        33  -8.3516    208.8364    155.0006   8.0275278022e+01   8.3981564232e+00    0.2131917    0.1925665  -0.72 0.0003810854    1.055    0.052
        34  -8.1079    210.4678    151.3006   7.9142799080e+01   8.7049057209e+00    0.2962914    0.2277645 -49.52 0.0007373373    1.471    0.320
        35 -14.4352    240.4833    137.6783   7.0692260128e+01   4.9078437500e+00     4.554379     2.924177  79.86   0.01778126    3.572    0.720
        36  -9.1698    195.7483    148.0223   8.1286415968e+01   1.2379486836e+01    0.9158312    0.3994503 -51.76  0.003104197    3.208    0.688
        37  -8.2518    200.1888    147.6349   8.0313647749e+01   1.1505720580e+01    0.2889657    0.2228753 -34.97 0.0007206628    1.292    0.226
        38  -8.7920    184.4471    131.2225   7.9664909528e+01   1.8041171035e+01    0.2647893    0.2550525 -31.84 0.0003764617    1.038    0.037
        39  99.0000    187.1698    126.3345   7.7900727046e+01   1.8368961424e+01     1.456372    0.7222997 -21.71  0.004510345    3.634    0.725
        40  -9.1248    191.2097    141.1632   8.0630592090e+01   1.4636428137e+01    0.2689557    0.2433048  56.11 0.0004306412    1.173    0.148
        41  -9.5167    200.3561    142.7475   7.9161600803e+01   1.2358659676e+01    0.3240077    0.2465369 -60.86  0.001558369    1.651    0.394
        42  -9.0212    196.2761    140.4102   7.9430140059e+01   1.3672002916e+01    0.3908077     0.325059 -86.28  0.001944738    1.598    0.374
        43  -8.9972    196.8080    136.0592   7.8299527197e+01   1.4363816427e+01     1.063777    0.6198582  68.07  0.001934229    2.840    0.648
        44  -7.9358    164.2306    151.3456   8.8688003534e+01   1.8474054083e+01    0.2086156    0.1953111 -28.10 0.0008083269    1.113    0.102
        45  -7.8898    205.0883    148.8353   7.9624841367e+01   1.0256583151e+01    0.2039237    0.1926237  63.59 0.0004378034    1.208    0.172
        46  -7.6825     87.3099    149.6306   1.0670133863e+02   3.3496466707e+01    0.1504462    0.1005616  79.19 0.0007035599    1.765    0.434
        47  -8.5387    104.1463    146.0148   1.0183611633e+02   3.1527090864e+01    0.2626039    0.2192405 -67.37 0.0005567003    1.153    0.133
        48 -10.2208     66.3345    145.4428   1.1128843005e+02   3.7555772134e+01    0.4109433    0.2996845  63.22  0.002184137    1.380    0.276
        49  -8.3217    212.7736    145.5872   7.7417274980e+01   9.2199303149e+00    0.3389586    0.2446333  50.87  0.001685125    1.478    0.323
        50  -8.7160    216.4888    143.5589   7.6259439522e+01   8.7972639612e+00    0.3293301    0.2019692 -31.99  0.001121407    1.600    0.375
        51  -8.9682    142.4709    145.8307   9.2454335904e+01   2.4193295330e+01    0.2773911    0.2017543   2.93 0.0009581968    2.193    0.544
        52  -9.7830    133.4664    143.0405   9.3997840767e+01   2.6642734866e+01    0.4395148    0.3188891  84.41  0.001973262    1.842    0.457
        53 -10.0994     55.9607    143.1414   1.1356870369e+02   3.9442238710e+01    0.3411141    0.2037679 -64.90  0.001789833    1.465    0.318
        54  -8.9256    151.0653    141.9465   8.9585886016e+01   2.3222458755e+01    0.3498171    0.2125573 -41.98 0.0007894837    1.707    0.414
        55  -8.9983    159.0144    140.0588   8.7328879734e+01   2.1910329170e+01    0.3307527    0.2590338 -63.20 0.0007107527    1.442    0.306
        56  -7.6446    138.0000    139.9489   9.2227046791e+01   2.6396732090e+01    0.2550244    0.0861642 -48.03 0.0008086936    2.986    0.665
        57  -8.5485    215.9967    138.7052   7.5231210932e+01   9.7404453917e+00    0.2200938    0.1946333 -21.58 0.0003026175    1.076    0.071
        58  -7.6373    208.6458    136.5030   7.6095926572e+01   1.1698765174e+01    0.1774058    0.1457772  62.28 0.0001346844    1.410    0.291
        59  -9.8947    206.2737    132.3116   7.5554223054e+01   1.2968506673e+01    0.3329535    0.2848292 -13.35 0.0007211894    1.191    0.161
        60  -8.9720    206.7091    142.6301   7.7895331625e+01   1.1019595191e+01    0.4320143    0.2325008 -47.88  0.001778241    2.089    0.521
        61  -8.5024    213.9568    134.2106   7.4556196893e+01   1.0960871384e+01    0.2677991    0.2036495  28.95 0.0004550248    1.397    0.284
        62  -8.6041     48.2310    153.3783   1.1685692328e+02   3.7979475301e+01    0.1790029    0.1047212  49.39 0.0009565545    1.707    0.414
        63  -8.7102    140.9423    133.9872   9.0162711375e+01   2.7087429922e+01    0.2382214    0.1922977  -7.21  0.001117526    1.637    0.389
        64 -14.8284    241.6071    121.0381   6.6661312731e+01   7.3619991144e+00     2.219358     1.927002  74.15  0.008016414    1.434    0.302
        65  -8.1738    172.3463    132.4825   8.2561418227e+01   2.0516802643e+01    0.2575895    0.2414917 -62.00 0.0005260732    1.121    0.108
        66  -9.1319    176.4017    129.8569   8.1042088298e+01   2.0128134474e+01    0.4070307    0.2636364  67.10 0.0006341083    2.070    0.517
        67  -7.0634     58.2952    205.3291   1.2020314065e+02   2.5418622239e+01    0.1043233   0.09091985 -51.38  0.000392491    1.632    0.387
        68  -9.7452    198.3438    129.2712   7.6363569222e+01   1.5284877930e+01    0.2896216    0.2597652  31.89  0.001531004    1.123    0.110
        69  -8.9220    195.6853    126.7295   7.6269827391e+01   1.6358046782e+01    0.2436583    0.2004745 -35.41 0.0003584044    1.193    0.162
        70  -8.6405    165.7055    127.2018   8.2745872166e+01   2.3088039953e+01    0.4348069    0.2016537 -41.94 0.0009208061    2.162    0.538
        71  -8.9517    164.2902    117.7548   8.0681105875e+01   2.5351357784e+01    0.6506696    0.2344268 -48.56  0.001956676    3.113    0.679
        72  -9.0164    145.2469    125.9895   8.7216719956e+01   2.7903272417e+01    0.3273471    0.2730924  45.40  0.001271871    1.203    0.169
        73  -9.8769    134.2406    121.5792   8.8842067528e+01   3.1241049840e+01    0.5729181    0.3468587 -23.00  0.002083085    2.732    0.634
        74 -10.0843    138.2245    120.6125   8.7606337755e+01   3.0600125867e+01    0.4228835    0.3364954 -36.12  0.001275004    1.317    0.240
        75  -7.0494    173.4970    121.5046   7.9593939226e+01   2.2461583010e+01    0.1541169    0.1530078 -18.36   0.00081067    1.004    0.004
        76  -7.8903    170.0281    120.6225   8.0131913937e+01   2.3440687072e+01    0.2370859     0.200345 -42.85 0.0003744912    1.179    0.152
        77  -9.1726    150.0321    111.2013   8.2288330087e+01   2.9997808930e+01    0.3984968    0.3006791  58.39  0.001401775    1.409    0.290
        78  -8.0902    147.6677    120.7104   8.5320968074e+01   2.8507784783e+01    0.2452139    0.2094199  45.80 0.0008761415    1.178    0.151
        79  -9.9484    150.6556    117.6540   8.3825867003e+01   2.8490896848e+01    0.4598852    0.3550352 -79.49 0.0007903098    1.664    0.399
        80 -10.9269    229.7927    200.6455   8.5624583096e+01  -2.6099379877e+00    0.4267666    0.2806043  18.78  0.001767433    1.487    0.328
        81  -7.3673    159.6446    116.7199   8.1475051250e+01   2.6636931053e+01    0.1603768    0.1247341  13.15  0.000701343    1.658    0.397
        82  -9.3198    112.5389    114.8234   9.2829372268e+01   3.7189675128e+01    0.3335212    0.2652463  70.68   0.00163226    1.445    0.308
        83  -9.0821    167.3916    107.3266   7.7233061924e+01   2.6738098570e+01    0.5417897    0.2604326  57.31   0.00139501    2.393    0.582
        84  -8.8573    172.8406    103.0601   7.4880907299e+01   2.6277269278e+01    0.3164488    0.2513565   5.91 0.0006580264    1.593    0.372
        85  -9.1835    169.6942    112.2689   7.8040621527e+01   2.5202384959e+01    0.3904653    0.3336997  -3.88 0.0008855263    1.352    0.260
        86  -9.8782    175.0238    110.8497   7.6502907386e+01   2.4224490017e+01    0.5217685     0.401858  38.26  0.001059569    1.361    0.265
        87  -8.4582    157.7906    108.0489   7.9611319910e+01   2.8858297848e+01    0.4324159    0.2268479  49.88  0.001064269    1.930    0.482
        88  -9.2895    155.6242    103.4703   7.8868038953e+01   3.0305704644e+01     0.408846    0.2738418 -40.44  0.001777953    1.479    0.324
        89 -10.0688    160.7428    102.2148   7.7336872577e+01   2.9347703163e+01    0.3166776    0.2866396 -87.99 0.0005880729    1.212    0.175
        90 -10.0238    214.2548    200.6144   8.8429453659e+01   6.5828121886e-02    0.3000733    0.2217919 -44.51  0.001732481    1.660    0.398
        91  -7.6213     72.8460    103.2242   1.0141474252e+02   4.6671386250e+01    0.1902744    0.1567994 -32.28  0.000448268    1.329    0.247
        92 -16.4710    242.3103     91.0171   5.9339604817e+01   1.2042720248e+01      2.41206     2.013285 -47.72   0.01347847    1.138    0.121
        93  -7.9949     44.1675     95.2084   1.0856245070e+02   5.2148959541e+01    0.1973237     0.155347 -46.56 0.0005034437    1.197    0.164
        94 -10.2416    106.2397     86.6423   8.6961170813e+01   4.4696736645e+01    0.5066548    0.3818881  89.59  0.001519085    1.922    0.480
        95  -9.7584    163.2304     86.6754   7.2350392547e+01   3.1788465027e+01    0.3709888    0.2850651  54.29 0.0005216023    1.318    0.241
        96 -11.6184    247.6678    193.9606   8.1263165858e+01  -4.6666466258e+00     1.121089    0.6675313  -1.70  0.005785671    1.975    0.494
        97  -8.0422    168.4669     79.0051   6.8955484560e+01   3.1907608310e+01    0.2842492    0.2457086 -23.32 0.0004131238    1.210    0.174
        98  -9.9710    167.9794     74.7131   6.7774351197e+01   3.2799915947e+01    0.2829564    0.2631599 -54.23 0.0002203748    1.081    0.075
        99  -7.3687     14.4962     76.4696   1.1466300380e+02   5.8954786239e+01    0.1223027    0.0950638 -60.20 -1.302757e-05    1.003    0.003
       100 -10.1486    103.6155     72.1039   8.3215661093e+01   4.8228710501e+01    0.4470456    0.4230615 -18.22  0.002223832    1.018    0.018
       101 -12.5879    237.1347    188.0819   8.1941939355e+01  -2.1136084975e+00     1.591328     1.088756  14.32   0.00893315    1.461    0.316
       102 -10.7020    249.1550    171.6635   7.6591306564e+01  -1.8534543114e+00    0.8544363    0.3188755 -41.44  0.003414911    2.993    0.666
       103  -7.8724    177.5778     38.9253   5.4990778106e+01   3.5927287059e+01    0.1909279    0.1378387 -41.12  6.52403e-05    1.393    0.282
       104  -8.6155    165.7293     39.0095   5.7045175589e+01   3.9013283134e+01    0.2623388    0.2050351  59.43 0.0005320816    1.226    0.184
       105  -7.9256    171.8888     35.8675   5.4979837469e+01   3.7824116633e+01     0.265382    0.1531494 -40.67  0.001158681    1.751    0.429
       106 -11.1470    178.2140     31.4611   5.2594654783e+01   3.6734223354e+01    0.4455791    0.2990867  23.87  0.001218085    1.998    0.500
       107 -10.4324    177.5549     26.0081   5.1019315949e+01   3.7574750369e+01    0.3235525    0.2238939  49.18   0.00034939    1.454    0.312
       108  -9.9196    170.1438     29.5998   5.3287522107e+01   3.9080079318e+01    0.2574116    0.2345595 -26.56 0.0005132096    1.167    0.143
       109  -9.4778    162.1585     25.8896   5.3406677436e+01   4.1614723053e+01    0.3598128    0.2596997 -67.56  0.001516922    1.610    0.379
       110 -10.2860    239.5193    172.6644   7.8439101746e+01  -3.1092722904e-01    0.7271476    0.3772637  41.55   0.00227863    1.907    0.476
       111 -12.1394    229.5346    179.1450   8.1518101012e+01   5.1560499630e-01     1.395363    0.6397848  38.95  0.006269198    2.093    0.522
       112  -9.4039    225.1937    173.9293   8.1242287108e+01   2.1019669711e+00    0.2561759    0.2409315  -3.74 0.0003429595    1.148    0.129
       113  -8.5451    199.6514     16.6116   4.5385689983e+01   3.2914411372e+01    0.1364352    0.1195574 -71.79            0    1.065    0.061
       114 -10.7807    230.2694    169.6145   7.9436018944e+01   1.8274444087e+00    0.7117249    0.4853878  32.56  0.003807089    1.419    0.295
       115  -9.5547    248.6934    179.8273   7.8324440653e+01  -2.9236761917e+00    0.4909064    0.3952008 -68.97  0.002729874    2.275    0.560
       116 -15.6126    247.3355     75.2281   5.4804689568e+01   1.3387135267e+01     1.190843    0.6474259 -41.48  0.005531838    1.620    0.383
       117  -9.4660    207.1164    194.9842   8.8722040446e+01   2.1769932707e+00    0.2014808    0.1762679  16.47 0.0003180719    1.020    0.020
       118 -12.1457    190.2319    179.0358   8.8952402209e+01   7.9524065491e+00     1.559493     1.290976 -82.09  0.008376886    1.718    0.418
       119 -12.0171    212.0972    177.4184   8.4379286623e+01   4.0085426145e+00     1.299478    0.7628662  57.48  0.005813092    2.321    0.569
       120 -10.7757    215.9799    173.5284   8.2858908051e+01   3.8955045411e+00     2.064745    0.6838411 -26.55  0.005064543    7.194    0.861
       121 -11.8164    203.3550    171.6424   8.4878930472e+01   6.6462024073e+00     1.416529     1.030436 -39.37   0.00747218    1.446    0.309
       122 -10.4477    202.4769    162.8904   8.3218591387e+01   8.3212363604e+00     1.409049    0.7602354  39.37  0.006223708    1.815    0.449
       123 -10.5046    197.6093    165.9036   8.4815172314e+01   8.7769923955e+00    0.9740806    0.4198514  42.62  0.002310344    2.226    0.551
       124  -8.4728    221.0451    169.3448   8.1053509680e+01   3.6010380552e+00    0.1983299    0.1691456  28.89 0.0008217682    1.122    0.109
       125  -8.1655    239.8794    162.8497   7.6327552564e+01   1.0912908204e+00    0.2780729     0.212545 -27.54 0.0006494463    1.236    0.191
       126  -8.2569    243.9621    161.9503   7.5439480333e+01   4.8376179522e-01     0.306738     0.189074 -11.16  0.001030253    1.859    0.462
       127  -7.3471    145.5302    165.5184   9.5786245757e+01   1.9412009537e+01    0.1455122    0.1364177  60.50 4.218997e-05    1.018    0.018
       128  -8.5259    210.9290    164.0969   8.1843465326e+01   6.4244096050e+00     0.213958    0.1944855  14.09 0.0004877673    1.019    0.018
