#   1 NUMBER                 Running object number                                     
#   2 MAG_AUTO               Kron-like elliptical aperture magnitude                    [mag]
#   3 X_IMAGE                Object position along x                                    [pixel]
#   4 Y_IMAGE                Object position along y                                    [pixel]
#   5 X_WORLD                Barycenter position along world x axis                     [deg]
#   6 Y_WORLD                Barycenter position along world y axis                     [deg]
#   7 A_WORLD                Profile RMS along major axis (world units)                 [deg]
#   8 B_WORLD                Profile RMS along minor axis (world units)                 [deg]
#   9 THETA_WORLD            Position angle (CCW/world-x)                               [deg]
#  10 FWHM_WORLD             FWHM assuming a gaussian core                              [deg]
#  11 ELONGATION             A_IMAGE/B_IMAGE                                           
#  12 ELLIPTICITY            1 - B_IMAGE/A_IMAGE                                       
         1 -13.5213     58.9104    132.6586   1.1066644052e+02   4.1250957126e+01     3.520334    0.9597256 -69.97    0.0093351    5.732    0.826
         2 -13.8855     35.5007     72.5343   1.0590159649e+02   5.7867548652e+01     1.700747    0.8629445 -45.16  0.006515644    1.682    0.405
         3 -13.3652    198.9646     34.7549   5.0033146275e+01   3.0959584751e+01     1.173887     0.990903  29.16  0.004449738    1.404    0.288
         4 -11.6731     33.0000     13.0314   8.5986483040e+01   6.9428181948e+01    0.9578299    0.1348111 -40.40   0.00286226    6.041    0.834
         5 -13.4289    211.0107     21.4184   4.4910610953e+01   2.9574682745e+01     1.092845    0.8578175  19.65  0.005922755    1.701    0.412
         6 -12.9669     42.6304      4.9065   7.7421518138e+01   6.9307573395e+01     1.291259    0.4435088 -37.99   0.00574619    2.972    0.664
         7 -12.4689     50.4863      4.0379   7.3597734353e+01   6.8258909589e+01    0.9322129    0.4034966 -26.13  0.004639942    2.158    0.537
         8 -10.7101     59.5753      7.3839   7.1695543159e+01   6.6418238540e+01    0.2817015    0.2418797 -19.37  0.001898692    1.277    0.217
         9 -11.1047     58.7457      2.7628   6.9666843104e+01   6.7074263023e+01    0.6289876    0.2701581  29.54  0.002846521    2.578    0.612
        10 -12.2515    190.0019     41.0192   5.3115791667e+01   3.2415647779e+01    0.4594822    0.4149312  24.78  0.001084104    1.255    0.203
        11 -16.7857     11.1046    146.6908   1.2444582196e+02   4.2759706236e+01     6.180226     1.475397 -76.81   0.01288716    3.637    0.725
        12 -15.8825     48.1289    190.7374   1.2039312632e+02   2.9330502480e+01     4.350924     1.995262 -74.99   0.02103302    2.015    0.504
        13 -15.4265      6.0902    247.1666   1.3131779769e+02   2.3105002313e+01     1.255255    0.6232389  38.11  0.004689587    2.097    0.523
        14 -11.1295     69.0044    179.3543   1.1474405512e+02   2.9124675340e+01    0.3825721    0.2660166 -39.19  0.002060223    2.110    0.526
        15 -10.9655     73.6025    173.9150   1.1303694912e+02   2.9692592000e+01    0.3042917     0.238773 -41.72  0.000895032    1.670    0.401
        16  -8.8388     99.5251    180.5233   1.0810069755e+02   2.4319289823e+01    0.1355163    0.1198896  72.68 0.0001334394    1.003    0.003
        17 -11.1940    216.9416    170.3596   8.1233639888e+01   4.2635862902e+00    0.6771805    0.3762306 -32.20  0.003175826    1.811    0.448
        18 -11.3229     88.5044    157.4988   1.0714433920e+02   3.1212704319e+01    0.6448182    0.4364101 -24.27  0.002078992    2.606    0.616
        19 -10.9795    177.4479    244.6293   1.0149368443e+02  -4.6384219472e-02    0.3025421    0.2363274  33.66  0.001301774    1.025    0.025
        20 -11.9746     82.6440    164.0410   1.0956821075e+02   3.0608794743e+01     1.007402     0.388516  50.80 0.0008098045    2.780    0.640
        21 -12.7104     70.1570    160.1246   1.1197843083e+02   3.3301582101e+01    0.5914804     0.431161 -34.85  0.001252822    1.938    0.484
        22 -13.4716     68.4651    144.0916   1.1000160210e+02   3.7282918360e+01     2.274329     1.169545  39.30   0.01066809    2.025    0.506
        23  -9.5376    193.9367    166.6808   8.4949662813e+01   9.3593230230e+00    0.2577401    0.2156964 -43.55 0.0008720572    1.291    0.225
        24 -16.8273      6.7120    221.4601   1.3012525060e+02   2.7614310917e+01     1.579629    0.8473868 -75.27  0.007195373    1.712    0.416
        25 -15.0235     43.2434    229.6886   1.2437857970e+02   2.2200593638e+01    0.7090423    0.4746922  61.78  0.002723241    1.135    0.119
        26 -11.7003    133.5096    141.9739   9.3100071077e+01   2.6701027512e+01    0.7666999    0.2823379 -55.15     0.002454    3.211    0.689
        27  -9.6055    174.8436    148.8638   8.5097819496e+01   1.6642789774e+01    0.2053132    0.1829026 -89.58 0.0006297432    1.339    0.253
        28  -9.5973     84.1825    143.6466   1.0588890703e+02   3.5113483530e+01    0.2994651    0.2029792  83.47  0.001315731    1.767    0.434
        29  -9.4525    101.4340    142.7766   1.0130034144e+02   3.2510827439e+01    0.3111652    0.2001354 -36.74  0.001141494    1.964    0.491
        30 -11.4688     90.1371    141.7146   1.0400468770e+02   3.4635440925e+01    0.2758443    0.2499453 -54.86 0.0004266011    1.151    0.131
        31 -12.5113     45.6000    129.4804   1.1374736537e+02   4.3566043068e+01    0.6394188    0.3455884 -67.14  0.003239987    1.571    0.364
        32 -16.1596    124.3910    213.4096   1.0739556250e+02   1.3660928454e+01     2.967122     2.462979  35.22   0.01419175    1.250    0.200
        33  -9.1889    111.9367    131.1029   9.6172740590e+01   3.3346336065e+01    0.2370659    0.1870329 -11.66  0.001124677    1.755    0.430
        34  -9.4185    105.9159    130.7002   9.7667542273e+01   3.4540908772e+01    0.2901941    0.2154389 -66.90  0.001421535    1.381    0.276
        35 -15.6634      5.4169    193.9284   1.2895017963e+02   3.3081455464e+01     1.355195    0.5400063 -79.74  0.005983114    2.025    0.506
        36 -11.6249    135.6340    125.0986   8.8702768968e+01   3.0011960762e+01    0.9900549    0.1459508 -45.73  0.002080744    6.737    0.852
        37 -16.2875     56.5751    246.5184   1.2323380530e+02   1.7593528179e+01     1.378735    0.7517847  46.57   0.00448838    1.488    0.328
        38 -10.2852    126.2830    127.9587   9.1749401836e+01   3.1290548752e+01    0.2934017    0.2170651  71.98  0.001334003    1.680    0.405
        39 -10.1154     98.8313    127.7181   9.8917538308e+01   3.6488577754e+01    0.2972884    0.2488506   8.26 0.0009823765    1.534    0.348
        40  -8.9777    108.1025    119.8722   9.4645111572e+01   3.6661139731e+01     0.211001    0.1926129 -89.10            0    1.129    0.114
        41 -10.9525    134.7631    113.2130   8.5946531021e+01   3.2817937291e+01    0.5204723    0.1454047 -44.51  0.001484406    3.531    0.717
        42 -11.6337    134.6572    104.9373   8.3778399841e+01   3.4640642133e+01     0.721418    0.2243031 -42.64  0.002162924    3.199    0.687
        43  -8.9863    168.1088    112.8998   7.7868363959e+01   2.5387136856e+01    0.2683224    0.1803145 -66.97  0.001045277    2.087    0.521
        44 -12.2523    118.7575    109.0353   8.9070766191e+01   3.7075949500e+01    0.7023391    0.5675227 -51.49   0.00350081    1.204    0.169
        45  -8.7372     89.2504    101.1805   9.5444594615e+01   4.4325641079e+01    0.1937828    0.1659397 -88.98 0.0003970811    1.329    0.248
        46 -11.9830    182.1726    238.6477   9.9801252948e+01   1.1152369325e-02    0.5979114    0.5054193  29.11  0.003006976    1.066    0.062
        47 -12.8067     54.1475     84.8623   1.0245864223e+02   5.3119732317e+01    0.7651957     0.619454 -83.92  0.003201893    1.435    0.303
        48  -9.5345    205.5906    110.1206   6.9459331712e+01   1.7204560120e+01    0.2915194    0.2206392  41.63 0.0007639889    1.382    0.276
        49 -10.3074    130.0374     96.0023   8.2498698385e+01   3.7560160773e+01    0.2524313    0.1963139 -84.00 0.0008752429    1.721    0.419
        50 -10.6841     44.2713    109.1265   1.1076102075e+02   4.8556651348e+01    0.2077585    0.1863017 -11.44  0.001320999    1.372    0.271
        51  -9.1465    157.6799     80.3356   7.1082786851e+01   3.4265140030e+01    0.1632954    0.1237002 -73.32   0.00039876    1.704    0.413
        52 -14.1205     41.9329     88.3806   1.0736287267e+02   5.3661134015e+01     1.277347    0.8631839 -49.92  0.003963672    1.264    0.209
        53  -9.3751     58.6455     67.3026   9.6074398444e+01   5.6423527626e+01    0.1284643    0.1059059  82.47 0.0007039233    1.708    0.414
        54  -9.3575     13.2484     59.8654   1.1119442392e+02   6.2349848378e+01    0.1710062    0.1398886 -69.15 0.0006991582    1.224    0.183
        55 -11.2903    148.8278     52.6561   6.4345018768e+01   4.1247516532e+01    0.5982786    0.3721488 -75.53  0.002092991    2.874    0.652
        56 -10.0792    150.3078     46.0147   6.1823970048e+01   4.1892236077e+01     0.275956    0.2202059  76.27 0.0006608133    1.384    0.277
        57  -9.2015     83.1586    230.7472   1.1730099837e+02   1.6833267494e+01    0.2139004    0.1427246  50.42   0.00137441    1.228    0.186
        58 -11.3897     57.4036     42.5169   8.8105041745e+01   6.1473774275e+01    0.4104964    0.2371166  31.13  0.002128026    1.869    0.465
        59  -9.5630     67.6133     41.8672   8.3967375807e+01   6.0080881587e+01    0.2702087    0.1610554 -50.69  0.001306765    1.974    0.493
        60  -9.5520    102.5939     40.3140   7.1711211195e+01   5.3895459484e+01    0.2671181    0.1791652 -19.11   0.00129805    1.570    0.363
        61 -10.5634     95.2464     39.0756   7.3448787832e+01   5.5592948706e+01    0.5494484    0.2741559  40.30  0.002395934    2.012    0.503
        62 -11.3821     63.8969     35.2570   8.2722986873e+01   6.1779915276e+01    0.4451925    0.2731742 -17.93  0.002251603    1.772    0.436
        63  -8.4023     72.3059    230.2748   1.1924598617e+02   1.8416531571e+01   0.09481467    0.0906228  27.99 0.0004089731    1.545    0.353
        64 -15.3759    141.7866    173.6887   9.7483340671e+01   1.8296580275e+01     2.279691     1.572505  64.20  0.007090135    1.688    0.408
        65 -15.2204    139.5398    194.4396   1.0151021523e+02   1.4601623240e+01     1.988892    0.9607319  45.19  0.007196796    1.857    0.462
        66 -16.5597     40.4669    244.3628   1.2576817630e+02   1.9906955194e+01     1.479777    0.7556998  69.20  0.006183285    1.626    0.385
        67 -10.3635    193.0057    192.3938   9.0188610503e+01   5.1254174510e+00    0.5032609    0.3903682 -54.75  0.002801935    1.644    0.392
        68  -9.1395     17.0352    191.2867   1.2660627398e+02   3.2553322773e+01    0.1451823    0.1115318  69.21 0.0001967705    1.128    0.114
