#   1 NUMBER                 Running object number                                     
#   2 MAG_AUTO               Kron-like elliptical aperture magnitude                    [mag]
#   3 X_IMAGE                Object position along x                                    [pixel]
#   4 Y_IMAGE                Object position along y                                    [pixel]
#   5 X_WORLD                Barycenter position along world x axis                     [deg]
#   6 Y_WORLD                Barycenter position along world y axis                     [deg]
#   7 A_WORLD                Profile RMS along major axis (world units)                 [deg]
#   8 B_WORLD                Profile RMS along minor axis (world units)                 [deg]
#   9 THETA_WORLD            Position angle (CCW/world-x)                               [deg]
#  10 FWHM_WORLD             FWHM assuming a gaussian core                              [deg]
#  11 ELONGATION             A_IMAGE/B_IMAGE                                           
#  12 ELLIPTICITY            1 - B_IMAGE/A_IMAGE                                       
         1 -13.8872    244.8303    158.0207   8.9937433374e+01   2.7727651230e-01     2.883741    0.8765831 -46.16   0.00933678    3.649    0.726
         2 -12.5141    248.3212    134.3877   8.4223827830e+01   3.7888961943e+00     1.168425    0.6374381 -37.58   0.00539931    1.645    0.392
         3 -13.8355    203.3181     16.9818   6.3135159869e+01   3.2460946439e+01     1.209716     1.089457   7.30  0.005242183    1.508    0.337
         4 -13.8824    209.5120     11.5294   6.1198409144e+01   3.1594655019e+01      3.22397     1.713554  28.74  0.002247312    4.882    0.795
         5 -12.0722      2.3670     14.2023   1.1539565421e+02   7.0581820024e+01    0.4888794    0.2180803 -30.99  0.003021613    1.762    0.432
         6 -13.1855      2.2160      5.6183   1.1186987619e+02   7.1768187056e+01     1.252766    0.6546407 -31.03  0.008670408    1.454    0.312
         7 -10.5864    222.4888    244.9738   1.1081786981e+02  -9.7301469201e+00    0.1955998    0.1434665  27.99 0.0009515792    1.154    0.133
         8 -10.1821    184.2309    250.2949   1.1879750245e+02  -4.2695249082e+00    0.2189353    0.1448326  31.45  0.001259472    1.351    0.260
         9 -11.4280    149.9080    248.5012   1.2507159136e+02   1.8480601045e+00    0.3913806    0.3154404  75.64  0.002444467    1.413    0.293
        10 -10.7232    143.1269    249.0981   1.2644663194e+02   2.9033130442e+00    0.2942076    0.2024131  59.29 0.0007025964    1.420    0.296
        11 -12.1818    133.4518    249.1891   1.2829922966e+02   4.5238787861e+00     1.135668    0.5388136  31.55  0.004939418    2.698    0.629
        12 -10.7684    125.0308    249.4161   1.2992207797e+02   5.8921596843e+00    0.4957487    0.2815999  34.67  0.002571781    1.860    0.462
        13 -12.4123    126.4736    240.7249   1.2854940392e+02   7.2039112408e+00    0.7613893    0.5438786  35.04  0.004399687    1.457    0.314
        14 -12.4092    111.6235    247.7623   1.3224911957e+02   8.3891077374e+00     1.001281    0.4876896  49.24  0.004178503    1.711    0.415
        15 -11.3472     99.8171    247.4869   1.3442182388e+02   1.0326745090e+01     0.644846    0.3118556  50.07  0.002946856    1.717    0.418
        16 -11.2916    135.5312    241.1663   1.2684849100e+02   5.5788629180e+00    0.3331166    0.3025558  -3.12  0.001583229    1.449    0.310
        17 -11.3062    135.4071    236.5038   1.2623769093e+02   6.4418406610e+00    0.4311082    0.3241373  12.90  0.001701932    1.966    0.491
        18 -11.4972    133.9920    232.5124   1.2596300914e+02   7.4241425088e+00    0.4148129    0.2837882 -37.46 0.0004614305    1.974    0.493
        19 -10.1396     89.0513    250.5859   1.3672035564e+02   1.1419957012e+01    0.3705793    0.1096976  39.12  0.001450634    3.372    0.703
        20 -10.7130     88.8999    247.1951   1.3640341987e+02   1.2071310109e+01    0.4365627    0.2716207  40.75  0.001932383    1.591    0.371
        21 -10.7590     81.5155    247.0690   1.3773593206e+02   1.3204893835e+01    0.3276691    0.2339532 -75.34  0.002115374    1.426    0.299
        22  -9.9069     79.3208    243.6139   1.3779523627e+02   1.4184558993e+01    0.2248166    0.1328354  72.23 0.0006534765    1.655    0.396
        23  -8.7148     74.9260    250.5129   1.3924411943e+02   1.3525229910e+01     0.232343    0.1021689  41.60  0.001181038    2.093    0.522
        24  -9.1057     69.2832    250.5440   1.4024183973e+02   1.4325391077e+01    0.2341194   0.06481738  52.06 0.0009496588    3.109    0.678
        25  -9.2859     63.2390    249.8469   1.4123711873e+02   1.5299573171e+01    0.1863824    0.1660502 -69.56  0.001361218    1.512    0.339
        26 -11.2833     59.9312    245.3144   1.4142781833e+02   1.6611654841e+01     0.432365    0.3213848 -66.53  0.002022054    1.542    0.352
        27 -11.3439     67.1459    244.1248   1.4004453956e+02   1.5841320390e+01     0.508458    0.2373411  35.51  0.002516611    2.549    0.608
        28 -14.4841      9.7085    145.8318   1.4183229057e+02   4.3833389849e+01      3.75888     1.272939 -79.42   0.01521115    3.057    0.673
        29 -13.9764      9.7418    209.5106   1.4753086000e+02   2.9779620246e+01     2.243382    0.7886226 -71.36   0.01153723    2.266    0.559
        30 -13.2275    124.1198    233.2874   1.2803083787e+02   8.9861612525e+00     1.417379    0.4597161  44.64  0.005561736    2.630    0.620
        31  -9.5189     77.9294    233.3139   1.3700852793e+02   1.6400829631e+01    0.2946049    0.2028379 -81.60  0.001339094    1.394    0.282
        32 -11.7438     89.8259    238.7788   1.3534338542e+02   1.3528979401e+01    0.9023375    0.4362392  76.52  0.003671396    3.362    0.703
        33 -11.4089     97.0934    239.6979   1.3406989720e+02   1.2218484144e+01      0.37885    0.2969992 -89.18  0.001810334    1.242    0.195
        34 -11.0632    103.6979    238.4792   1.3266929971e+02   1.1397564939e+01    0.4427077    0.2712463  26.08  0.002154946    2.498    0.600
        35 -10.8002     77.5460    220.8857   1.3573653360e+02   1.8994309437e+01    0.2825136    0.1943206  73.35 0.0004747943    1.328    0.247
        36 -10.3219     79.8375    227.7668   1.3605165453e+02   1.7233891121e+01    0.3179011    0.2509468  -1.60  0.001743902    2.522    0.604
        37 -10.1633     79.1272    224.6246   1.3584370607e+02   1.7983224898e+01    0.2714852    0.2272884  42.44 0.0007141883    1.385    0.278
        38 -10.1611    165.0809    242.1289   1.2123720103e+02   2.8869472118e-01    0.1934442    0.1913877   4.77 0.0003762824    1.171    0.146
        39  -8.7352    162.2898    239.6740   1.2141428088e+02   1.1850895305e+00    0.1350421     0.116001  35.55 0.0005983266    1.079    0.073
        40 -10.3575     84.6410    229.4817   1.3531193514e+02   1.6160653115e+01    0.2466722     0.225203  21.81 0.0007796347    1.571    0.364
        41  -9.5376     84.1055    242.1181   1.3676472155e+02   1.3757497029e+01    0.1740055    0.1552726  64.82  0.001010229    1.234    0.189
        42 -10.8750    172.8242    239.7967   1.1938038883e+02  -6.7614648502e-01    0.3648154    0.2192243 -54.98  0.001891881    2.116    0.527
        43 -10.5801    116.3657    239.0454   1.3029498251e+02   9.2129483720e+00     0.365128    0.2817309 -21.59   0.00172843    2.215    0.549
        44  -9.4643     61.4923    238.7004   1.4056857249e+02   1.7679550080e+01    0.2340288    0.1888897  33.29  0.001551332    1.697    0.411
        45  -9.4313     82.7150    238.3893   1.3663771555e+02   1.4686951322e+01    0.2745585    0.1046154  41.50  0.001240803    2.388    0.581
        46  -9.0082    156.4688    236.5226   1.2208605661e+02   2.7472839360e+00    0.1319125    0.1139475  44.48 1.355241e-05    1.012    0.012
        47 -10.2413     55.6112    235.9061   1.4137957780e+02   1.9027628368e+01     0.335635    0.1694711  70.33   0.00136572    1.965    0.491
        48 -10.7496    164.5256    234.3485   1.2016594049e+02   1.6969802440e+00    0.4254983    0.2189652  59.60  0.001763315    2.774    0.640
        49 -11.1547     99.3885    223.4895   1.3169377687e+02   1.5053956860e+01    0.4179102     0.293581  68.41 -0.0002008711    1.341    0.254
        50 -11.2088     98.3522    231.7275   1.3290582447e+02   1.3567725688e+01     0.431435    0.2672082 -79.73 0.0007665296    1.791    0.442
        51 -11.2918    105.6758    229.1152   1.3114598462e+02   1.2895707820e+01    0.5762309    0.2870459  48.32  0.001944937    1.747    0.428
        52 -10.9250    156.7453    231.6412   1.2129431934e+02   3.5555174128e+00     0.246321    0.2275593 -42.87 0.0003611905    1.248    0.198
        53  -8.9681     62.7508    233.1948   1.3983142566e+02   1.8597659287e+01    0.1430094    0.1288626  80.90 0.0003000495    1.286    0.222
        54 -10.8994    141.7592    230.4133   1.2410941058e+02   6.4474551824e+00    0.3548655    0.2175282 -40.42  0.001142315    2.079    0.519
        55 -11.1052    112.6200    230.1861   1.2990435677e+02   1.1531942355e+01    0.4097506    0.3556877 -15.04   0.00191694    1.734    0.423
        56  -8.9231     57.4038    230.7932   1.4059297985e+02   1.9810819115e+01    0.1693005    0.1044172 -77.07 0.0009036763    1.497    0.332
        57  -9.3172     54.1665    229.8560   1.4110276056e+02   2.0433072314e+01    0.1916927    0.1477392  39.75 0.0006224482    1.568    0.362
        58 -14.2802     30.8885    246.1258   1.4643275239e+02   2.0154050203e+01     2.030029     1.235844  37.44   0.01311759    1.983    0.496
        59  -9.3459    180.0123    228.6937   1.1619740445e+02  -9.9499223539e-02    0.2488133    0.1737141 -82.63   0.00102911    2.636    0.621
        60 -10.2650    166.0423    227.1240   1.1872500702e+02   2.6848297117e+00    0.2658053     0.205463 -66.67  0.001066349    1.615    0.381
        61  -9.8994    197.6474    226.6869   1.1239782188e+02  -2.8912209772e+00    0.2585966    0.2139807  73.69  0.001348102    1.694    0.410
        62 -10.3646    132.2047    224.7746   1.2521847098e+02   9.2074874292e+00    0.2663952     0.217666 -38.46   0.00129143    1.531    0.347
        63 -10.4190    129.2149    221.0424   1.2528551411e+02   1.0466457324e+01    0.3006944    0.2185488 -83.53 0.0007762838    1.624    0.384
        64 -10.6144     92.4933    225.8779   1.3336047318e+02   1.5671604137e+01    0.3340354    0.1652934  48.23 0.0008235578    1.771    0.435
        65 -11.4946    142.0965    221.7264   1.2273999519e+02   8.0247860948e+00     0.432142    0.3063935  38.72 0.0003408261    1.339    0.253
        66 -11.0492    137.9234    214.3138   1.2245377313e+02   1.0234673763e+01    0.4401847    0.4176903  -1.44  0.002073511    1.270    0.213
        67 -10.9954    160.3841    223.8162   1.1933437979e+02   4.3065238119e+00    0.3822148    0.2496097  20.47  0.001254547    2.052    0.513
        68 -10.0761    110.9718    221.3373   1.2906759384e+02   1.3571394953e+01    0.2876374    0.1672702 -52.32  0.001037709    1.930    0.482
        69 -11.0122     72.9881    210.0227   1.3540421231e+02   2.1978163464e+01    0.4387444    0.2857313  30.21  0.002226742    2.008    0.502
        70 -10.7742     70.8734    219.4159   1.3688849321e+02   2.0279688356e+01    0.4726978    0.2767884 -69.53  0.002498738    1.639    0.390
        71 -10.1715     67.9739    214.6928   1.3694540127e+02   2.1695631639e+01    0.2358701    0.1755632 -86.74 0.0004615194    1.188    0.158
        72 -11.4509    246.1932    219.3908   1.0201191159e+02  -9.8384664496e+00    0.4006948    0.1975334 -18.59  0.001776118    2.688    0.628
        73  -9.5247    104.8349    218.8263   1.2998594760e+02   1.5115177733e+01    0.1845622    0.1683026  66.52 0.0002700255    1.124    0.111
        74  -9.1973     99.3372    217.9932   1.3100185273e+02   1.6194526714e+01    0.1804567    0.1585136 -88.25 0.0004789594    1.122    0.109
        75 -10.6931    117.3200    224.3017   1.2817857411e+02   1.1894949676e+01    0.2375884    0.2109028  64.47 0.0002765068    1.050    0.048
        76  -8.6760    119.2668    217.3235   1.2680106788e+02   1.2962653544e+01    0.1220268    0.1084182 -14.25 0.0001998112    1.565    0.361
        77  -9.0733     93.9554    217.0142   1.3197591631e+02   1.7269819954e+01    0.2162604    0.1378976  74.98 0.0008216654    1.686    0.407
        78  -8.9258     23.4750    217.5296   1.4565615429e+02   2.6687086575e+01    0.1939105   0.09216818 -77.54 0.0007572538    1.761    0.432
        79 -10.2351     21.3096    214.7589   1.4583559332e+02   2.7497588564e+01    0.2356618    0.1775316  24.40  0.001573478    2.065    0.516
        80  -9.3974     24.6604    212.6558   1.4506192551e+02   2.7574570341e+01    0.1616167    0.1484962   5.04 0.0008624255    1.827    0.453
        81  -9.7382     88.1861    212.9203   1.3264060126e+02   1.9051445353e+01    0.2490337    0.1611474 -83.89 0.0007695942    1.610    0.379
        82 -10.0621    102.2717    212.1669   1.2961834387e+02   1.6934506937e+01    0.3687176    0.1988708  61.00  0.001683374    1.998    0.500
        83 -10.3135    107.5661    209.0868   1.2807333808e+02   1.6697985792e+01    0.4123905    0.3144296 -30.17  0.001853854    1.972    0.493
        84 -10.0217    112.7165    208.5041   1.2689551786e+02   1.5936786163e+01     0.254158     0.227269  71.30 0.0008358589    1.027    0.026
        85  -9.2982    134.6486    208.3114   1.2219090681e+02   1.2050136861e+01    0.2575407    0.2011907  -5.02   0.00101937    1.980    0.495
        86 -12.8635     13.9592    238.8588   1.4873047051e+02   2.3453928589e+01    0.5826533    0.3377087  63.35  0.003997851    1.342    0.255
        87 -11.4362    246.5073    206.0280   9.9433447370e+01  -7.9173270799e+00     0.424866    0.2588789  13.51  0.002142366    1.969    0.492
        88  -9.7898    174.7506    206.0753   1.1334325395e+02   4.9175421171e+00     0.311927    0.2203722 -15.21  0.001487344    1.971    0.493
        89 -12.1554     93.3444    202.4960   1.3017684153e+02   2.0491091604e+01    0.5186321    0.4314539 -70.28  0.003080245    1.203    0.169
        90  -9.9419    102.9650    202.8356   1.2815541045e+02   1.8826443275e+01     0.394088    0.2369343  56.80  0.001921718    1.623    0.384
        91 -10.4645     99.6136    196.8135   1.2800003319e+02   2.0718406730e+01    0.6236897    0.3226359  42.05  0.002459171    1.881    0.468
        92 -12.2801    247.0979    241.2761   1.0577201600e+02  -1.2947174274e+01    0.4647993    0.3285888  25.73  0.003025721    1.229    0.186
        93  -9.2679    125.9656    205.7234   1.2363688653e+02   1.4173878833e+01    0.2009382    0.1697868  53.94 0.0005279925    1.087    0.080
        94  -9.0134    149.2886    204.3134   1.1839774351e+02   1.0126084863e+01    0.2855648    0.1672416 -20.91 0.0009673345    4.090    0.756
        95  -8.8190    167.0826    203.1575   1.1441596569e+02   6.9468341242e+00    0.1851304      0.15941  68.32 -0.0006383859    1.268    0.211
        96  -9.2362    133.1107    202.5533   1.2158277931e+02   1.3530048445e+01    0.2224697    0.1972367 -32.88 0.0006508645    1.360    0.265
        97  -9.9561     64.1883    202.0721   1.3628554838e+02   2.4975820364e+01    0.2543562     0.182226  30.28 0.0005439324    1.810    0.447
        98 -10.1752    115.1033    200.2266   1.2512681657e+02   1.7296702537e+01    0.2264383    0.1904883 -79.24  0.000242175    1.179    0.151
        99 -11.1143    249.0365    194.5859   9.6753683364e+01  -6.5610718008e+00    0.2976993    0.2719821  44.26  0.001794119    1.364    0.267
       100  -9.5750    196.9921    200.5130   1.0775396749e+02   1.7109552886e+00    0.2175589    0.1309437  40.25 0.0007836886    1.578    0.366
       101  -8.9461    183.1632    200.4095   1.1055258470e+02   4.3716625716e+00    0.1890367    0.1283443  52.01 0.0003650854    1.532    0.347
       102  -8.8122    169.5135    200.4558   1.1340995081e+02   7.0035897403e+00    0.1426472    0.1328837  46.73 9.616358e-05    1.030    0.029
       103  -9.8165    120.0238    199.3792   1.2391678695e+02   1.6601859733e+01    0.2464878     0.198268 -76.65 0.0002900975    1.274    0.215
       104  -9.6421     44.3373    199.3042   1.4005279066e+02   2.8182059016e+01    0.3221137    0.2215062  39.31  0.001713534    1.646    0.393
       105  -9.6466     86.0894    197.0267   1.3098624657e+02   2.2863861407e+01    0.4519598    0.1838556 -65.44  0.001834223    2.516    0.602
       106  -9.2211     84.7560    192.4051   1.3063267714e+02   2.4116246182e+01    0.1830869    0.1598818  61.84 0.0002393585    1.130    0.115
       107 -11.0818     57.7235    194.1860   1.3671676110e+02   2.7619555391e+01    0.5756229    0.3114127 -66.05  0.002222213    1.668    0.400
       108 -10.0573     52.9692    197.8457   1.3813008917e+02   2.7421061649e+01    0.3336656    0.1892577  56.12  0.001791517    1.672    0.402
       109  -9.4648    134.1289    197.8942   1.2057987900e+02   1.4325156605e+01    0.2204478    0.1826066  77.68 0.0003491862    1.259    0.206
       110 -11.5702     64.7442    195.0196   1.3532472309e+02   2.6476721675e+01    0.3770416     0.258588 -51.04  0.001646893    1.708    0.415
       111 -10.6534     76.4984    187.2210   1.3173696579e+02   2.6563042089e+01     0.443436    0.2403095 -80.23  0.001989039    2.098    0.523
       112 -11.7153     70.2701    187.4102   1.3314692294e+02   2.7430917673e+01    0.3267841    0.2864653 -35.74 0.0005274624    1.548    0.354
       113 -10.1681    113.1349    193.8942   1.2455728476e+02   1.9036503491e+01     0.546441    0.2627315 -63.26  0.001204923    2.287    0.563
       114  -8.7046    107.3256    196.2751   1.2622039901e+02   1.9525889811e+01     0.128263     0.113565  -6.00 0.0003175819    1.584    0.369
       115 -12.4172     38.1400    194.4334   1.4081445173e+02   3.0002574196e+01    0.3129985    0.1925211 -70.72 0.0004042767    1.405    0.288
       116  -9.5704     40.9132    187.9525   1.3956137748e+02   3.1133939165e+01    0.2798984    0.1565347 -71.14   0.00152703    1.522    0.343
       117  -9.0492     32.1331    195.4433   1.4212714730e+02   3.0462410504e+01    0.2827023   0.06878322  44.48  0.001135791    3.532    0.717
       118 -12.8145     39.1701    228.7330   1.4372377543e+02   2.2570389625e+01     0.412743    0.2924301 -87.56  0.001187801    1.178    0.151
       119 -14.6191     47.0371    216.9140   1.4124652968e+02   2.4036317237e+01     1.791531     1.440662  18.96   0.01140679    2.006    0.502
       120  -9.4893    159.8554    194.2205   1.1431549367e+02   1.0135197140e+01     0.212586    0.1914959  67.14 0.0004277626    1.137    0.121
       121  -9.2317    133.5560    194.3187   1.2009218255e+02   1.5198382877e+01    0.2216772    0.1711577  22.52 0.0007923474    1.620    0.383
       122 -10.2082    120.7202    191.6792   1.2249934451e+02   1.8161124281e+01    0.5092399    0.2963903 -46.96  0.002306929    1.895    0.472
       123  -9.3166    118.0224    189.9845   1.2282033031e+02   1.9029026813e+01    0.2127349    0.1811914  80.65            0    1.146    0.128
       124  -9.8075     72.9440    193.0224   1.3330477754e+02   2.5760516961e+01    0.1961474    0.1687645  86.95 0.0002957936    1.038    0.037
       125 -10.0147    191.4117    191.5229   1.0713442885e+02   4.4473496610e+00    0.2603889    0.2345361   7.99 0.0006622316    1.123    0.109
       126  -9.1820     25.4762    192.2669   1.4316013734e+02   3.1886016944e+01    0.1757673   0.09231468 -88.92 0.0008888717    1.717    0.418
       127  -9.3968    135.1433    189.9740   1.1897546940e+02   1.5837096556e+01    0.2193393    0.1837836  77.76 0.0003915434    1.245    0.197
       128  -9.7230     32.0856    189.9357   1.4160016292e+02   3.1691911778e+01    0.3285415    0.1516727  41.58  0.001714392    2.193    0.544
       129 -10.9861    249.7318    187.6426   9.5246798664e+01  -5.5735499186e+00    0.3859455    0.2482553 -22.03  0.002035551    1.541    0.351
       130 -10.9011    141.2729    183.0497   1.1632745549e+02   1.6160175238e+01    0.4432955    0.3316249  45.29 0.0007904474    1.291    0.225
       131  -9.6784     29.9598    183.4214   1.4138382930e+02   3.3386452783e+01    0.2669019    0.1744985  88.32  0.001035144    1.309    0.236
       132 -10.1372     24.5692    184.1404   1.4257559869e+02   3.3788831977e+01    0.2089217    0.1696976  42.62  0.000516501    1.482    0.325
       133  -8.8524     36.6526    183.8024   1.4001289767e+02   3.2565361939e+01    0.1792577   0.07754503  45.56 0.0004913483    2.278    0.561
       134 -10.5898    236.3685    145.9892   8.8775107800e+01   4.0478246617e+00    0.3013337    0.2151114  45.70 0.0008085455    1.521    0.342
       135 -12.5435    248.2417    171.9363   9.2290809943e+01  -2.7320290335e+00    0.9767061     0.578733 -19.45  0.004560264    1.984    0.496
       136 -10.5781    169.6662    248.5115   1.2129697279e+02  -1.5318335889e+00    0.3214852    0.2162118  13.49  0.000816746    2.060    0.514
       137 -11.5855    248.1307    142.5206   8.6033875950e+01   2.3860928420e+00    0.6313943    0.4681241 -19.45  0.003056155    1.448    0.310
       138 -11.0522    200.7532    246.1344   1.1503800598e+02  -6.4017577803e+00    0.3084562    0.1798363  51.54 0.0009273167    1.959    0.490
       139  -8.9385    173.4684    179.5488   1.0850529030e+02   1.0410714772e+01    0.1470946    0.1426158  41.56 2.147369e-05    1.006    0.006
       140  -9.5059    115.3933    177.6681   1.2128728758e+02   2.2298964105e+01    0.3375944    0.2108868 -67.17  0.001523915    1.726    0.421
       141  -9.1437     47.8146    179.6755   1.3712419773e+02   3.2201612993e+01    0.1689225    0.1048925  50.28   0.00060882    1.616    0.381
       142 -10.1158     19.9227    179.2535   1.4306547248e+02   3.5349316093e+01    0.1762923    0.1610069 -48.63 0.0008399172    1.485    0.327
       143  -9.6122     64.6752    175.6923   1.3280146028e+02   3.0942791950e+01    0.2270468    0.1787679  82.30 0.0006067184    1.170    0.145
       144 -11.2570     67.0791    172.4370   1.3177816162e+02   3.1375875631e+01    0.4665813     0.286833 -73.00  0.001453144    1.514    0.339
       145  -9.6748    121.8839    175.4862   1.1937215201e+02   2.1594761611e+01    0.2289126    0.1901722 -76.19   0.00119224    1.218    0.179
       146 -11.3522     79.0662    175.3865   1.2941867097e+02   2.8934060709e+01    0.3494316    0.2698733  44.84   0.00146273    1.360    0.265
       147  -9.4502     85.0723    173.8841   1.2777314982e+02   2.8360458547e+01    0.2156208    0.1736384  78.54 0.0004351841    1.202    0.168
       148 -12.8629    248.1495    101.5921   7.6975051491e+01   9.5886518934e+00     1.016895    0.5207371 -40.00  0.004594368    1.735    0.424
       149  -9.8063    107.4764    172.9991   1.2231556455e+02   2.4809680549e+01    0.2164255    0.1894687  65.27  0.000624927    1.100    0.091
       150  -9.1951     90.9926    172.7102   1.2618059002e+02   2.7688884267e+01    0.2064554    0.1873644 -48.60 0.0005627273    1.257    0.204
       151  -8.8009     95.3046    172.6806   1.2515143285e+02   2.6984079769e+01    0.2004677    0.1337226  59.65  0.000451098    1.567    0.362
       152 -12.3266     87.1792    166.9294   1.2612312592e+02   2.9674081328e+01    0.6962699    0.5168406  54.07  0.003681405    1.357    0.263
       153 -10.9146     89.5738    159.6508   1.2426314380e+02   3.1025122565e+01    0.5260658    0.2522611 -66.82  0.001592072    2.281    0.562
       154 -10.2764     29.0094    171.2181   1.4028737878e+02   3.6266823913e+01    0.3550528    0.2680587 -74.58  0.002293013    1.113    0.102
       155  -8.8369     52.6302    171.1212   1.3494787001e+02   3.3599696354e+01    0.1746472    0.1045767 -60.10 0.0002338721    1.516    0.340
       156 -10.7780     44.2810    168.8191   1.3656619517e+02   3.5149066242e+01    0.4237162    0.3465751  18.47  0.002616749    1.699    0.411
       157  -9.6351    126.6560    167.2404   1.1666671678e+02   2.2577952150e+01    0.2947874    0.2633047  22.15  0.001554288    1.305    0.234
       158 -10.0412     68.8410    166.7491   1.3050991270e+02   3.2476454072e+01    0.2405662    0.1737637 -74.98 0.0004053733    1.256    0.204
       159  -9.2504     58.3186    167.4408   1.3311267397e+02   3.3740537487e+01    0.1702769    0.1180971  54.62 0.0005733536    1.474    0.322
       160  -8.6978     53.7680    164.9561   1.3383486539e+02   3.4910642617e+01    0.1727832   0.09620509 -66.07 0.0003722357    1.553    0.356
       161 -11.3671    250.2059    230.8377   1.0338819671e+02  -1.2030259682e+01    0.4723987    0.1292363 -38.54  0.001848017    3.759    0.734
       162 -10.4551     40.0151    162.0852   1.3668546359e+02   3.7212896109e+01    0.3678766    0.1912334  26.80  0.001260693    2.544    0.607
       163 -10.6810     95.9673    158.0830   1.2238496040e+02   3.0338693898e+01    0.4479446    0.1874699 -58.66  0.001693939    2.319    0.569
       164 -10.1291     73.7695    159.1707   1.2809695285e+02   3.3579220656e+01    0.3204677    0.1788605 -52.96  0.001496541    1.709    0.415
       165  -9.8778     72.7183    155.9786   1.2782120419e+02   3.4497491790e+01    0.3195867     0.236062  -7.74  0.001552709    2.242    0.554
       166  -8.6597    112.4568    157.9487   1.1826467442e+02   2.7444785341e+01    0.2098569    0.1426498 -57.08  0.000323626    1.428    0.300
       167  -8.8711     52.4703    158.4561   1.3321017903e+02   3.6613667815e+01    0.1337657    0.1130228 -77.40  0.000247156    1.022    0.022
       168 -11.6298     32.0056    155.7795   1.3775823799e+02   3.9541318360e+01    0.4698159    0.2782819 -46.08  0.002270383    1.920    0.479
       169 -10.8096     23.5625    149.4785   1.3897215959e+02   4.1824188548e+01    0.2323237    0.1634052 -68.18 0.0006108273    1.153    0.132
       170 -11.7183     23.6532    156.1826   1.3977048246e+02   4.0262436342e+01    0.4616083    0.3525907 -19.61  0.002852909    1.985    0.496
       171 -10.6450     22.0000    153.0205   1.3977854884e+02   4.1146551220e+01    0.3090582    0.1494856 -70.19  0.001276729    1.643    0.391
       172  -9.4559    228.3365    155.4227   9.2283013388e+01   3.9099218447e+00     0.269577    0.1638321 -42.36  0.000651083    1.559    0.358
       173  -9.8763     60.4376    151.1337   1.3010067252e+02   3.7350866328e+01    0.3346303     0.206674  75.42  0.001155807    2.058    0.514
       174 -10.8389     56.0563    150.1553   1.3104856294e+02   3.8146627726e+01    0.6439279    0.4867149 -87.09  0.003660699    1.282    0.220
       175 -10.7674     99.3660    151.3293   1.2022675109e+02   3.1370037732e+01    0.4187105    0.4170483 -59.53  0.002431106    1.137    0.121
       176  -9.6961    102.7182    145.8718   1.1826018718e+02   3.2083205144e+01    0.3942311    0.2329138 -33.32  0.001337144    2.375    0.579
       177 -10.1229    113.8802    150.6276   1.1641342440e+02   2.8909245449e+01    0.3333281     0.254666 -64.14 0.0004574776    1.299    0.230
       178  -8.9761     87.4725    151.4857   1.2328585156e+02   3.3322977889e+01    0.1455448    0.1312144 -78.71 0.0001121109    1.014    0.013
       179 -12.7311     67.8703    144.1572   1.2699363562e+02   3.8023350820e+01    0.7766015    0.5461858 -84.02  0.002554909    1.525    0.344
       180 -11.6555     73.7856    139.7312   1.2461233043e+02   3.8244858315e+01    0.5888631    0.4143861  64.43  0.002884103    1.658    0.397
       181 -11.0216    133.4620    142.7710   1.0979918622e+02   2.6872618504e+01    0.9174737    0.2757191 -52.35  0.002629435    3.608    0.723
       182 -11.3065     31.7280    146.0173   1.3652429992e+02   4.1854535322e+01    0.2292183    0.1857111  55.70  0.001474663    1.360    0.265
       183 -11.7235     32.4375    140.7558   1.3559994818e+02   4.3017826145e+01    0.4027931    0.1893818 -78.29   0.00181911    2.219    0.549
       184 -10.3860     46.1724    138.6368   1.3172419438e+02   4.2069239512e+01    0.2058243    0.1796347   9.17  0.001280518    1.482    0.325
       185 -11.2936     22.8932    201.9907   1.4452082802e+02   3.0035963820e+01    0.3572286    0.2263789  83.12  0.001057422    1.293    0.227
       186  -9.3713    138.5434    138.5304   1.0756385731e+02   2.6780317874e+01    0.1554515     0.150815 -74.09 0.0001276211    1.004    0.004
       187 -10.9098     60.1011    136.6843   1.2769400130e+02   4.0850986166e+01    0.4072028    0.2521161 -81.75  0.001401866    1.881    0.468
       188  -9.0298     55.8575    138.6694   1.2917784522e+02   4.0914416849e+01    0.1729827     0.117927  48.01 0.0003528032    1.622    0.384
       189 -10.2749    110.6699    136.0908   1.1407273408e+02   3.2944337091e+01    0.4204254    0.3080176  11.86  0.001484232    1.988    0.497
       190 -11.2178     39.3694    146.4213   1.3467660103e+02   4.0973993440e+01    0.3823854    0.1959071  57.47  0.001790816    2.415    0.586
       191 -11.5256     45.2378    131.4009   1.3075582484e+02   4.3884089303e+01    0.4222161    0.3079523  87.45  0.001749194    1.497    0.332
       192 -10.9974     33.2004    131.6158   1.3401801148e+02   4.5082379217e+01     0.264787     0.196694   5.28   0.00104043    1.881    0.468
       193 -10.9593     33.4818    127.9994   1.3336305844e+02   4.5898442025e+01    0.3406701    0.1823544 -88.31   0.00152829    2.511    0.602
       194 -11.2087     30.3166    126.7000   1.3400865685e+02   4.6499932305e+01    0.2414498    0.1861164 -84.49 0.0008370551    1.253    0.202
       195  -9.1498     78.6722    131.2867   1.2160328487e+02   3.9535452861e+01    0.1428059    0.1074569  78.71 0.0002841879    1.611    0.379
       196 -11.5637     67.0695    128.4404   1.2421480822e+02   4.1884910171e+01    0.4486663    0.3229351 -70.61  0.002366981    1.359    0.264
       197  -9.7467    116.5467    128.9685   1.1087858589e+02   3.3477165208e+01    0.3151961    0.2023844   0.61  0.001049969    3.600    0.722
       198  -9.2144    109.7340    129.0070   1.1268593720e+02   3.4778253443e+01    0.2089032    0.1875038 -50.85   0.00110011    1.073    0.068
       199 -11.4867     40.9551    204.9775   1.4129160706e+02   2.7347391513e+01    0.7890161    0.3134547  53.08  0.003195903    2.389    0.581
       200 -13.0449     19.9191    122.4190   1.3615315002e+02   4.8386058323e+01    0.7926959    0.4578691 -12.69  0.003991358    2.920    0.658
       201  -9.1161     53.3978    181.9919   1.3617685749e+02   3.0969556858e+01    0.2359616    0.1490658  21.03 0.0008911503    2.442    0.591
       202 -11.0811     37.7011    122.2281   1.3122495153e+02   4.6824947079e+01    0.3871212    0.1342697 -51.32  0.001590124    2.402    0.584
       203 -10.5831     54.7197    120.8617   1.2616335733e+02   4.5261209861e+01    0.2592496    0.2077419  24.94  0.001182306    1.484    0.326
       204 -10.5005    209.8911    125.7172   8.8888124453e+01   1.3466656166e+01    0.3023955    0.2385176 -43.82 0.0004916067    1.204    0.169
       205 -13.8748      3.1166    192.2817   1.4750095086e+02   3.4042999640e+01      2.81636     0.396157 -70.57   0.01009491    4.406    0.773
       206  -9.0117     86.6043    116.9959   1.1620198875e+02   4.1639687610e+01    0.3015679    0.1344725 -60.13  0.001108208    2.514    0.602
       207  -9.8272     48.8201    118.1557   1.2731397036e+02   4.6582407199e+01    0.1960342    0.1378527 -41.32  0.001080882    1.414    0.293
       208 -12.1285     15.2201    114.6854   1.3624776470e+02   5.0503295893e+01    0.3347963      0.21468 -62.64 0.0002202217    1.205    0.170
       209 -10.9877    168.1030    113.3828   9.4330304691e+01   2.5625767661e+01    0.4050796    0.3155594 -72.67  0.000929313    1.521    0.342
       210  -9.2154    203.4119    111.7724   8.6720258790e+01   1.7642822212e+01    0.2127961    0.1447594 -29.58  0.000477695    1.612    0.380
       211 -10.4769     31.6656    110.9258   1.3090078346e+02   4.9998154212e+01    0.1988581     0.184551  42.72 0.0005066972    1.300    0.231
       212 -11.0029    249.5921    150.9205   8.7611916569e+01   6.3606111658e-01    0.5925185    0.2886323 -43.16  0.002614496    1.893    0.472
       213  -9.6724    126.0601    180.3034   1.1928979221e+02   1.9710449557e+01    0.2929091    0.2129374 -69.46  0.001351162    1.471    0.320
       214  -9.9416     62.4151    107.2112   1.2097246024e+02   4.7433348864e+01     0.194432    0.1218142 -66.33 0.0007936023    1.693    0.409
       215  -8.2355     74.3163     92.3127   1.1359641650e+02   4.9041501305e+01    0.1422967    0.1016568 -19.67 0.0003256875    1.642    0.391
       216  -9.4597     24.4683     88.0366   1.2851799547e+02   5.5660367503e+01    0.1894856   0.09878181 -57.64 0.0004510905    1.540    0.351
       217 -13.2387    248.4339    114.3384   7.9771713759e+01   7.3107226550e+00     1.447867    0.9161632 -25.41  0.006842765    1.825    0.452
       218 -14.0028      5.9335    245.3204   1.5037093693e+02   2.3071048631e+01      1.29201    0.6708782  89.33  0.008658571    1.498    0.333
       219 -11.1582     32.7508    201.8143   1.4260189901e+02   2.8994953793e+01    0.2038817    0.1611917  87.21  0.000283673    1.054    0.052
       220 -10.6746    193.6916    245.0720   1.1620020134e+02  -5.0726283294e+00    0.2249879    0.1742548  38.01 0.0002879524    1.128    0.114
       221 -10.9869    189.9632     15.5466   6.4347060349e+01   3.5822984100e+01    0.2369993     0.201073 -42.71 0.0007773552    1.299    0.230
