#   1 NUMBER                 Running object number                                     
#   2 MAG_AUTO               Kron-like elliptical aperture magnitude                    [mag]
#   3 X_IMAGE                Object position along x                                    [pixel]
#   4 Y_IMAGE                Object position along y                                    [pixel]
#   5 X_WORLD                Barycenter position along world x axis                     [deg]
#   6 Y_WORLD                Barycenter position along world y axis                     [deg]
#   7 A_WORLD                Profile RMS along major axis (world units)                 [deg]
#   8 B_WORLD                Profile RMS along minor axis (world units)                 [deg]
#   9 THETA_WORLD            Position angle (CCW/world-x)                               [deg]
#  10 FWHM_WORLD             FWHM assuming a gaussian core                              [deg]
#  11 ELONGATION             A_IMAGE/B_IMAGE                                           
#  12 ELLIPTICITY            1 - B_IMAGE/A_IMAGE                                       
         1 -10.0014     75.0818      3.0821   4.0327367015e+01   6.6506491671e+01    0.6362876    0.2940212  49.36  0.002674564    1.896    0.473
         2 -11.1590     86.4324     38.4954   5.4388826664e+01   5.8618342633e+01     1.632106    0.8925092  26.88  0.005873166    2.754    0.637
         3 -10.2829     79.5904     32.7845   5.4463932463e+01   6.1183846828e+01     1.565224    0.6688148  38.50  0.005543661    2.601    0.616
         4 -10.9336     70.5368      9.2359   4.5712932580e+01   6.6874348970e+01    0.9315746    0.5553608 -56.58  0.003893163    2.565    0.610
         5  -9.9778     49.7584     31.1623   6.8184901053e+01   6.7406422538e+01    0.7173064    0.5092004  10.37  0.002202909    1.639    0.390
         6 -10.8214     67.0073     14.6718   5.0400401706e+01   6.6935602144e+01    0.8094664    0.4579616 -49.57  0.003447947    2.309    0.567
         7 -11.1026     61.5779     10.0246   5.0126640420e+01   6.8813941407e+01    0.8826177     0.523739 -35.85  0.004179262    1.779    0.438
         8 -12.3295     61.6501     32.2662   6.2305377259e+01   6.5049540738e+01     1.886855     1.101615 -54.36  0.008104671    2.117    0.528
         9 -11.4730     64.5559     22.2239   5.5755167051e+01   6.6277688938e+01      1.15266    0.8148795 -87.43  0.004823012    2.749    0.636
        10 -11.6536    150.7590     47.5055   4.0419770436e+01   4.0979372243e+01     1.152364    0.6023232 -17.70  0.004373401    2.540    0.606
        11 -10.9837      2.9176     29.2537   1.0009952819e+02   7.2440830338e+01    0.7745166    0.3676125  85.21  0.003213733    2.555    0.609
        12 -10.3296     10.5224     32.0882   9.5058296827e+01   7.1466938166e+01    0.4826681    0.2420773 -62.59 0.0008383337    1.716    0.417
        13 -13.1101    244.3547     12.7716   2.0407038484e+01   2.3349158641e+01     2.060079    0.7880648 -34.26   0.01049618    1.961    0.490
        14  -5.9542     37.3258     12.8300   6.6231937637e+01   7.2993473731e+01    0.6236628    0.2731011 -48.97  0.002585673    2.499    0.600
        15 -11.7919     43.8594     19.8244   6.5928706605e+01   7.0627049605e+01    0.8973023    0.5525114  16.34  0.001629448    1.997    0.499
        16  -9.4421     79.8385     11.8770   4.3698676660e+01   6.4290590850e+01    0.5047437    0.4261413  16.34  0.002744379    1.228    0.186
        17  -9.5458     74.9965     17.5123   4.8610368721e+01   6.4686840643e+01    0.3295165    0.3121872 -52.68  0.001078649    1.198    0.165
        18  -9.3774    101.0463     14.7620   3.8692545227e+01   5.8504230747e+01    0.2393302    0.2045568  45.36 0.0002299545    1.106    0.096
        19  -8.2632     30.4886     12.4624   7.1129692346e+01   7.4067036550e+01    0.2954114     0.229777  18.18  0.001697987    1.243    0.196
        20  99.0000     27.6480      8.8055   7.1167299561e+01   7.5156963640e+01    0.2550268    0.1977802 -77.78  0.001356909    2.042    0.510
        21  -8.8831    111.6202      6.1767   3.2249906582e+01   5.6582962743e+01    0.3965366     0.223993 -55.52  0.001670089    2.148    0.535
        22  -8.1720    101.6400      5.2045   3.3939797433e+01   5.9383230582e+01    0.1839278     0.136719   3.97 0.0001463549    1.568    0.362
        23  -9.3258     91.8790      3.8421   3.5654145907e+01   6.2119690061e+01    0.2735732    0.2065103 -29.07 0.0007539333    1.433    0.302
        24  -8.3159    105.0020      1.4453   3.1388299450e+01   5.8825490743e+01    0.2189575    0.1311591  68.07 0.0003092826    1.509    0.337
        25 -11.4055    107.9400    119.9405   7.2523905259e+01   3.6838759729e+01    0.2577451    0.2382717  31.74            0    1.014    0.014
        26 -10.4089    206.2478    250.4525   7.2163831800e+01   1.3421719888e+00    0.5121536   0.07509275  31.72   0.00184851    5.211    0.808
        27 -11.1979    190.9931    249.2074   7.4640434494e+01   3.1576378660e+00    0.5666044    0.1666233  31.23  0.002852963    2.492    0.599
        28  -8.1057     58.2943    120.7097   8.8983696083e+01   4.4521426984e+01    0.1475094    0.1009081  59.66 0.0006971767    1.552    0.355
        29 -10.6895      2.7325    114.9434   1.0834235398e+02   5.0778990293e+01    0.4678594    0.2536198 -77.84 0.0007173037    1.692    0.409
        30 -10.4321      6.7698    111.0084   1.0668910330e+02   5.1562644646e+01    0.3180397    0.2339009  79.90  0.001673196    1.239    0.193
        31  -9.9990     47.9429    113.5476   9.1619783706e+01   4.7564361214e+01    0.3080768    0.2106541 -71.61  0.001217347    1.468    0.319
        32 -10.1646     47.7935    108.8247   9.0954953885e+01   4.8782353627e+01    0.3658628    0.2618858   2.30  0.001005486    1.688    0.407
        33 -10.5085     13.0801    112.7876   1.0448718290e+02   5.0764916245e+01    0.4740904    0.2586057 -52.34   0.00163399    1.920    0.479
        34  -9.6208     27.4497    113.6368   9.9248050246e+01   4.9533418264e+01    0.4884298    0.2438103  45.03    0.0015642    1.911    0.477
        35  -9.3235     32.4694    112.8336   9.7288929686e+01   4.9310181743e+01    0.3120665    0.2119899  -7.78 0.0008851675    1.855    0.461
        36  -8.3490    139.5333    113.0606   6.2139680011e+01   3.2056425484e+01    0.2271992    0.1483284 -43.93  0.001033399    1.614    0.380
        37  -7.7240     90.2811    113.2919   7.6616187562e+01   4.1520636116e+01    0.1461967      0.11711 -13.09 0.0002007366    1.530    0.347
        38  -8.6635     82.2090    111.0154   7.8843581736e+01   4.3420828325e+01    0.2214009    0.1955707 -22.94 0.0005633692    1.262    0.207
        39 -10.0404     38.0899    110.3303   9.4860141166e+01   4.9424434006e+01    0.2861877    0.2181867  65.52 0.0007479597    1.320    0.242
        40  -9.7919     41.9795    109.2990   9.3238644143e+01   4.9295028623e+01    0.2513409    0.2332959 -56.89 0.0002963947    1.118    0.106
        41  -8.1668    106.3250    110.2970   7.0806012167e+01   3.9286301866e+01    0.1538541    0.1195541  -1.75 0.0002554084    1.627    0.385
        42  -9.1626     98.7449    109.7527   7.3062967465e+01   4.0831535544e+01     0.356212    0.2113404  32.47  0.001513799    1.674    0.403
        43  -9.7641     61.6250    109.5766   8.5900177176e+01   4.6867212493e+01    0.3340878    0.1851125  44.03  0.001067347    1.766    0.434
        44  -8.9553    126.9195    108.7481   6.4413167134e+01   3.5520659721e+01      0.21036    0.1906367  38.82 0.0003593517    1.058    0.055
        45  -8.4226    110.3423    109.2905   6.9336989228e+01   3.8733952254e+01    0.1555398    0.1194779   1.95 0.0005317848    1.651    0.394
        46  -9.9663     65.9066    107.2419   8.3878753140e+01   4.6854750562e+01    0.4997939    0.2795179 -79.58  0.001991568    2.381    0.580
        47  -9.7716     65.0931    102.0271   8.3135377390e+01   4.8273389248e+01    0.4399843    0.2882644 -22.21    0.0018814    2.151    0.535
        48  -8.7041     89.3499    107.8647   7.5718269200e+01   4.2959234592e+01    0.3239658    0.1665157  36.67  0.001016599    1.840    0.457
        49  -9.2032     76.8828    107.6393   7.9985602640e+01   4.5098145122e+01    0.3377565    0.2396971  52.35  0.001598912    1.467    0.318
        50  -9.8725    119.0250    106.2764   6.6021049697e+01   3.7653758166e+01    0.2235323    0.1942265  39.90 0.0005152669    1.095    0.087
        51 -10.4935      3.0857    104.6392   1.0771538586e+02   5.3336736336e+01    0.4871495    0.2847582 -56.36  0.002320493    1.716    0.417
        52  -8.5182     34.9547    105.5283   9.5431332816e+01   5.0956089737e+01    0.2011706    0.1361405  20.29 0.0006456031    1.541    0.351
        53  -9.1936     14.1690    105.3548   1.0351967185e+02   5.2584599158e+01    0.1906154    0.1655277  40.72  0.001167286    1.158    0.136
        54  -9.7865     69.8860    103.2719   8.1598205616e+01   4.7256044508e+01    0.2487254    0.2012107 -75.87  0.000480748    1.330    0.248
        55 -10.8158     47.4862     95.4943   8.8811645929e+01   5.2231884611e+01     0.613254    0.2870919 -62.28  0.002536746    2.033    0.508
        56  -8.2010    145.3001    103.3298   5.8249692954e+01   3.2715675807e+01     0.154183    0.1161923   5.37 0.0002860121    1.644    0.392
        57 -10.9867    111.5037    100.4774   6.6768472227e+01   4.0430670183e+01    0.5209668    0.3445017 -27.01  0.001833349    1.923    0.480
        58 -10.3701    105.5114     98.5588   6.8130543263e+01   4.2059570778e+01    0.5208102    0.2588911 -40.60  0.001978244    2.237    0.553
        59 -11.0291     80.9503     99.9731   7.6812791368e+01   4.6288057564e+01    0.3425581    0.2788781  24.02 0.0003643145    1.261    0.207
        60  -9.9321     43.4459     93.4400   9.0114979012e+01   5.3217214452e+01    0.4697164    0.2555408  31.82  0.001675001    1.782    0.439
        61 -10.1959    136.8648     96.9269   5.8677094612e+01   3.5775558070e+01     0.402401    0.2913703 -24.00 0.0009380532    1.575    0.365
        62  -9.8463     98.0255     92.6673   6.9002513257e+01   4.4864229468e+01    0.3962902    0.3435857 -53.53  0.001240462    1.212    0.175
        63  -8.7098     95.6995     89.3054   6.8868952172e+01   4.6082910025e+01    0.2521343    0.2263962  28.54 0.0004587718    1.100    0.091
        64 -10.1553     51.1437    103.1476   8.8722606565e+01   4.9838365840e+01    0.3064253    0.2380421  74.97 0.0008975714    1.390    0.281
        65  -9.1422     33.9313     99.0219   9.4947146903e+01   5.2729733136e+01    0.2025723    0.1920786  85.18 0.0002895465    1.004    0.004
        66 -10.7093     11.3995     96.9915   1.0394149086e+02   5.4881340723e+01    0.3570387     0.269309 -21.79 0.0006951268    1.527    0.345
        67 -10.2579    116.2754     96.0925   6.4164552385e+01   4.0385032576e+01    0.3693739    0.1932439 -52.63  0.001422665    2.181    0.541
        68  -8.2413    179.3634     95.7612   4.8911614975e+01   2.6692302665e+01    0.1881384      0.12985 -22.97 0.0002492567    1.491    0.330
        69  -8.8675     64.7864     93.8945   8.1500011307e+01   5.0350306007e+01    0.2215151    0.1958331 -34.45 0.0004337743    1.202    0.168
        70 -10.0053     97.2811     97.4745   7.0524865638e+01   4.3916675399e+01    0.5714173    0.3813925  74.60  0.001064005    2.408    0.585
        71  -7.9834     80.6215     92.2599   7.5040264010e+01   4.8196785423e+01    0.1587935     0.113144  61.28 0.0001663398    1.667    0.400
        72  -9.2826     52.4214     90.7469   8.5837820197e+01   5.2846283037e+01    0.2118506    0.1263069 -51.69 0.0009459294    1.662    0.398
        73 -10.0337     72.0011     76.0976   7.3999606191e+01   5.3553110771e+01      0.39241     0.315074  -4.78  0.001264807    1.491    0.329
        74  -9.5468     72.7826     89.3641   7.7282000643e+01   5.0222466385e+01    0.3480738    0.2787111  69.15 0.0007657196    1.445    0.308
        75 -10.6328     69.0066     83.4848   7.7269975988e+01   5.2270784306e+01    0.5391423    0.4353833 -39.90  0.001177175    1.294    0.227
        76 -11.0704     63.1934     82.5781   7.9433203314e+01   5.3402756944e+01    0.7738892    0.4817613 -22.52  0.002876272    2.362    0.577
        77  -9.7062    139.0194     88.4573   5.5780125747e+01   3.6919207842e+01    0.2727425    0.2238516 -38.49 0.0002870956    1.251    0.201
        78 -10.4455    121.9634     87.8998   6.0208789737e+01   4.0858984593e+01    0.4846479    0.3139482  74.28  0.001818432    2.625    0.619
        79  -9.5200    116.4807     88.4513   6.1969679805e+01   4.1947863092e+01    0.2696477    0.2415546 -10.09 0.0006452852    1.209    0.173
        80  -8.9293    114.2199     85.6257   6.1829107632e+01   4.3029326651e+01    0.2602727    0.2324368 -41.42 0.0003548049    1.163    0.140
        81  -9.0390    135.0000     88.0281   5.6686913213e+01   3.7911862587e+01     0.232462    0.2142392 -76.18 0.0005283264    1.233    0.189
        82  -9.4682    132.1244     86.1371   5.6897268479e+01   3.8928523681e+01    0.2296326    0.2026529  14.07  0.001169626    1.203    0.169
        83 -10.8508    107.1354     86.1286   6.4179462601e+01   4.4445983797e+01    0.4891518    0.3399876  55.31 0.0004498003    1.551    0.355
        84  -9.7210     43.9290     80.9095   8.7458292598e+01   5.6387857230e+01    0.2881044    0.2127402   2.73 0.0003707786    1.563    0.360
        85 -11.3565     46.6130     85.6747   8.7265404024e+01   5.4854887098e+01    0.8097895    0.2940789  33.18  0.002998494    2.551    0.608
        86 -11.0853     52.1643     80.2213   8.3609748004e+01   5.5552255415e+01    0.6378679    0.3975831  31.45  0.002203536    1.590    0.371
        87 -10.9297     54.2940     74.1513   8.1134423159e+01   5.6787025004e+01    0.7269006     0.452281  76.12 0.0005093316    2.550    0.608
        88  -8.3073     23.4974     87.9337   9.7848298232e+01   5.6467157999e+01    0.2104797    0.1269739 -74.73  0.001022503    1.559    0.359
        89  -8.3627     16.5436     88.4807   1.0096591362e+02   5.6786661526e+01    0.2042167    0.1184314  82.25 0.0005575988    1.782    0.439
        90  -8.4994     15.0346     85.4801   1.0130515622e+02   5.7652692593e+01    0.2856407    0.1765542   5.27  0.001437873    1.831    0.454
        91  -8.3398      7.2766     87.7984   1.0492895442e+02   5.7443729056e+01    0.1670748    0.1366303 -39.57  0.000992422    1.298    0.229
        92  -8.0672    177.4620     85.4553   4.6584151958e+01   2.8741124302e+01    0.1415119    0.1352023  -6.32 0.0001181245    1.001    0.001
        93  -9.5348    163.1646     84.1568   4.9037626090e+01   3.2167116856e+01    0.3151804    0.2429189  40.55  0.001325989    1.301    0.231
        94  -8.6413     98.0811     84.8383   6.6786590863e+01   4.6608872014e+01    0.3398976     0.171645 -28.90 0.0009778119    3.401    0.706
        95  -9.6061    139.2492     83.6691   5.4345240490e+01   3.7764157662e+01    0.2545519     0.222426 -26.93 0.0007481911    1.181    0.153
        96  -8.6824     88.5330     83.9772   6.9892683415e+01   4.8692497605e+01     0.233599    0.1942456  35.26 0.0004613089    1.172    0.146
        97  -9.1774     29.6551     83.6570   9.4464195577e+01   5.7095253610e+01    0.2590442    0.1997892 -50.52  0.000565903    1.275    0.216
        98  -9.7184     25.0502     78.2420   9.5733768593e+01   5.8872091851e+01    0.4544967    0.3376646  42.28  0.001836936    1.390    0.281
        99 -10.0627     82.3825     80.1125   7.1061598661e+01   5.0748373611e+01     0.578499    0.2881037 -46.72  0.002258001    2.058    0.514
       100 -10.1486     87.7323     73.4749   6.7024282795e+01   5.1228734169e+01    0.5874194    0.4297732 -42.64 0.0009125337    1.412    0.292
       101 -10.2448     82.5366     74.0742   6.9184649567e+01   5.2109409025e+01    0.5579721    0.3370625  53.39  0.001665444    1.894    0.472
       102  -9.4680    128.4889     79.7873   5.5989508737e+01   4.0987756916e+01    0.4899804     0.333184   0.40  0.001211886    2.340    0.573
       103  -9.9467    125.9652     74.6615   5.5097023873e+01   4.2557698000e+01    0.5134153    0.2791066  45.03  0.002064291    1.786    0.440
       104  -8.3497    137.6970     78.2810   5.3137145933e+01   3.9121844555e+01    0.1492394    0.1223061 -84.56  0.000696802    1.551    0.355
       105 -11.9587    139.4473     72.3391   5.0890759199e+01   3.9779414100e+01     1.152264    0.5644439  46.97  0.003139426    1.987    0.497
       106  -9.6820    113.9995     80.3529   6.0318932587e+01   4.4169988210e+01    0.3955836    0.3072476  44.32  0.001406252    1.240    0.193
       107  -8.4844      7.2678     80.7100   1.0433842392e+02   5.9269127164e+01    0.2730365    0.1295696 -28.04  0.001187104    2.522    0.603
       108  -8.1782      1.6328     80.8036   1.0689935024e+02   5.9452423504e+01    0.1801861    0.1086076  83.36 0.0003943172    1.561    0.359
       109  -9.2076     75.7711     78.8857   7.3281216134e+01   5.2234774028e+01    0.4860896    0.2160286 -33.13  0.001405477    4.193    0.762
       110  -9.4379     98.6770     78.2983   6.4626299096e+01   4.7923682113e+01     0.299032     0.191416 -44.29 0.0006614046    1.618    0.382
       111  -9.9854     96.0222     75.0590   6.4532728957e+01   4.9183645096e+01     0.369496    0.2986729  49.94 0.0008329571    1.235    0.190
       112 -10.1306    174.1385     72.6748   4.3701132845e+01   3.1479916899e+01    0.3556461    0.2449281  71.79 0.0008917014    1.754    0.430
       113  -9.5159     30.8547     75.8712   9.2555059942e+01   5.9011320782e+01    0.4783309     0.234254  54.98  0.001718934    2.547    0.607
       114  -9.9827    152.0523     73.2851   4.8273995790e+01   3.6592569407e+01    0.3784775    0.2738621 -11.57  0.001204277    1.693    0.409
       115 -10.7548    149.8860     67.6373   4.7034300422e+01   3.8059917517e+01    0.5166689    0.4304341  35.38   0.00159462    1.239    0.193
       116  -7.8915    103.3196     77.3200   6.2764318056e+01   4.7146411465e+01    0.2416277    0.1426739 -21.90 0.0008499275    2.748    0.636
       117  -9.8453    106.3686     73.8778   6.0680702742e+01   4.7201543994e+01    0.3684458    0.2841256  25.02  0.001239105    1.438    0.304
       118  -9.3516    203.2283     75.7830   3.9809069566e+01   2.4588873709e+01    0.3278217    0.1539603  34.99   0.00126705    3.073    0.675
       119  -8.6150    193.8090     76.4111   4.1395514551e+01   2.6512171520e+01    0.1833831    0.1249493  42.40 0.0003314966    1.558    0.358
       120 -11.1400    112.5968     72.5791   5.8306025028e+01   4.6064057321e+01    0.8484849    0.7404955  37.83  0.003740942    1.115    0.103
       121 -11.3792    119.6241     60.4944   5.2187494015e+01   4.6716431459e+01    0.8542727    0.5724216  -0.79   0.00258966    2.393    0.582
       122 -10.5217    126.9648     57.4334   4.9146536740e+01   4.5450231920e+01    0.8795999    0.4956001  71.36   0.00321664    2.545    0.607
       123 -10.9896    104.6946     67.5262   5.9133737266e+01   4.8876346596e+01    0.6041948    0.3654924  62.90  0.002362773    2.150    0.535
       124  -9.1145    108.2767     60.3812   5.5514771916e+01   4.9456624199e+01    0.3522532    0.2634255 -59.62 0.0009280206    1.587    0.370
       125  -9.7025    164.2940     74.9670   4.6217030765e+01   3.3415046456e+01    0.2167016    0.1894893 -28.64  0.001159525    1.137    0.121
       126  -9.6131     21.6867     61.2384   9.4465347066e+01   6.3508988230e+01    0.3990585    0.2062085  38.00 0.0008330836    2.034    0.508
       127  -9.6321     23.4536     68.2878   9.4843731388e+01   6.1569562046e+01    0.3715872    0.2608563  58.68 0.0007837862    1.578    0.366
       128 -10.8547     28.6441     62.0969   9.0881836651e+01   6.2744076499e+01    0.7476133    0.3494765 -54.47  0.002693659    1.911    0.477
       129  -9.9176     37.0813     73.1882   8.9010185726e+01   5.9109802063e+01     0.453122    0.3138661 -18.77   0.00178597    1.715    0.417
       130  -9.8749     34.7516     69.2283   8.9294908647e+01   6.0357860849e+01    0.4050426    0.3583561  -3.11  0.001268793    1.193    0.162
       131  -8.4456     15.1342     73.8799   9.9876712655e+01   6.0655418195e+01    0.1957954    0.1434227 -48.48  0.001073638    1.324    0.244
       132  -9.4014    149.2569     78.0672   5.0315129402e+01   3.6436052225e+01    0.2996218    0.1856993  38.89  0.001293171    1.703    0.413
       133 -10.2941    172.5467     76.3041   4.5008086632e+01   3.1286190410e+01    0.3814355     0.261643 -29.14 0.0006413365    1.453    0.312
       134  -9.7261      9.9034     67.4450   1.0168180427e+02   6.2578983392e+01    0.5065812    0.2851805 -42.18  0.002408514    1.766    0.434
       135  -9.2971    169.2367     68.5911   4.3434853426e+01   3.3253012758e+01    0.2095779     0.130913  45.69 0.0007573303    1.638    0.390
       136 -10.6310    205.3383     64.6695   3.6673916946e+01   2.5632045775e+01    0.2713985    0.1805322 -72.97  0.001320867    2.090    0.521
       137  -9.7629     68.1129     49.1622   6.6549561235e+01   6.0376657288e+01    0.4682294    0.3370863  42.49  0.001043628    1.379    0.275
       138  -8.5931     70.2131    119.8730   8.4701304611e+01   4.3115654617e+01    0.2187224    0.1848903  65.57 0.0005517004    1.220    0.180
       139 -11.0009     87.1557     47.0103   5.7709682866e+01   5.6879777959e+01    0.4629802    0.4245565  16.90  0.000990643    1.102    0.093
       140  -8.7056    221.1780    239.6616   6.8271445383e+01   7.8015377036e-01    0.1422997    0.1031876   8.47  0.001137891    1.160    0.138
       141  -8.2527    188.6738    240.3201   7.3942131086e+01   4.3817157620e+00   0.09859838   0.07367774  37.13 0.0005749968    1.682    0.405
       142 -10.2752     60.2003     63.3995   7.5291929277e+01   5.8526583603e+01    0.7962354    0.5751383 -87.42  0.003615979    1.940    0.484
       143 -10.5396     58.2216     54.7665   7.3344152781e+01   6.0862306735e+01    0.6848265    0.4888168   0.55  0.002448422    1.796    0.443
       144  -7.9545     55.9679    216.9517   9.9281189235e+01   2.3899764548e+01    0.1381737      0.10385  39.25 -0.001877172    1.017    0.016
       145 -10.3731     56.6527     45.9702   7.0847644569e+01   6.3104405896e+01     1.558919    0.5423531  30.19  0.004970694    3.453    0.710
       146  -9.6502    213.0268    216.3303   6.6340378768e+01   4.1386872191e+00    0.1599111    0.1100698  16.25 0.0004926287    1.094    0.086
       147  -9.8919     51.2182     37.5907   7.0279253530e+01   6.5819589871e+01    0.3996965    0.2972226  42.06  0.000885477    1.400    0.286
       148  -8.7440    229.4934    203.4875   6.1623814129e+01   3.5593349608e+00    0.1136278   0.07998554   5.43  4.34587e-05    1.027    0.026
       149  -9.8751     12.4639    161.9787   1.0729769415e+02   3.9057760184e+01    0.1878963    0.1451982  36.96 0.0006080618    1.175    0.149
       150 -10.4141      6.3090    157.6507   1.0885759938e+02   4.0450131477e+01     0.387242    0.1794768  80.01  0.001758216    2.046    0.511
       151  -8.3837     32.6106    151.2288   1.0083934276e+02   3.9873855569e+01    0.2042692    0.1542299 -13.68 0.0006491347    1.709    0.415
       152 -10.6256     39.8789     64.3429   8.5530308680e+01   6.1057148401e+01    0.6419132    0.4233854  85.83  0.002924502    2.006    0.502
       153  -9.7950     42.7627     61.3738   8.3251383267e+01   6.1462242650e+01    0.3222857     0.274959  38.34 0.0008542954    1.215    0.177
       154  -8.8244     17.9081     65.8502   9.7302965247e+01   6.2571076786e+01     0.203163    0.1642598 -43.29 0.0003355615    1.206    0.171
       155  -9.6076     78.3220     58.8715   6.5776678278e+01   5.6315213155e+01     0.370558    0.2956701  67.40  0.001159643    1.525    0.344
       156 -11.6122     82.0899     55.0092   6.2822112551e+01   5.6371512238e+01    0.8789809    0.5610977 -66.46  0.003526099    2.332    0.571
       157 -11.5747    139.4955     56.5008   4.5782559306e+01   4.2463876228e+01    0.8469762    0.4795689 -35.10  0.001712778    1.796    0.443
       158  -9.7434    145.3004     60.8607   4.5908279807e+01   4.0302163021e+01    0.2959412    0.2284772  67.34  0.001130846    1.366    0.268
       159  -9.8471    183.3577     61.2051   3.8922553970e+01   3.1017641008e+01    0.2420949    0.2364819  54.13   0.00026848    1.061    0.057
       160 -11.3644    215.7261     59.5243   3.4060842994e+01   2.4096133847e+01    0.4532082    0.2173129 -54.44  0.001913096    2.691    0.628
       161  -8.6770     67.1177     61.0530   7.1360264928e+01   5.7919532644e+01    0.2325664    0.2161438  27.19  0.001259958    1.059    0.055
       162 -12.3655    231.4851     52.7157   3.0692588390e+01   2.1726689924e+01    0.6306394    0.3077297  55.36  0.003199168    2.265    0.559
       163  -9.9128     16.0203     58.1057   9.7018963506e+01   6.4672131978e+01     0.515801     0.173225 -49.02   0.00198481    2.644    0.622
       164 -11.4522    207.8240     58.7349   3.4823710701e+01   2.5863604081e+01    0.3769427    0.2173125  51.01  0.001880675    1.862    0.463
       165  -8.3470     49.0292     59.4980   7.9493869962e+01   6.1115172700e+01    0.2176922    0.1421731  27.50 0.0008134912    1.554    0.357
       166 -11.7260    196.3145     56.2056   3.5656392593e+01   2.8722529979e+01    0.5743936    0.2986091  80.61  0.002004582    2.899    0.655
       167 -10.5011    164.1137     55.7732   4.0559194672e+01   3.6414148817e+01    0.5026717    0.3439938 -62.96 0.0004144258    1.778    0.437
       168  -9.9322    161.5096     50.5023   3.9392468677e+01   3.7822655818e+01    0.2935382    0.2437662 -15.01 0.0009748287    1.306    0.234
       169  -8.7550     21.7495     56.7261   9.3520580031e+01   6.4656078313e+01    0.1885956    0.1535198  64.30  0.001056356    1.363    0.266
       170 -10.2179      3.6265     55.7664   1.0366595347e+02   6.5799774782e+01    0.3469943    0.2488905   8.84 0.0006530376    1.538    0.350
       171  -9.8752      3.4426     50.1907   1.0309433652e+02   6.7219752757e+01    0.4692278    0.2997004 -76.39  0.001902674    1.408    0.290
       172  -9.4174    174.5060     55.5575   3.8715380897e+01   3.3907917428e+01    0.2777571     0.239274  26.07 0.0005856389    1.279    0.218
       173  -8.6503     68.4812     55.3164   6.8721453925e+01   5.8968768023e+01    0.2957117    0.2220077  71.48  0.001140294    1.834    0.455
       174  -8.9305     38.6043     55.2195   8.3702097117e+01   6.3470484204e+01    0.2215461    0.1357156 -60.31 0.0005955606    1.576    0.365
       175  -9.7914     43.6731     53.4503   8.0399501574e+01   6.3286286757e+01     0.512036    0.3272105  -9.70  0.002256035    2.103    0.524
       176 -10.4955    130.4947     53.1941   4.6783193885e+01   4.5277889062e+01    0.4006432    0.3200247 -53.48  0.001548962    1.357    0.263
       177  -9.9409    101.5255     69.9293   6.0985660247e+01   4.9090592307e+01    0.3294783    0.2556451 -45.28  0.001572637    1.339    0.253
       178  -8.8560    101.4695     54.2818   5.5481384263e+01   5.2215671216e+01    0.5498798    0.2205848  50.01  0.001715613    2.419    0.587
       179 -11.3293    101.1478     46.2965   5.2502075343e+01   5.3758104420e+01    0.8396902    0.6871567 -26.50  0.003008238    1.306    0.234
       180 -10.0546     94.7513     45.2354   5.4226780324e+01   5.5470611064e+01    0.5522929     0.369906 -52.06  0.001963363    1.723    0.420
       181  -9.0702    236.5184    146.5204   5.0515668167e+01   9.2558225050e+00     0.120632   0.09444213  -4.34 0.0008100276    1.011    0.011
       182  -9.4417    161.5467     44.5213   3.7496735532e+01   3.8647185281e+01    0.2905473    0.2116243  42.22 0.0007868195    1.468    0.319
       183 -10.6249    163.7446     40.6981   3.5917675862e+01   3.8600366731e+01    0.5747364    0.2889234  57.18  0.001827316    1.911    0.477
       184  -9.3881     16.6104     49.6920   9.5056472934e+01   6.6774758554e+01    0.3448594    0.2265377 -57.43  0.001825018    1.353    0.261
       185 -12.7387    211.0211     46.7597   3.1357423870e+01   2.6643159651e+01    0.6273644    0.4844794 -51.91  0.002525629    1.251    0.201
       186 -12.4297    201.3924     45.2383   3.2056822232e+01   2.8954561940e+01     1.246341    0.3845658 -48.88  0.003963104    4.157    0.759
       187 -12.5374    210.5527     39.9951   2.9655492316e+01   2.7533930470e+01    0.8939404    0.3444989  67.08  0.003764857    2.771    0.639
       188 -12.2839    202.3679     36.2792   2.9534897775e+01   2.9787547204e+01    0.7248179     0.384899  89.41  0.003199691    2.497    0.600
       189 -11.9673    189.3521     47.9609   3.4324454033e+01   3.1387502668e+01    0.7442419    0.3244864  71.44  0.002905571    2.773    0.639
       190 -12.0975    194.2058     45.6567   3.3048899641e+01   3.0546032901e+01    0.5849187    0.3869115 -79.46  0.002872848    1.882    0.469
       191 -10.5957    109.9892     65.2359   5.6670333625e+01   4.8117946215e+01    0.5902312    0.4252332  55.50  0.002158453    1.414    0.293
       192 -10.4082    125.5940     46.6352   4.5650378893e+01   4.7589131354e+01    0.6991771    0.3529727  39.41  0.002602651    2.304    0.566
       193 -10.6858    129.3786     37.3177   4.1293195778e+01   4.8016732542e+01    0.7462164    0.4009143 -52.25   0.00290877    2.275    0.560
       194  -8.6473     13.2192     38.8681   9.4818064502e+01   6.9668287647e+01    0.2391992    0.1983662  51.41 0.0005933312    1.376    0.273
       195  -9.6376      1.7305    144.3109   1.0975488624e+02   4.3775201351e+01    0.3253958    0.1452868  82.55  0.001543782    2.087    0.521
       196  -8.8299      1.3699     35.6839   1.0237099309e+02   7.0899305138e+01     0.288952    0.1207092 -81.23 0.0007667754    2.287    0.563
       197  -9.5633     10.5770     46.6302   9.8173433130e+01   6.7862687034e+01    0.3428747    0.2908394  55.84  0.001175411    1.310    0.237
       198  -9.2423     15.7777    136.9952   1.0510503372e+02   4.4616699579e+01    0.3113165     0.161094  75.57  0.001518846    1.899    0.473
       199 -10.1624      8.0809     41.6494   9.8850713801e+01   6.9215525929e+01    0.7249999    0.3838379  19.22  0.003580751    2.009    0.502
       200  -9.0697      2.7776     40.9670   1.0223137780e+02   6.9554986341e+01    0.2052103     0.152964 -38.72 0.0002596731    1.259    0.206
       201  -9.5432      9.2435     38.0253   9.7346389378e+01   7.0068637271e+01    0.2656305    0.1856188 -62.03   0.00115832    1.262    0.208
       202  -8.1442    142.6075     46.6967   4.1785184306e+01   4.3194269666e+01    0.1639352    0.1104923  30.52 0.0007009753    1.811    0.448
       203 -10.0634     42.7317     45.0392   7.8057822337e+01   6.5402507536e+01    0.4561478    0.3414121  86.29   0.00223094    1.872    0.466
       204  -9.5975     24.2876     44.8463   8.9127747314e+01   6.7437805364e+01    0.3910554    0.2440465  50.80  0.001890719    1.940    0.485
       205  -9.2249    123.5103     37.9767   4.2913806694e+01   4.9460030025e+01    0.4230981    0.2685201  52.17  0.001442699    1.485    0.327
       206  -8.3082    169.6241     44.3082   3.6113282748e+01   3.6642891584e+01    0.1558452    0.1046003 -66.60 0.0007029656    1.778    0.438
       207  -8.8224    172.7516     41.3805   3.4740369460e+01   3.6245196888e+01    0.2199686    0.1706143  10.61 0.0002176464    1.591    0.372
       208 -10.6968     30.4803     38.4947   8.3178432404e+01   6.8393620612e+01    0.4964148    0.2954121 -61.33  0.001641659    1.656    0.396
       209  -8.5551     25.7668     38.6144   8.6303023051e+01   6.8824811968e+01    0.2160979    0.2022836 -55.84 0.0008218705    1.090    0.082
       210 -11.8802    220.5863     38.6921   2.8331413449e+01   2.5525973288e+01    0.4776159    0.3993056 -22.59  0.003035472    1.173    0.147
       211  -8.6067    141.5931     40.6307   3.9889980293e+01   4.4338085494e+01    0.2875296    0.2016134 -54.96  0.001302211    1.578    0.366
       212  -8.8507    135.5397     40.1555   4.0982039269e+01   4.5990677112e+01    0.2235544    0.1487399 -32.51 0.0008694567    1.548    0.354
       213  -8.1906    116.8349     39.8650   4.5336234386e+01   5.0906617840e+01     0.207669    0.1761933 -67.20   0.00053756    1.327    0.247
       214  -9.2402    109.3461     39.1334   4.7109376221e+01   5.2936584554e+01     0.268308     0.203098  44.73 0.0009384224    1.274    0.215
       215 -10.7932    179.9559     36.8770   3.2374452862e+01   3.5025792896e+01     0.491821    0.2304657  49.34  0.002044437    2.284    0.562
       216  -9.8443    162.3121     34.5448   3.4169711315e+01   3.9755554055e+01     0.425507     0.224002  54.32  0.001836551    1.853    0.460
       217 -10.0445    139.0585     34.6163   3.8253865458e+01   4.5835457483e+01    0.3388103    0.2321877  47.94  0.001054853    1.451    0.311
       218  -9.6474    112.5134     33.4081   4.3891517690e+01   5.3002408965e+01    0.3877715    0.2840349  43.02 0.0008314291    1.347    0.258
       219  -8.4294    115.6961     32.7285   4.2782025960e+01   5.2271847148e+01    0.2145651    0.1964339  38.75 0.0001768358    1.088    0.081
       220  -9.9855    169.1821     33.8600   3.2933369185e+01   3.8083948467e+01    0.2284702    0.1922749 -65.07  0.001247291    1.193    0.162
       221  -9.9462     24.9611    134.0546   1.0193497728e+02   4.4638529050e+01    0.3018452    0.2054957  38.84 0.0005959482    1.344    0.256
       222 -10.3633    154.6797     30.6275   3.4073137023e+01   4.2225057260e+01    0.2634939    0.2472503  79.46 0.0002864257    1.025    0.024
       223  -8.6739    120.2930     31.0391   4.0964516244e+01   5.1301104571e+01    0.2006537    0.1896123 -34.12 0.0003097007    1.117    0.105
       224  -8.5579     38.2374     31.2361   7.5266353305e+01   6.9123786787e+01    0.1822171    0.1580929  49.08 0.0005755582    1.335    0.251
       225  -9.4806    136.3637     28.0849   3.6379994006e+01   4.7405164208e+01    0.5894322    0.2465729  46.79  0.001741659    2.498    0.600
       226  -9.3060     21.3746    131.1298   1.0290195787e+02   4.5634063024e+01    0.3871052    0.1875334 -61.85  0.001822086    2.059    0.514
       227  -9.5376     42.7889     28.2586   7.0988291509e+01   6.9111291820e+01    0.3449003    0.2502189 -69.18 0.0009451461    1.867    0.464
       228  -9.2179     30.6441    134.6491   1.0011559830e+02   4.4014821272e+01    0.2198872    0.1849847  85.29 0.0007949406    1.140    0.123
       229 -10.7235     28.2342     26.6515   8.0102590565e+01   7.1357290021e+01    0.4582132    0.2256203  29.87 0.0001573653    2.033    0.508
       230  -8.5298    107.5005     25.9827   4.2085347370e+01   5.5367427229e+01    0.2141346    0.1521038 -25.86 0.0008994787    1.518    0.341
       231  -9.1259    102.4896     23.9081   4.2542408533e+01   5.6957245834e+01    0.3704464     0.267912 -72.96  0.001690627    1.812    0.448
       232  -9.0045    131.4305     21.8657   3.4954451447e+01   4.9494296276e+01    0.4428041    0.1561855 -22.38  0.001456412    3.309    0.698
       233  -9.9956     87.9306     22.7815   4.6539797770e+01   6.0807327349e+01    0.8209028    0.3598481  65.95  0.002745761    3.094    0.677
       234  -7.9812     88.4485    134.4813   8.1363408176e+01   3.6884815159e+01    0.1460821    0.1339596  43.12 7.503996e-05    1.019    0.019
       235  -9.0000     76.7749     21.6068   5.0074383375e+01   6.3660127816e+01    0.3593421    0.2949063  78.69  0.001731402    1.501    0.334
       236  -9.6927      8.9711    131.4035   1.0699872265e+02   4.6409950544e+01    0.2450627    0.1999057  40.63 0.0003358269    1.167    0.143
       237  -8.3524    179.4073     22.2597   2.8058975597e+01   3.6834959116e+01    0.1908402    0.1167229 -39.29  0.000537732    1.532    0.347
       238  -8.1781    168.3127     22.3125   2.9395902581e+01   3.9642567267e+01    0.1434518    0.1035165  35.43 0.0007031085    1.633    0.388
       239  -8.7244    125.9174     21.5712   3.5921140599e+01   5.1020091351e+01    0.2798868    0.2094191  13.92  0.001015904    1.639    0.390
       240  -9.1185    113.5653     22.5145   3.9041748504e+01   5.4223707483e+01    0.2309339    0.1264186  51.06 0.0009648732    1.693    0.409
       241  -8.8684    116.5146     20.5127   3.7499721696e+01   5.3683812853e+01    0.1496355    0.1400793  69.75 6.266253e-05    1.026    0.025
       242  -8.0282    107.3257     19.3031   3.9170145413e+01   5.6288513729e+01    0.1581831    0.1063319  33.74 0.0007032068    1.642    0.391
       243  -8.7299     19.2635     19.2925   8.3829873617e+01   7.3883620843e+01    0.1531476    0.1438252  48.02  0.000403119    1.272    0.214
       244  -8.4753     84.2225     18.1586   4.5498806803e+01   6.2376669945e+01    0.2260801    0.1851645  31.93 0.0008282308    1.205    0.170
       245  -9.3602     16.1389     43.7497   9.4035788211e+01   6.8291688471e+01    0.2908088    0.1983268 -31.47 0.0008982031    1.453    0.312
       246  -8.2670     73.5530    130.0801   8.5331011931e+01   4.0164942326e+01    0.2011159    0.1431092 -66.56 0.0004989931    1.501    0.334
       247  -8.6300     91.6473     15.4026   4.1669709739e+01   6.0873759633e+01    0.2694145    0.1399919  64.68 0.0006891067    1.953    0.488
       248  -7.8328    111.2885     14.2715   3.5966406413e+01   5.5824734990e+01    0.1494867    0.1043566  37.34 0.0002103127    1.508    0.337
       249  -7.9810    145.3962     13.5143   2.9488029762e+01   4.6631536212e+01    0.1411595    0.1340653  77.43 -0.0001859532    1.041    0.039
       250  -8.0734     89.2843    128.9909   8.0105098709e+01   3.8019335505e+01    0.1706417    0.1331424 -59.81 0.0008620556    1.381    0.276
       251  -8.5399     59.5012    125.9949   8.9374204985e+01   4.3060392976e+01    0.2289678    0.1765542  32.75 0.0009304011    1.234    0.190
       252  -7.5916    139.4433     11.5185   2.9625581857e+01   4.8447018327e+01    0.1449989    0.1332094  62.33 8.815514e-05    1.072    0.067
       253  -8.0044    124.8048     11.5686   3.2064182759e+01   5.2439658680e+01    0.1877306    0.1351412  83.83 0.0009046837    1.404    0.288
       254  -8.9118    112.0293     10.5559   3.4141233092e+01   5.6029295749e+01    0.2311301    0.1364181  68.05  0.001021008    1.580    0.367
       255  -8.7582     76.1137     28.5335   5.3848043635e+01   6.2695479940e+01    0.2158916    0.1402049  48.28 0.0005452771    1.470    0.320
       256  -9.9969      3.6848    124.9048   1.0844566688e+02   4.8284655616e+01    0.3008691    0.2001958  67.98  0.001036372    1.348    0.258
       257  -9.1934     76.7901    121.2997   8.2726160648e+01   4.1798237890e+01    0.2969752    0.2228007  84.62 0.0008950373    1.603    0.376
       258  -9.1541     43.2077    120.9115   9.4352210781e+01   4.6219663562e+01    0.3303924     0.188443 -80.24   0.00104424    1.845    0.458
