#   1 NUMBER                 Running object number                                     
#   2 MAG_AUTO               Kron-like elliptical aperture magnitude                    [mag]
#   3 X_IMAGE                Object position along x                                    [pixel]
#   4 Y_IMAGE                Object position along y                                    [pixel]
#   5 X_WORLD                Barycenter position along world x axis                     [deg]
#   6 Y_WORLD                Barycenter position along world y axis                     [deg]
#   7 A_WORLD                Profile RMS along major axis (world units)                 [deg]
#   8 B_WORLD                Profile RMS along minor axis (world units)                 [deg]
#   9 THETA_WORLD            Position angle (CCW/world-x)                               [deg]
#  10 FWHM_WORLD             FWHM assuming a gaussian core                              [deg]
#  11 ELONGATION             A_IMAGE/B_IMAGE                                           
#  12 ELLIPTICITY            1 - B_IMAGE/A_IMAGE                                       
         1  99.0000    201.7315     22.5826   2.0804079620e+01   3.1539639601e+01     5.880907    0.7294472  51.58   0.01358409    7.068    0.859
         2 -16.0306    213.2628     76.5903   3.4714879409e+01   2.1159398337e+01     7.232318     6.689295 -56.19   0.03918669    1.119    0.107
         3 -14.1324    217.7997     36.5088   2.2790770276e+01   2.5842455367e+01      2.45071    0.6413842 -32.82  0.007513924    3.136    0.681
         4 -13.3365    212.6861     22.3219   1.9445080286e+01   2.8821258385e+01      1.24912    0.3257343 -26.07  0.003609702    3.667    0.727
         5 -15.4948    228.1205     69.7071   3.0555326846e+01   1.8668178077e+01     1.820431     1.141974  67.52  0.008305946    1.847    0.459
         6 -16.5147    240.5623     55.4692   2.5107941363e+01   1.7826331279e+01     8.274347          nan  54.03   0.01422272   11.226    0.911
         7 -14.6966    231.8343     32.0927   1.9974921402e+01   2.2980413625e+01     2.680197     1.586024 -45.83  0.009606685    1.568    0.362
         8 -16.3694    249.0106     90.2168   3.2971503059e+01   1.0781495712e+01     10.58721     2.694641 -25.72   0.02404574    6.606    0.849
         9 -14.8223    249.5794     27.1789   1.6945576044e+01   1.9438324225e+01     2.089469    0.3764323 -27.79  0.005914229    5.065    0.803
        10 -13.1378    134.5334     23.4878   3.1748718016e+01   4.8345078544e+01    0.7177504    0.2671489 -20.25   0.00252413    2.900    0.655
        11 -12.0860    141.3417      8.6765   2.4975018361e+01   4.8190630489e+01    0.4422698    0.2092349  55.15  0.001834263    1.872    0.466
        12 -10.3272    215.8458      9.2421   1.5533832194e+01   2.9444062231e+01    0.1902926    0.1663861 -70.98 0.0006746994    1.075    0.070
        13 -11.5678    128.2233      8.0347   2.7092551528e+01   5.1398337416e+01    0.2543508    0.2014575  34.70 0.0004619836    1.152    0.132
        14 -10.8461    248.8925      7.3529   1.2215819307e+01   2.1834444621e+01    0.2744415    0.2070739  81.93  0.001653324    1.323    0.244
        15 -11.2880    250.6660      4.3003   1.1366135416e+01   2.1755193468e+01    0.4448711    0.1399474 -30.12  0.001822367    2.732    0.634
        16 -10.7565     80.8685     10.0454   3.9168870339e+01   6.1355876716e+01    0.2654673    0.1746176  44.70 0.0009385685    1.525    0.344
        17 -11.1298    123.1214      7.1406   2.7727408890e+01   5.2671199320e+01    0.2199147    0.1673112  28.68 0.0006091491    1.216    0.178
        18 -10.7808    118.8467      6.8291   2.8457963836e+01   5.3684089666e+01    0.1750022    0.1620904 -53.44 0.0005100572    1.314    0.239
        19  -9.8442    234.3237      5.3184   1.2872943160e+01   2.5401496730e+01     0.204324    0.1241627  72.70  0.001068437    1.620    0.383
        20 -11.2993    229.8895      2.4871   1.2528802648e+01   2.6729768843e+01    0.3428138    0.1810937 -56.50  0.001015558    1.881    0.468
        21  -9.3190    181.3232      4.3274   1.7819592961e+01   3.8554887537e+01    0.1458577     0.094324  36.95 0.0007048917    1.692    0.409
        22 -10.9069    158.6463      2.8487   2.0256449510e+01   4.4401724898e+01     0.323054    0.2134248  13.80   0.00161494    1.739    0.425
        23 -10.0189    236.7827      2.3478   1.1944733690e+01   2.5125329191e+01    0.1641344    0.1162786 -75.06 0.0001917338    1.356    0.263
        24 -10.4926    240.0588      1.4846   1.1484252579e+01   2.4452545669e+01    0.2346439    0.1509318  71.51 0.0003699097    1.541    0.351
        25 -10.1298    126.4209      2.2303   2.5174965809e+01   5.2307651833e+01    0.1797393     0.118583 -29.83 0.0006602477    1.607    0.378
        26 -11.0871    215.6681    175.0625   5.8827259264e+01   4.0663092497e+00    0.2131762    0.1713622 -46.98  0.001184903    1.496    0.332
        27 -12.0197    176.3031    172.0364   6.5720439547e+01   1.2243201385e+01    0.4998246    0.2423788 -32.21   0.00200531    2.513    0.602
        28 -14.2339      4.5530    166.9448   1.0028572401e+02   3.8697637309e+01    0.8236783    0.3949661 -78.13   0.00504363    1.549    0.355
        29 -13.2086     18.8778    158.2894   9.6744011739e+01   3.9303763339e+01     1.077542    0.4669281  88.36  0.005238425    2.452    0.592
        30 -10.8356    200.3487    164.6681   5.9480686120e+01   8.7504333594e+00    0.2524653    0.1347231 -46.89 0.0008618491    2.148    0.534
        31  -9.9857    207.9403    161.7739   5.7411026966e+01   7.7187066664e+00    0.2193575     0.171526  77.95  0.001075081    1.975    0.494
        32 -13.4367     66.3669    143.1414   8.4400134716e+01   3.7484944563e+01     1.419752    0.9085262  48.96  0.005953468    1.686    0.407
        33 -13.8260     35.9959    152.9592   9.2599375647e+01   3.8816440106e+01    0.5377395    0.4498567 -83.46  0.001661858    1.112    0.101
        34 -13.9623     43.6185    149.6909   9.0532793828e+01   3.8734383233e+01    0.7622537    0.4934463 -83.51  0.002512926    1.353    0.261
        35 -13.7791     49.8042    147.3135   8.8832516834e+01   3.8574743964e+01    0.7524158    0.4381509 -79.15  0.001851716    1.579    0.367
        36 -13.2652    191.4440    154.0729   5.8871453551e+01   1.2422733310e+01    0.7186981    0.5015053  49.59  0.003509376    1.494    0.331
        37 -10.4878    211.5736    150.2456   5.4130760114e+01   8.9232294259e+00     0.273199    0.1328271 -39.11 0.0008147956    2.016    0.504
        38 -11.5266    172.9764    150.2065   6.1735452203e+01   1.6993858982e+01    0.2650384    0.2151924 -38.99 0.0006398372    1.226    0.184
        39 -11.4500    133.6231    144.7530   6.9068136263e+01   2.6087883364e+01    0.9339574    0.2290669 -52.71  0.002406396    5.105    0.804
        40 -10.2678    132.3840    138.2283   6.7913855611e+01   2.7733433510e+01    0.3207784    0.1363396 -47.40 0.0009372418    2.263    0.558
        41  -9.5994     86.2999    146.2521   8.0279791773e+01   3.3959427548e+01    0.1223327    0.1044833 -29.56 0.0002350628    1.498    0.332
        42 -10.0273    143.0000    144.9642   6.7010889128e+01   2.4200309206e+01    0.2440078   0.08216608 -46.39 0.0007979115    2.911    0.656
        43 -11.7454    178.0014    140.0209   5.8328733032e+01   1.7891688899e+01    0.3492093    0.2021002  61.83  0.001365982    2.369    0.578
        44 -11.4481    136.0673    129.6930   6.5080925336e+01   2.8847392293e+01     1.082775    0.1968385 -48.89  0.002430142    6.135    0.837
        45 -11.0279    134.9715    120.7043   6.3129381808e+01   3.1010498112e+01     0.534946    0.2000592 -47.08  0.001464378    2.565    0.610
        46 -11.2567    135.0314     99.4589   5.7393156106e+01   3.5517714950e+01    0.3480076    0.2860196 -66.26 0.0006340357    1.396    0.284
        47 -11.5634    134.7678    111.4925   6.0785992767e+01   3.3032166615e+01    0.6942909    0.2836663 -40.51  0.002431248    2.384    0.580
        48 -11.6054    134.5419    105.1920   5.9127322632e+01   3.4419052597e+01    0.5669727    0.3169117 -46.76  0.002330496    1.711    0.416
        49 -11.9322    211.5005    133.8011   5.0226362368e+01   1.1771647389e+01    0.4987565    0.2657984 -28.57  0.002050385    1.893    0.472
        50 -13.2449    200.7925    130.9254   5.1540844416e+01   1.4616110261e+01    0.5987615    0.5319277 -24.69  0.002285043    1.063    0.059
        51 -13.2511    197.4957    127.4985   5.1319623220e+01   1.5969648691e+01    0.6490762     0.487199  11.62  0.002662512    1.589    0.371
        52 -11.7095    216.9912    129.9440   4.8267275417e+01   1.1254495697e+01    0.2280086    0.2098327  -9.77  0.000332531    1.018    0.018
        53 -12.2827    161.2065    128.3594   5.9059470621e+01   2.3844658601e+01    0.4757426    0.4369602   8.49   0.00176414    1.152    0.132
        54 -10.8207    223.5083    126.0267   4.6129685017e+01   1.0516535769e+01    0.2811298    0.1395415 -28.21 0.0003749475    1.987    0.497
        55  -9.3548     93.2823    128.2489   7.5105562438e+01   3.6982980672e+01     0.128893    0.1074478 -26.03 0.0002694202    1.463    0.316
        56 -12.9835    214.7823    124.0837   4.7201482416e+01   1.2747789047e+01    0.6527082    0.4252024  48.24  0.003011507    1.628    0.386
        57 -11.7884    172.5097    124.0489   5.5525396022e+01   2.2217301053e+01    0.4491375    0.2883932 -67.73  0.001713446    2.515    0.602
        58 -12.5394    167.0731    115.9645   5.4577807132e+01   2.5043411950e+01    0.6072854    0.4727896  19.95  0.002838976    1.515    0.340
        59 -12.6341    204.4039    117.8054   4.7509039369e+01   1.6174493694e+01    0.6900173    0.3972179  16.43  0.002168829    3.216    0.689
        60 -12.8389    199.3526    116.8722   4.8224208796e+01   1.7492174410e+01    0.6419846     0.419302  -4.68  0.002587554    2.159    0.537
        61 -13.0624    205.5141    110.2626   4.5317068068e+01   1.7267338836e+01    0.8133903    0.4809958  47.81  0.003476702    1.775    0.437
        62 -12.1335    200.4153    105.7190   4.5047273629e+01   1.9262557873e+01    0.4138583     0.322508  33.59 0.0005944118    1.378    0.275
        63 -10.9335    218.7123    117.3996   4.4793824355e+01   1.3032567021e+01    0.2854294    0.2214279 -62.02 0.0008882175    1.644    0.392
        64 -10.8599    125.2704    113.3725   6.3600746645e+01   3.4562156402e+01     0.406809    0.2479628 -29.94   0.00154553    1.972    0.493
        65 -12.5306    127.0679    105.4980   6.1052158427e+01   3.5904944750e+01    0.6959086    0.4448221 -58.06  0.002994991    1.757    0.431
        66 -12.6653    119.4754    102.2586   6.2076159937e+01   3.8126834021e+01    0.5238773    0.3849171 -71.98  0.002397193    1.763    0.433
        67 -11.1186    113.3243    104.8306   6.4360544369e+01   3.8758029220e+01    0.3764344    0.2797305 -16.03  0.001755842    1.737    0.424
        68  -9.9336    170.9918    203.7673   7.2584582489e+01   7.8061834684e+00     0.210056    0.1366969 -86.77 0.0006532424    3.561    0.719
        69 -11.4894    149.0389    103.9337   5.5328187445e+01   3.1532371095e+01    0.3475699    0.3212453 -10.83 0.0006122079    1.107    0.097
        70 -12.7828    197.6039     97.6211   4.3349322309e+01   2.1373436023e+01    0.8462353    0.4778675 -43.13  0.003379081    1.737    0.424
        71 -12.8865    158.9141     99.1287   5.1712144875e+01   3.0254746659e+01     1.071454    0.4618113  45.48   0.00210693    2.442    0.590
        72 -13.6246    175.1029     92.3555   4.6269391174e+01   2.7730876415e+01     1.257965    0.5457943  47.17  0.004471947    2.395    0.583
        73 -13.0195    123.2487     93.0904   5.8491301440e+01   3.9316003233e+01    0.7608891    0.4874151 -48.92  0.003388939    1.521    0.343
        74 -12.7191    118.0041     94.4894   6.0253894538e+01   4.0080956891e+01    0.6884719    0.4160968 -52.89  0.002769515    1.708    0.414
        75 -11.7887    142.8791     94.3557   5.4015931679e+01   3.4849226799e+01    0.3414567    0.3020081 -63.41 0.0006113476    1.242    0.195
        76 -12.8666    158.2251     90.6311   4.9376195892e+01   3.2068835117e+01    0.3936057    0.3032526 -24.09  0.001491233    1.317    0.240
        77 -14.8380    175.5896     79.7926   4.2436558349e+01   2.9886665730e+01     1.376146     1.134487   8.78  0.002362919    1.367    0.268
        78 -12.1110    130.2107     86.6257   5.4783027326e+01   3.9178551291e+01    0.3211727    0.2291088  41.03  0.001182109    1.503    0.334
        79 -11.7088    113.5033     95.0342   6.1589511452e+01   4.0847978165e+01    0.5870317     0.385793  10.71  0.001872266    2.544    0.607
        80  -9.8406    126.4541     71.4930   5.0902538940e+01   4.2927343789e+01    0.1535131    0.1416274 -32.79 2.776571e-05    1.059    0.056
        81 -11.3455    139.2830     63.6477   4.5134989837e+01   4.1450255011e+01    0.3026989    0.1796087 -44.01  0.001272422    1.723    0.420
        82 -11.9833    248.1624    177.7445   5.3702059232e+01  -2.2583602032e+00    0.2540309     0.238665 -30.02    0.0016475    1.392    0.282
        83 -10.8279    194.8501     56.2128   3.1778356505e+01   2.8893515901e+01    0.2993342    0.2075511 -29.85  0.000360917    1.383    0.277
        84 -11.5353    175.0388     50.4977   3.3385435631e+01   3.4765146336e+01    0.3289426    0.2744103  36.57  0.001481888    1.242    0.195
        85 -10.6675    206.1201     48.6382   2.7805993923e+01   2.7139807699e+01    0.4439417    0.2713925 -18.95  0.001303361    1.779    0.438
        86 -11.7357    191.5345     44.6458   2.8802076866e+01   3.1387013635e+01    0.4383851    0.2359066 -36.09 0.0009376731    1.756    0.431
        87 -11.0689    160.1928     37.5455   3.1809172209e+01   4.0317807079e+01    0.2733728    0.1984546 -24.13 0.0006604441    1.366    0.268
        88 -11.8771    124.2319     37.3778   3.9275219971e+01   4.9007618975e+01    0.2861145    0.2340033 -38.39 0.0008162761    1.291    0.226
        89 -11.1918    189.9968     35.5682   2.6258944038e+01   3.2975572881e+01    0.2718593     0.202686 -27.08 0.0005379393    1.327    0.246
        90 -10.3706    113.6332     36.7042   4.1619181053e+01   5.1451859090e+01    0.1538034    0.1016804  19.02 0.0007030196    1.722    0.419
        91 -11.5910    248.8147    203.0039   5.8628618957e+01  -5.6336068681e+00    0.2648162    0.1780978  45.86  0.001552977    1.706    0.414
        92 -10.7632    159.7757     27.0923   2.8322997821e+01   4.1715557880e+01    0.3032081    0.2142346 -21.30 0.0005704574    1.431    0.301
        93 -12.0849    192.4338    194.5589   6.6964521743e+01   5.3732191725e+00    0.9826292    0.4882641 -60.74  0.002915101    6.564    0.848
        94 -10.9790    152.1439     26.5452   2.9480202477e+01   4.3692703265e+01    0.5186231    0.0495842  54.93  0.001301813    5.262    0.810
        95 -10.8772    144.0050     20.4619   2.8796932427e+01   4.6383504631e+01    0.2607836    0.1886528   4.14 0.0004693565    1.489    0.328
        96 -10.2197    231.5090     19.4471   1.6706750287e+01   2.4553970239e+01    0.2525069    0.1256737 -27.91 0.0008142419    1.928    0.481
        97  -9.9611    189.8277     15.1630   2.0075875686e+01   3.5359300647e+01    0.2157148    0.1786862 -63.63 0.0008192639    1.247    0.198
        98  -9.5742    154.6847     15.6689   2.5241616384e+01   4.4229830536e+01    0.1525241   0.09771834  30.88 0.0003767437    1.682    0.405
        99 -11.5247    125.9870     14.7266   3.0135279596e+01   5.1295371808e+01    0.1992627    0.1742813  38.27 0.0004792706    1.076    0.070
       100 -10.4558    238.1830     12.9310   1.4441381697e+01   2.3698225163e+01    0.2097445    0.1732899 -84.76 0.0005595112    1.170    0.145
       101 -12.9629    210.6536    186.6453   6.2093552694e+01   3.2271305273e+00     0.770672    0.5356791  43.05  0.004222082    1.399    0.285
       102 -11.1176    228.7776    186.9467   5.8911210941e+01  -1.1576882501e-01    0.2163076    0.1729605  29.11 0.0003958366    1.161    0.139
       103 -12.2251    245.6501    184.7312   5.5563436538e+01  -2.7689571216e+00    0.3194815    0.2319279  55.42  0.001777045    1.920    0.479
       104 -12.5354    203.8682     31.1495   2.3024214968e+01   2.9995034933e+01    0.3895806    0.2866728  36.31 0.0006892135    1.544    0.352
       105 -14.6646    196.3598     83.3741   3.9538649373e+01   2.4160941207e+01     2.472241     0.995313  39.18  0.007649467    3.448    0.710
       106 -11.1358    244.7784    248.3919   6.7136189132e+01  -9.9822645996e+00    0.1624579   0.07858046  31.39 0.0009511393    1.660    0.397
       107 -11.4863    242.8122    231.0636   6.4641285127e+01  -7.9182559334e+00    0.1636903    0.1435235  17.60 0.0005572455    1.282    0.220
       108 -11.2935    183.7988    211.9945   7.1595918700e+01   4.2579293880e+00    0.3241419    0.1523055  30.95  0.001416144    2.489    0.598
       109 -11.7483    225.4053    204.3579   6.2853587526e+01  -1.9126284318e+00    0.6393661    0.3651765   6.35  0.002987706    2.480    0.597
       110 -13.0587    232.5768    207.6038   6.2219431095e+01  -3.5426066375e+00    0.6391198    0.3799458  15.97  0.003388242    1.838    0.456
       111 -14.7647    249.0502     61.0968   2.5530465384e+01   1.5094967207e+01     1.035173    0.5690209 -27.54  0.002607108    1.693    0.409
       112 -12.4024    231.5631    200.4976   6.1066550605e+01  -2.4530173260e+00    0.4765146    0.2634307 -42.75   0.00240945    2.267    0.559
       113 -13.2351    234.1841    196.5318   5.9857160066e+01  -2.3760042604e+00    0.5911086    0.3905947  55.03   0.00315059    2.066    0.516
       114 -10.5953    188.1616    174.8883   6.3969782267e+01   9.4147666553e+00    0.2079166     0.198202  81.18  0.001237717    1.243    0.196
