#   1 NUMBER                 Running object number                                     
#   2 MAG_AUTO               Kron-like elliptical aperture magnitude                    [mag]
#   3 X_IMAGE                Object position along x                                    [pixel]
#   4 Y_IMAGE                Object position along y                                    [pixel]
#   5 X_WORLD                Barycenter position along world x axis                     [deg]
#   6 Y_WORLD                Barycenter position along world y axis                     [deg]
#   7 A_WORLD                Profile RMS along major axis (world units)                 [deg]
#   8 B_WORLD                Profile RMS along minor axis (world units)                 [deg]
#   9 THETA_WORLD            Position angle (CCW/world-x)                               [deg]
#  10 FWHM_WORLD             FWHM assuming a gaussian core                              [deg]
#  11 ELONGATION             A_IMAGE/B_IMAGE                                           
#  12 ELLIPTICITY            1 - B_IMAGE/A_IMAGE                                       
         1 -12.8481    199.6053     34.2838   6.1158050839e+01   3.1703265047e+01    0.9841541    0.9466716 -42.81  0.006777229    1.342    0.255
         2 -13.6426    215.9978     17.5821   5.5903589540e+01   3.0138703327e+01     1.114511    0.8835341  42.58  0.007284454    1.844    0.458
         3 -10.6617      2.1627     12.1619   1.0680797740e+02   7.0920842781e+01    0.2407411   0.06839115 -44.96  0.001114711    3.702    0.730
         4 -11.8334    102.8581    243.9873   1.2612632363e+02   8.6985737266e+00     0.330307    0.2829657  56.10  0.002037102    1.024    0.023
         5 -11.4194    139.6418    249.0735   1.1906977135e+02   1.7497063021e+00    0.3197771    0.3028882  87.44  0.002064444    1.170    0.145
         6 -13.6748     12.4633    245.5170   1.4403249813e+02   2.0516335545e+01     15.67666     7.503208 -79.52   0.08943213    1.796    0.443
         7 -13.9893     10.1550    206.8751   1.4169934133e+02   2.9201286837e+01      2.89915     1.080808 -83.14   0.01268819    2.555    0.609
         8 -13.8806     43.8814    205.6010   1.3438150148e+02   2.5811292816e+01     2.392361     1.135917  53.95   0.01050619    2.129    0.530
         9 -11.3526    162.6668    248.9479   1.1424904492e+02  -1.9748972245e+00    0.3798333    0.2653298   5.78  0.001983539    1.829    0.453
        10 -14.8866     28.6255    184.7449   1.3555683620e+02   3.2584363959e+01     8.434743     3.253665  84.53 0.0009119026    6.743    0.852
        11  -8.3125     95.4962    219.4936   1.2450459828e+02   1.5173600556e+01    0.1403145    0.1260761  71.03 -4.194323e-05    1.000    0.000
        12 -10.1092     56.7175    240.4182   1.3524207011e+02   1.6247933716e+01    0.2148349    0.1724698  70.14 0.0006748832    1.025    0.025
        13 -10.7160    225.2767    199.8172   9.2875507554e+01  -3.2075462834e+00    0.4211696     0.257704 -57.79 0.0008198434    2.283    0.562
        14 -13.7804     34.6388    215.9635   1.3742929988e+02   2.4496550250e+01    0.9468012    0.7310542  71.86  0.002829232    1.114    0.103
        15 -11.4105     56.9922    191.8181   1.2970273332e+02   2.7472451663e+01    0.3869971    0.2583067 -44.08  0.001218077    1.797    0.444
        16  -8.3129    181.5018    192.4846   1.0027482058e+02   5.8220079257e+00    0.1454956    0.1395265 -12.78 -7.014669e-05    1.006    0.006
        17 -11.5208     63.3476    184.4514   1.2714185373e+02   2.8436756655e+01    0.3175865    0.2560002 -44.84 0.0007187292    1.406    0.289
        18 -10.9931     89.7712    245.7533   1.2906797096e+02   1.0363403932e+01    0.2462491    0.1901743  61.34  0.001110139    1.143    0.125
        19 -10.6538     74.0056    172.7940   1.2263481935e+02   2.9839129803e+01    0.2774459    0.2305387 -55.46 0.0004008299    1.183    0.154
        20 -12.9773     60.5034    170.1315   1.2571652364e+02   3.2418469126e+01    0.5694085    0.2924984 -44.61  0.001493576    2.215    0.548
        21 -11.6377     82.1685    164.3776   1.1902312561e+02   3.0722125137e+01    0.6746466    0.5906527  56.29  0.003658834    1.178    0.151
        22 -10.2826    140.1982    230.6044   1.1619071620e+02   5.2787754621e+00    0.2035786    0.1263795  28.51 0.0009550652    1.715    0.417
        23 -12.2839     67.4792    143.9657   1.1924733079e+02   3.8061185803e+01    0.7469438    0.5465317  72.48  0.002799139    1.681    0.405
        24 -11.7411     83.9851    147.9832   1.1537376623e+02   3.4566136237e+01     0.322344    0.2561085 -44.30 0.0004964555    1.255    0.203
        25  -8.7749     98.8442    145.2349   1.1065863893e+02   3.2747996902e+01    0.2044874    0.1777769 -21.64 0.0004250354    1.308    0.236
        26  -9.6545     95.6355    149.3298   1.1241708689e+02   3.2291111551e+01     0.285517    0.2611417 -36.58 0.0007655457    1.145    0.126
        27  -9.3011    108.3162    135.1894   1.0577608574e+02   3.3473756865e+01    0.3271945    0.2448057  -5.68  0.001435247    1.890    0.471
        28  -9.5595     68.6774    134.9544   1.1709230347e+02   4.0129268988e+01    0.2100691    0.1756765 -57.32 0.0004168105    1.090    0.082
        29 -10.3120     95.1820    132.1070   1.0875097985e+02   3.6604069599e+01    0.2817812    0.2341697 -27.03 0.0004516386    1.320    0.242
        30  -8.9897    105.8723    122.4798   1.0340178543e+02   3.6942085681e+01    0.2079974    0.1525582  39.19 0.0003110327    1.415    0.293
        31 -10.7618     53.6216    118.5800   1.1819259726e+02   4.6099418808e+01    0.3601399    0.1316244 -62.30   0.00126522    2.926    0.658
        32  -9.6733    167.7438    112.8930   8.5472175311e+01   2.5918599934e+01     0.344378    0.2511104 -65.08  0.001111275    1.534    0.348
        33  -8.6513    203.4788    111.5080   7.8165991856e+01   1.8280543972e+01    0.1452789    0.1356876 -53.54 2.393011e-05    1.076    0.071
        34 -12.5014     28.2841    223.6851   1.3942491229e+02   2.3476433071e+01     0.344843    0.3046335 -52.91 0.0008103572    1.502    0.334
        35 -10.5537     12.7164     60.8783   1.1860031883e+02   6.2369272606e+01    0.2058063    0.1132656 -38.20  0.001203186    1.453    0.312
        36 -11.9232    177.9875    246.7618   1.1074832268e+02  -4.0449970767e+00    0.6199687    0.1984546  44.50  0.002238479    3.342    0.701
        37 -11.8184    126.3002    248.8051   1.2182901754e+02   3.9745085021e+00    0.4549576    0.3312054 -75.03  0.002527343    1.664    0.399
        38 -11.0920     19.0720     26.5422   1.0458137927e+02   6.7479832810e+01    0.3440457    0.1953362  40.21  0.001788695    2.541    0.607
        39 -10.3764      2.0000     27.4906   1.1279172486e+02   6.8776354638e+01    0.2276761   0.05061544 -48.75 0.0009373763    3.956    0.747
