#   1 NUMBER                 Running object number                                     
#   2 MAG_AUTO               Kron-like elliptical aperture magnitude                    [mag]
#   3 X_IMAGE                Object position along x                                    [pixel]
#   4 Y_IMAGE                Object position along y                                    [pixel]
#   5 X_WORLD                Barycenter position along world x axis                     [deg]
#   6 Y_WORLD                Barycenter position along world y axis                     [deg]
#   7 A_WORLD                Profile RMS along major axis (world units)                 [deg]
#   8 B_WORLD                Profile RMS along minor axis (world units)                 [deg]
#   9 THETA_WORLD            Position angle (CCW/world-x)                               [deg]
#  10 FWHM_WORLD             FWHM assuming a gaussian core                              [deg]
#  11 ELONGATION             A_IMAGE/B_IMAGE                                           
#  12 ELLIPTICITY            1 - B_IMAGE/A_IMAGE                                       
         1 -16.0579    244.3844     87.4914   7.3569914544e+01   1.3591857800e+01     7.675763     1.287661 -31.79   0.02251045    4.791    0.791
         2 -11.4913    237.9761    158.4413   8.9699598862e+01   4.9651982047e+00    0.2608112     0.147836 -35.03  0.001014642    1.706    0.414
         3  -9.4672    197.5211    247.5073   1.1153823729e+02  -5.2074895202e-01    0.1120878   0.08004991  20.05 0.0001960845    1.092    0.084
         4  -8.8810    219.3306    245.6674   1.0746632669e+02  -2.9467793183e+00   0.09443824   0.07587155  31.94   0.00044253    1.723    0.420
         5  -9.4213    246.9227    245.0000   1.0284290692e+02  -5.9619880275e+00    0.1552675   0.04456429  31.92 0.0007848866    2.822    0.646
         6  -9.3920    178.2945    243.6630   1.1458460295e+02   2.3643460471e+00    0.1037749   0.07887047  43.35 0.0003418619    1.648    0.393
         7  -9.0114    199.6515    237.3374   1.0977789533e+02   3.6174561955e-01    0.1032026   0.08070134  41.77 0.0007046931    1.784    0.440
         8 -10.1572    219.8913    233.8071   1.0568801719e+02  -1.7642536843e+00    0.2195641    0.1562013  46.08  0.001411187    2.392    0.582
         9  -9.6368    241.2646    232.9889   1.0199730477e+02  -4.1876183025e+00    0.1338131    0.1000759  27.95 0.0006507561    1.616    0.381
        10  -9.2538    213.4908    233.5015   1.0675846298e+02  -9.4434029691e-01     0.114159   0.08179516  13.61 -6.59514e-05    1.037    0.036
        11  -9.9945    235.5956    231.8597   1.0275343651e+02  -3.4244519924e+00    0.1729828    0.1224675 -31.02  0.001222198    1.855    0.461
        12  -9.9422    195.4685    232.0156   1.0979911952e+02   1.5293616898e+00    0.1538348    0.1067376 -27.22  0.001040719    1.624    0.384
        13  -9.9004    230.1631    228.4238   1.0314173419e+02  -2.4255566754e+00    0.1444252    0.0857695  33.58 0.0008060405    1.667    0.400
        14  -9.6970    211.4902    228.0232   1.0631056375e+02  -7.3233925566e-02    0.1496983    0.1016731 -24.44 0.0007989844    1.565    0.361
        15  -9.4942    247.4884    227.4940   1.0017339151e+02  -4.3402930410e+00    0.1095199    0.0747188   5.75 0.0001784951    1.008    0.007
        16  -9.1119    162.3291    227.6606   1.1561738867e+02   6.6186758125e+00    0.1165703   0.08459356  50.16  0.000705174    1.737    0.424
        17  -9.8537    218.1949    225.2304   1.0471021413e+02  -6.0424859435e-01      0.14322    0.1170637  18.41  0.000652715    1.359    0.264
        18 -10.2161    237.6594    222.1760   1.0094146127e+02  -2.6555215050e+00    0.1496966    0.1092345  13.54 0.0008138285    1.162    0.139
        19 -10.6667    224.0915    221.6318   1.0313815451e+02  -9.3891071181e-01    0.1918199     0.166854  43.81   0.00137408    2.026    0.506
        20  -9.6190    246.4225    221.1930   9.9370703876e+01  -3.5794340538e+00    0.1334644   0.08977043 -28.61 0.0009416341    1.724    0.420
        21  -9.7746    194.6816    221.3000   1.0838980158e+02   2.9603598376e+00    0.1064278   0.08589499  40.96 0.0007022091    1.619    0.382
        22 -10.1474    211.0058    218.5255   1.0496044327e+02   1.1070104148e+00    0.1899404    0.1605837 -33.25  0.001203898    1.702    0.413
        23 -10.4763    248.9031    217.1317   9.8338117607e+01  -3.4458443274e+00    0.1565892    0.1228957   9.58 0.0009496076    1.313    0.238
        24 -10.6583    234.0860    216.5938   1.0065741262e+02  -1.6184776609e+00    0.1743584    0.1345437 -13.33 0.0009364111    1.332    0.249
        25 -10.4122    249.6288    213.0812   9.7576532117e+01  -3.1066412552e+00    0.1836996    0.1338275  29.50  0.001283873    1.599    0.375
        26  -9.8635    170.2911    213.6546   1.1203947028e+02   7.4698370675e+00    0.1141496    0.0926805  52.22 0.0007027127    1.660    0.397
        27 -10.7330    242.1653    210.6731   9.8379337034e+01  -1.9564135663e+00    0.2671214    0.2105981 -48.50  0.001739763    2.655    0.623
        28 -10.9621    237.3503    205.0856   9.8249074469e+01  -7.3296132409e-01    0.3383105    0.2846574  71.15  0.001979645    3.478    0.712
        29 -11.3376    217.9859    209.7768   1.0233040336e+02   1.2369034395e+00    0.3430506    0.1600818 -33.98    0.0018727    2.257    0.557
        30 -11.3774    231.8083    210.8012   1.0011051637e+02  -6.8353987093e-01    0.2714087    0.1900951  56.53  0.001390139    3.940    0.746
        31 -10.7433    232.9359    206.4436   9.9208298582e+01  -3.2635425218e-01    0.2189988    0.1846407  84.18  0.001179261    4.098    0.756
        32 -10.9875    225.7499    209.1027   1.0086577134e+02   2.9250766158e-01    0.2539026    0.1364878 -38.30  0.001457052    2.277    0.561
        33  -9.4174    240.2951    195.6712   9.6175565871e+01  -2.1221315949e-02     0.144015    0.1067344 -29.84 0.0006041605    1.577    0.366
        34 -10.5807    245.3941    203.1981   9.6628224850e+01  -1.5263039193e+00    0.2144757    0.1670955 -22.92  0.001058863    1.495    0.331
        35 -10.5241    243.4874    198.4915   9.6140994922e+01  -7.5654906225e-01    0.2611668    0.1757774 -36.71  0.001623283    1.922    0.480
        36  -9.4223    123.9827    206.0348   1.2102227981e+02   1.5685389880e+01    0.1575228    0.1223113  33.69 0.0009437264    1.040    0.039
        37  -9.9325    249.9267    202.1208   9.5730067259e+01  -1.9625805425e+00    0.1584937    0.1273926  -4.56 0.0007103146    1.288    0.224
        38 -10.5329    248.3205    208.2424   9.6997263318e+01  -2.4356012206e+00    0.2108597    0.1687685  -5.28 0.0008941743    1.311    0.237
        39 -10.8170    237.8135    199.6816   9.7266470032e+01  -1.6863814903e-01    0.3685708    0.2103069 -44.77  0.001976208    2.970    0.663
        40 -10.7788    230.0513    200.3833   9.8682960834e+01   7.6396534410e-01    0.2553069    0.1732401  25.11   0.00111192    1.305    0.234
        41  -9.7290    210.2979    200.4525   1.0217702934e+02   3.4691511276e+00    0.1748113    0.1471896 -42.23  0.001140857    1.769    0.435
        42  -9.5259    186.3645    201.1991   1.0686601239e+02   6.8743099249e+00    0.1563037    0.1179029 -41.69 0.0009503211    1.686    0.407
        43 -10.7282    248.4516    196.5000   9.5011182943e+01  -1.1545963084e+00     0.257969    0.2326564 -64.56  0.001746998    2.610    0.617
        44 -10.5389    246.2744    193.0118   9.4755270744e+01  -4.8151461881e-01    0.2373698    0.1418937 -27.65 0.0009476984    1.571    0.363
        45 -10.1592    224.4968    198.0025   9.9231899267e+01   1.8019730234e+00    0.1678526    0.1037371 -26.59 0.0009076038    1.565    0.361
        46  -9.3934    215.6665    196.5354   1.0053986800e+02   3.2164541787e+00     0.173313    0.1445533 -40.46 0.0008836049    1.745    0.427
        47  -9.4958    201.9889    197.5195   1.0322715847e+02   5.0617077926e+00     0.160222    0.1009544  51.24 0.0008090123    2.503    0.601
        48  -9.2420    195.6714    196.3211   1.0423185383e+02   6.1678927312e+00    0.1124148   0.09870758  51.66 0.0007048392    1.690    0.408
        49  -9.1665    209.3436    195.3037   1.0147820204e+02   4.2855276084e+00    0.1309199   0.07966007   6.50 0.0007040309    1.684    0.406
        50 -10.6349    243.6077    187.6796   9.4247291657e+01   4.8875653116e-01    0.2816471    0.1729016 -37.39  0.001372966    1.946    0.486
        51  -9.4067    225.6585    193.7352   9.8296485585e+01   2.1741894049e+00     0.124074    0.0747099   7.94 0.0004156895    1.598    0.374
        52  -9.9841    241.8237    192.1673   9.5321369077e+01   1.9151714516e-01    0.1642603    0.1397686  -5.37 0.0009136686    1.344    0.256
        53 -10.0667    232.8031    191.7212   9.6729009233e+01   1.4453891438e+00    0.1827628    0.1471683 -43.40 0.0007954118    1.958    0.489
        54 -10.8028    227.3095    190.4091   9.7430964667e+01   2.3631545990e+00     0.269665    0.2214555 -74.91  0.001470055    3.342    0.701
        55  -9.5236    206.1478    191.1446   1.0135037737e+02   5.3196910438e+00    0.1575498    0.1416785  20.11 0.0006830283    1.347    0.258
        56 -10.4880    237.3851    188.9520   9.5481431420e+01   1.1642843350e+00    0.1938837    0.1543177  31.80 0.0008232497    1.518    0.341
        57  -9.4217    210.5239    189.0172   1.0016625988e+02   4.9598267130e+00    0.1459777     0.109849 -55.58 0.0008082441    2.407    0.585
        58 -10.2675    241.4398    174.0296   9.2121437370e+01   2.4501657588e+00    0.2465052    0.1010875 -31.65 0.0008305815    2.212    0.548
        59 -11.0706    248.1240    184.8336   9.3027597589e+01   2.3330616603e-01    0.3636768    0.1979932 -43.46  0.001923445    2.807    0.644
        60 -11.7683    242.5089    180.8591   9.3202726318e+01   1.4576164799e+00      0.40729    0.2775327 -39.72  0.002254921    1.908    0.476
        61 -10.2436    229.6219    186.6638   9.6372601852e+01   2.5131953763e+00    0.2124806    0.1648838 -32.50 0.0008900848    1.556    0.357
        62  -9.2924    216.2851    187.6451   9.8876768665e+01   4.2956276405e+00    0.1035541    0.1006852 -39.98 0.0005194965    1.668    0.400
        63  -9.7856    233.5312    185.5204   9.5510070587e+01   2.1127481789e+00    0.1904729    0.1014836 -39.22 0.0009299963    2.209    0.547
        64  -9.9610    224.7068    183.7674   9.6695507739e+01   3.5834358616e+00    0.2076312    0.1391625 -47.67  0.001148784    2.356    0.576
        65  -9.6490    210.4157    184.1600   9.9318802893e+01   5.6429996171e+00    0.1628547    0.1133402 -39.97 0.0009443612    1.746    0.427
        66 -11.1521    249.3557    177.0229   9.1428302322e+01   1.0002891117e+00    0.3206649    0.1993673 -42.82  0.001473267    2.272    0.560
        67 -11.2477    235.5396    181.7257   9.4492830639e+01   2.3087820227e+00    0.2143592    0.1819212 -17.11  0.001143083    1.344    0.256
        68  -9.4222    229.2727    182.6285   9.5706142198e+01   3.0767072898e+00    0.1049633   0.09416863 -38.01 0.0005440307    1.679    0.404
        69  -9.2879    213.6701    181.3489   9.8213420407e+01   5.5390676432e+00    0.1084101    0.1044119  86.89 0.0007048853    1.764    0.433
        70  -9.7349    226.0023    179.3355   9.5664026830e+01   3.9762552264e+00    0.1718724    0.1354225   8.57 0.0005890583    1.063    0.059
        71 -10.9891    233.1125    174.7353   9.3609894132e+01   3.5443404143e+00     0.206128    0.1447576 -30.36  0.001050706    1.448    0.310
        72 -11.0533    249.2612    168.7873   8.9920118257e+01   2.0155327586e+00    0.3753824    0.1571004 -39.37  0.001640455    2.675    0.626
        73 -10.9478    244.4851    169.4504   9.0784213159e+01   2.5975491280e+00    0.2304807    0.1006842 -31.41  0.001034782    2.046    0.511
        74  -9.0705    227.2944    170.6576   9.3821335502e+01   4.9398032620e+00    0.1084371   0.09874713 -45.07 0.0004605813    1.660    0.398
        75  -9.2599    217.2954    167.6682   9.4989029755e+01   6.8924452695e+00    0.1109656    0.1037174 -54.39 0.0007026627    1.638    0.390
        76 -10.3829    234.4140    164.6739   9.1487435486e+01   4.6725119631e+00    0.2264707    0.1040432 -35.33  0.001121064    2.081    0.519
        77 -13.4793    246.6408    155.2944   8.7734960655e+01   4.0892475873e+00    0.9968993    0.5151526 -43.54  0.005006319    2.477    0.596
        78  -9.9766    233.6359    247.1880   1.0528627373e+02  -4.7262361094e+00    0.1740668    0.1091883  24.74 0.0008230405    1.328    0.247
        79 -10.8215    226.7225    157.0030   9.1258908310e+01   6.9013937899e+00    0.1845351    0.1418354 -17.22 0.0005859053    1.137    0.120
