#   1 NUMBER                 Running object number                                     
#   2 MAG_AUTO               Kron-like elliptical aperture magnitude                    [mag]
#   3 X_IMAGE                Object position along x                                    [pixel]
#   4 Y_IMAGE                Object position along y                                    [pixel]
#   5 X_WORLD                Barycenter position along world x axis                     [deg]
#   6 Y_WORLD                Barycenter position along world y axis                     [deg]
#   7 A_WORLD                Profile RMS along major axis (world units)                 [deg]
#   8 B_WORLD                Profile RMS along minor axis (world units)                 [deg]
#   9 THETA_WORLD            Position angle (CCW/world-x)                               [deg]
#  10 FWHM_WORLD             FWHM assuming a gaussian core                              [deg]
#  11 ELONGATION             A_IMAGE/B_IMAGE                                           
#  12 ELLIPTICITY            1 - B_IMAGE/A_IMAGE                                       
         1  -7.8632     83.5015     10.9855   2.0610713004e+01   6.3060826277e+01    0.1970654    0.1078106 -50.00 0.0006364969    2.349    0.574
         2  -8.4729     55.7689      9.8697   3.0575216254e+01   6.9449846905e+01     0.230443    0.1784731 -47.30 0.0004987026    1.524    0.344
         3  -7.9770     47.5898      9.8143   3.4648750166e+01   7.1056709573e+01     0.182848    0.1205942 -43.38 0.0005306014    1.672    0.402
         4  -8.2005     90.9959      8.9749   1.7396117708e+01   6.1431151128e+01    0.2289333    0.1667182 -64.46 0.0007179365    1.709    0.415
         5  -7.6479     28.2766      9.6312   4.6550136613e+01   7.4258425362e+01    0.1189747    0.1038119 -76.32  0.000626367    1.681    0.405
         6  -8.6922     96.1582      6.8600   1.5003138984e+01   6.0339475558e+01    0.2025424    0.1888218 -78.26 0.0002688722    1.152    0.132
         7  -7.9918     70.4212      6.2118   2.2284606335e+01   6.6725125921e+01    0.1860246    0.1245658 -37.47 0.0005379081    1.604    0.376
         8  -8.3872     33.8005      5.6419   4.0062628534e+01   7.4102141263e+01    0.2375725    0.1656152 -58.91  0.001215711    2.199    0.545
         9  -8.2735     79.4457      4.0639   1.8057823661e+01   6.4819634339e+01    0.2047298    0.1346063 -24.60  0.001016823    1.578    0.366
        10  -8.3145     62.7264      1.5239   2.2274216386e+01   6.9004408447e+01     0.177891    0.1310794  70.65 0.0009340908    1.601    0.375
        11  -7.2750     39.6288      1.2901   3.3275600821e+01   7.3748826440e+01    0.1204943    0.1059727 -82.92 0.0007023239    1.719    0.418
        12  -9.2155     15.4066    247.1403   8.8197349352e+01   2.1785668111e+01    0.2145939    0.1035555  35.24 0.0005164449    1.574    0.365
        13  -9.1533    232.8423    247.2093   4.8081570773e+01  -3.9387061488e+00    0.2895564     0.187719 -36.23  0.001797808    2.240    0.554
        14  -8.1308    234.8126    242.6156   4.7144364670e+01  -3.7218429933e+00    0.1698795    0.0953346  14.96   0.00119647    1.374    0.272
        15  -9.4268    210.7910    246.1721   5.1486704395e+01  -1.3475907006e+00    0.2274231     0.189322 -52.79 0.0009418645    2.487    0.598
        16  -8.0470    125.2653    250.3571   6.7341474035e+01   8.8121851258e+00    0.1033515   0.07559387   4.68 0.0006986675    1.631    0.387
        17  -7.8006     72.3031    250.3486   7.7537715495e+01   1.5302578952e+01   0.09703988   0.07941602   2.54   0.00070402    1.695    0.410
        18 -10.0273    223.8727    243.5448   4.9001754677e+01  -2.5898840378e+00    0.3421405    0.1935295 -38.43   0.00230049    2.458    0.593
        19  -9.1436    146.9942    245.6299   6.2739875974e+01   6.6550423249e+00     0.218296    0.1488549  57.83  0.001397823    2.084    0.520
        20  -9.2865    119.9970    245.0138   6.7836063739e+01   1.0229327340e+01    0.2817163    0.1868409  72.18  0.001638979    2.374    0.579
        21  -8.5792     67.5024    245.0093   7.8129334618e+01   1.6693899753e+01     0.136946    0.1046895 -88.37 0.0006466977    1.556    0.357
        22  -9.4040    246.6475    228.6279   4.3319674748e+01  -3.6877939210e+00    0.3392147    0.1527303 -26.00  0.001718739    2.097    0.523
        23 -10.2361    248.6585    241.4153   4.4861836324e+01  -5.0991081778e+00    0.3258728    0.1544711 -25.69  0.001496921    2.031    0.508
        24  -9.1177    247.8239    234.5153   4.4002750020e+01  -4.3755432077e+00    0.1834531    0.1256224 -14.02 0.0007952986    1.342    0.255
        25  -9.1182    168.9890    242.9120   5.8348258314e+01   4.1610152830e+00    0.1713362    0.1465142   6.00 0.0006715373    1.232    0.188
        26  -8.5111     77.7365    242.9185   7.5970226361e+01   1.5823499713e+01    0.1837285   0.09475123  59.96  0.001058798    2.047    0.512
        27  -8.2755      9.5272    243.0185   8.9179741032e+01   2.3003200546e+01    0.1551782   0.04822377  63.72 0.0008099636    2.648    0.622
        28  -8.8474    193.9797    239.3071   5.3430680244e+01   1.4195826597e+00    0.1751057    0.1406941  -4.08 0.0004723327    1.258    0.205
        29  -9.2150    183.2721    240.2447   5.5438848184e+01   2.6576001721e+00    0.3382755    0.2143899  53.55  0.001948829    2.809    0.644
        30  -9.3053    160.0266    240.0727   5.9657830436e+01   5.6775562191e+00    0.2364097    0.1988157  79.90  0.001366644    2.068    0.516
        31  -7.9852    153.4570    241.9550   6.1109587822e+01   6.2934311226e+00    0.1269193   0.09768836  78.59 0.0008079408    2.448    0.592
        32  -8.1126     88.3275    242.1607   7.3811669902e+01   1.4657010457e+01    0.1390447   0.09751918  83.85 0.0006884038    1.815    0.449
        33  -8.5053    240.4946    240.0175   4.5902669918e+01  -4.0977516593e+00    0.1800568   0.08231098 -22.55  0.001148205    2.131    0.531
        34  -8.9148    242.4898    236.0397   4.5031864531e+01  -3.9399559794e+00    0.2503895    0.1231233   0.62  0.001502659    2.194    0.544
        35  -8.3041    146.1367    239.2316   6.2182730205e+01   7.6159068943e+00    0.1499687    0.1127024  44.41 0.0004566372    1.363    0.266
        36  -8.6851    135.4791    238.5139   6.4157007268e+01   9.1258398443e+00    0.1439907    0.1144851 -77.99 0.0005919913    1.939    0.484
        37  -9.4612    230.9116    236.6668   4.6923307566e+01  -2.7100533189e+00    0.2337821    0.2219469 -20.46  0.001669443    2.017    0.504
        38  -8.5970    209.0129    238.2813   5.0721281880e+01  -3.1082502415e-01    0.1501724    0.1083637  16.25 0.0004985253    1.051    0.049
        39  -7.8159    129.3130    238.6385   6.5373195385e+01   9.9241869063e+00    0.1148391   0.07494533  54.10  0.000704163    1.753    0.429
        40  -8.2799     13.6775    237.7521   8.8259470640e+01   2.3515570449e+01    0.1727152    0.0427209  39.79 0.0007617233    2.292    0.564
        41  -9.1615    216.7027    235.3771   4.9038503839e+01  -9.2454403094e-01    0.1864717    0.1602553  12.35   0.00102417    1.437    0.304
        42  -9.3793    213.8164    231.7033   4.8999125863e+01  -1.8468737902e-01    0.2241354     0.214983  29.18  0.001265469    1.834    0.455
        43  -8.9921    203.0694    234.6189   5.1226257949e+01   8.1592705321e-01    0.1924666    0.1528768 -43.48 0.0009218447    1.990    0.498
        44  -9.8568    175.7369    233.2631   5.5894649422e+01   4.4762124589e+00    0.3576407     0.219355 -53.15  0.002153147    2.679    0.627
        45  -7.8595    170.0107    235.3184   5.7214699270e+01   4.9718308015e+00    0.1610646    0.1153499  26.31 0.0004540904    1.067    0.062
        46  -9.1887    109.2313    234.3865   6.8935495455e+01   1.3205510856e+01    0.4515697    0.1640869  46.50  0.002106795    2.519    0.603
        47  -8.1655    122.9684    234.0260   6.6139115436e+01   1.1440946476e+01    0.1821041    0.1181016  55.14  0.001118618    1.738    0.425
        48  -8.2742     99.6747    234.2878   7.0862302510e+01   1.4464268702e+01    0.1918797    0.1067792  55.61  0.001096408    1.890    0.471
        49  -8.8360     78.3668    233.6341   7.5155534921e+01   1.7252081012e+01    0.2141706    0.1527788  65.46  0.001228185    1.425    0.298
        50  -8.7217    194.4709    232.4938   5.2426051939e+01   2.1395201449e+00    0.1778286    0.1039349 -33.77  0.000612772    1.963    0.491
        51  -8.2701    145.0274    232.9972   6.1671727635e+01   8.6209358652e+00    0.1818872    0.1198684  51.77  0.001120403    1.785    0.440
        52  -8.8568     68.2070    232.1072   7.7126004606e+01   1.8733003328e+01    0.3992685    0.1275928  54.74  0.001661603    3.491    0.714
        53  -9.3334    186.4832    230.6009   5.3586938140e+01   3.3951113383e+00    0.2542645    0.2195447 -77.89   0.00167518    2.344    0.573
        54  -8.6519    157.7639    231.9893   5.9095107148e+01   7.0387335177e+00     0.210921     0.118278  41.42 0.0009343768    1.615    0.381
        55  -8.0498    132.4871    232.4911   6.4077211712e+01   1.0388673248e+01    0.1190141   0.09044986  36.08 0.0001810202    1.082    0.076
        56  -9.3182    236.0407    229.8899   4.5139717897e+01  -2.6202857739e+00    0.3110276    0.1251346 -28.87  0.001504118    2.473    0.596
        57  -7.9083     92.5962    231.3177   7.2043811958e+01   1.5851539477e+01    0.1293823   0.06685278  53.40 0.0002138826    1.892    0.471
        58  -8.7420      1.6804    230.5188   9.0375767102e+01   2.5831130041e+01    0.1870804   0.08040117  62.49  0.001101325    1.764    0.433
        59 -10.0747    149.6247    225.9502   5.9914469030e+01   8.9872152409e+00    0.4868275    0.3326302  88.40  0.002433384    3.742    0.733
        60  -8.8027    140.0858    230.1390   6.2302975432e+01   9.6980615796e+00    0.2188514    0.1285218  45.50  0.000845841    1.628    0.386
        61  -8.3342    229.4899    228.0624   4.5909032990e+01  -1.6754733384e+00    0.1455986   0.09086447 -23.16  0.001026822    1.578    0.366
        62  -8.7489    162.2668    227.7528   5.7696678101e+01   6.9984553321e+00    0.2555402    0.1660005  50.98  0.001421898    1.968    0.492
        63  -8.7088    127.8897    226.9517   6.4374322974e+01   1.1841228281e+01    0.2569211    0.1755828  60.24  0.001535265    1.860    0.462
        64  -8.0912    119.8913    227.0623   6.6015031995e+01   1.2918023223e+01    0.1826692    0.1217215  66.29 0.0007395786    2.076    0.518
        65  -8.9401    205.9785    225.7185   4.9469661742e+01   1.4579230128e+00    0.1881117    0.1497272 -23.57 0.0007832071    1.467    0.318
        66  -8.1705    199.9949    226.0041   5.0548138615e+01   2.1906767737e+00    0.1451545    0.1289013  36.18 0.0004651797    1.597    0.374
        67  -8.8427     94.1029    223.8767   7.1053939243e+01   1.6892161181e+01    0.3507804    0.1559309  56.12  0.001631095    2.713    0.631
        68  -8.7662    216.4304    223.1510   4.7320980494e+01   4.3263255433e-01    0.1913207    0.1753042 -42.47 0.0008412202    1.928    0.481
        69  -8.8158    180.3741    223.9812   5.3788000493e+01   5.0325371198e+00    0.2040871    0.1541936  33.44 0.0007022153    1.273    0.214
        70  -8.5480    173.0920    223.0191   5.5011892132e+01   6.1499159055e+00    0.1841572    0.1587493 -66.77 0.0005682157    1.925    0.480
        71  -7.9904    113.6265    223.7641   6.6951174130e+01   1.4295161262e+01    0.1380336    0.1129916  89.83 0.0004546997    1.598    0.374
        72  -8.6278    104.7077    223.3873   6.8774999197e+01   1.5565321945e+01    0.2543683    0.1618999  75.77  0.001418985    2.312    0.568
        73  -9.4671    225.5306    221.4903   4.5571397098e+01  -5.0657375328e-01     0.252557    0.1723519 -13.69  0.001094488    1.327    0.247
        74  -9.3004    160.4483    221.1168   5.7171717238e+01   8.1631506857e+00    0.4966483    0.2050937  49.52  0.001994063    3.845    0.740
        75  -9.6090    238.9238    220.9199   4.3351192544e+01  -2.0435845274e+00    0.2663468    0.1601221 -17.62   0.00135959    1.487    0.328
        76  -9.3797    192.2290    221.0317   5.1209068711e+01   3.8103493640e+00    0.2304823    0.2167872 -53.50   0.00124802    1.748    0.428
        77  -7.8273    140.4796    222.4929   6.1301942896e+01   1.0766729262e+01    0.1214159   0.09532655  33.59 0.0001767656    1.068    0.064
        78  -9.0865    120.4053    218.9524   6.5002608804e+01   1.4135949309e+01    0.4546314    0.2145229  56.57  0.001955606    3.270    0.694
        79  -8.2432     82.6476    220.2840   7.3163873480e+01   1.8996071220e+01    0.1961255    0.1079453  57.06  0.001081235    1.814    0.449
        80  -8.3904    210.1851    218.9657   4.7753208590e+01   1.7004032745e+00    0.1548782    0.1316637  10.32 0.0006125739    1.280    0.219
        81  -9.2001    249.2336    218.1130   4.1341403689e+01  -2.9445060047e+00    0.1656919    0.1325765  41.46  0.001228114    2.144    0.534
        82  -9.1764    132.9351    215.8808   6.2022290730e+01   1.2853527529e+01    0.4621377    0.2690535  65.95  0.002077556    3.457    0.711
        83  -8.8849     51.7227    217.2997   7.9594153704e+01   2.3279975061e+01    0.2504227    0.1298805  76.10 0.0007917117    2.174    0.540
        84  -8.7536    169.3343    215.9324   5.4738339113e+01   7.6355795835e+00    0.2427823    0.2012514  87.98   0.00114257    2.238    0.553
        85  -8.6590    142.8527    216.4171   6.0052387457e+01   1.1348703796e+01    0.2068518    0.1642426 -86.12 0.0009701821    2.008    0.502
        86  -8.3213    202.6809    219.9714   4.9200847251e+01   2.5564618679e+00    0.1527507    0.1217127   2.52 0.0004365128    1.130    0.115
        87  -8.3224     61.7819    216.9733   7.7398372021e+01   2.2172014290e+01    0.1988973    0.1011226  62.20 0.0008552041    2.006    0.501
        88  -8.9549    232.1811    214.5752   4.3440043753e+01  -5.6881210754e-01    0.2106874    0.1766491 -18.23  0.001007374    1.498    0.332
        89  -8.5387    185.6672    214.2737   5.1415788018e+01   5.5669692180e+00    0.1743096    0.1437929 -41.90 0.0007358289    1.641    0.391
        90  -8.1009    154.4571    214.9601   5.7519227461e+01   9.8999976713e+00    0.1516965    0.1214719 -45.31 0.0006994032    1.570    0.363
        91  -9.3301    214.2185    212.2128   4.6034080444e+01   1.9684074226e+00    0.3509566    0.2439719  49.55  0.001817097    2.312    0.567
        92  -8.9069     93.1687    213.8358   7.0282480830e+01   1.8755873185e+01    0.3432186    0.1324645  48.94  0.001528453    2.467    0.595
        93  -9.3179     73.1330    211.6355   7.4487855238e+01   2.1769534924e+01    0.6154661     0.194247  54.97  0.002188475    4.229    0.764
        94  -8.0016    225.0044    212.3152   4.4249342733e+01   5.7204282364e-01    0.1547901     0.115265  11.10 0.0004116224    1.053    0.050
        95  -9.2217    204.2381    210.7758   4.7535790110e+01   3.4669298570e+00    0.2391953     0.188343 -38.65 0.0008961674    1.704    0.413
        96  -9.5584    175.4243    209.7900   5.2677895380e+01   7.6221246022e+00    0.3600261     0.259008  63.80  0.001777752    2.606    0.616
        97  -8.7249    161.5842    212.0738   5.5702727319e+01   9.2946248589e+00    0.2157069     0.146334  44.62 0.0009951859    1.527    0.345
        98  -7.7781    106.4990    212.5295   6.7242250226e+01   1.7158605141e+01    0.1264646   0.09938388  43.20 0.0008089631    1.070    0.066
        99  -7.6769    242.7215    211.6857   4.1331783795e+01  -1.5298513367e+00    0.1106003   0.06402103   2.26 0.0003052469    1.568    0.362
       100  -8.3501    192.3368    210.4666   4.9618527418e+01   5.1371996781e+00    0.1587054    0.1423531 -50.67  0.000617706    1.731    0.422
       101  -8.7073    148.0986    210.3681   5.8175358315e+01   1.1516892510e+01    0.2563785    0.1942061  67.01  0.001158051    1.970    0.492
       102  -8.8456    116.1757    210.1138   6.4868360932e+01   1.6206390902e+01    0.2890849    0.1894871  66.90  0.001149102    2.085    0.520
       103  -8.3818     85.5232    209.1026   7.1501992196e+01   2.0634720012e+01    0.2802444    0.1533219  69.67  0.001371464    2.487    0.598
       104  -9.2729    236.5005    207.9790   4.1713277753e+01  -3.7943131058e-01    0.2555172    0.1916924 -33.54  0.001321448    1.750    0.429
       105  -8.1713     46.3810    209.1866   8.0239879549e+01   2.5414699331e+01    0.1615462   0.09522421  78.30 0.0008216713    1.745    0.427
       106  -9.2521    246.4149    207.0074   4.0020941528e+01  -1.4755720593e+00    0.2158842    0.1491062 -14.96 0.0006610292    1.252    0.201
       107  -9.4441    250.1367    201.7620   3.8607889680e+01  -1.3634595983e+00    0.3199571    0.1426111 -24.22  0.001489485    2.027    0.507
       108  -8.1356    156.5403    207.7679   5.6096176898e+01   1.0671944478e+01    0.1403103    0.1227753 -64.92 0.0006161073    1.619    0.382
       109  -8.3834    138.9142    207.5710   5.9696519939e+01   1.3311648284e+01    0.2091618    0.1673789 -86.67 0.0008028166    1.885    0.470
       110  -7.9854    126.4374    208.2195   6.2426494036e+01   1.5041390426e+01    0.1471373    0.1214335 -85.86 0.0006072604    1.638    0.390
       111  -9.1425     99.4037    205.9967   6.8080969986e+01   1.9310607569e+01    0.3267801    0.1896862  67.08  0.001138247    2.368    0.578
       112  -8.6560      5.4792    206.9802   8.9031207236e+01   2.9857408671e+01    0.1691173   0.05573563  65.10 0.0008101924    2.559    0.609
       113  -9.3362    108.1921    205.3628   6.6053523778e+01   1.8180761845e+01    0.2220782     0.186151  39.27 0.0003487637    1.020    0.019
       114  -9.1035    183.7825    203.8692   5.0187116100e+01   7.2376936664e+00    0.2805741    0.2218851  61.98  0.001399864    2.104    0.525
       115  -8.2564     56.0748    205.0602   7.7782094707e+01   2.5106447716e+01    0.2038275    0.1103702  59.32  0.000744488    1.711    0.416
       116  -9.1963    194.8889    203.4610   4.8062249301e+01   5.6979059005e+00    0.2478896    0.2357871 -32.21  0.001123467    1.524    0.344
       117  -9.2925    192.5768    197.2856   4.7492897666e+01   6.8638246926e+00    0.3279498    0.2774041 -61.10  0.001461494    1.966    0.491
       118  -9.7515    163.7982    202.9196   5.3926360752e+01   1.0324789764e+01    0.4294413    0.2318583  48.63  0.001196126    2.199    0.545
       119  -8.5950    131.2442    203.8267   6.0821749607e+01   1.5068888633e+01    0.2339181    0.1714511  59.31  0.001128352    1.634    0.388
       120  -8.6150    211.0162    201.9736   4.4956973590e+01   3.6380501131e+00    0.2014805    0.1590627 -55.43 0.0008616702    2.320    0.569
       121  -9.0539    243.3449    200.5423   3.9439231800e+01  -4.0737439889e-01    0.2975611    0.1579384 -29.95  0.001366335    1.806    0.446
       122  -8.7613    140.4613    200.7814   5.8431008549e+01   1.4189472743e+01    0.3076459    0.2010865  60.47  0.001187114    2.162    0.537
       123  -8.5211     80.1266    201.0312   7.1932027560e+01   2.2875247215e+01    0.3164772    0.1460162  59.57  0.001360943    2.635    0.620
       124  -8.0052    222.1688    201.2404   4.2944443117e+01   2.2238405054e+00    0.1406364    0.1256336   4.61 0.0005523842    1.386    0.279
       125  -9.3661    149.6135    198.5032   5.6169345163e+01   1.3165458820e+01    0.3306244    0.2461782  77.10  0.001361408    2.326    0.570
       126  -8.8188    123.9748    198.9404   6.1751211738e+01   1.7000194489e+01     0.278676    0.1987201  85.22  0.001225593    2.179    0.541
       127  -9.1459    237.0413    198.3514   4.0058234432e+01   6.2666298400e-01    0.2233895    0.1339382 -34.07 0.0009070373    1.822    0.451
       128  -8.6506    176.9722    198.7543   5.0686705863e+01   8.9676272811e+00    0.1828547    0.1599091 -50.33 0.0005375509    1.575    0.365
       129  -9.2010    112.8313    198.0742   6.4124798317e+01   1.8820787505e+01    0.3837361    0.2246523  62.28   0.00167444    2.323    0.569
       130  -9.0650     88.9284    198.4292   6.9631731913e+01   2.2184524529e+01    0.3285956    0.1841242  60.08  0.001647534    2.003    0.501
       131  -8.3301    202.2648    197.6145   4.5784229025e+01   5.4198365021e+00    0.1884137    0.1390448 -40.26 0.0006453249    1.708    0.415
       132  -9.0433     61.1747    196.8801   7.5955231541e+01   2.6117247649e+01    0.3832815    0.1804123  63.86  0.001781142    2.420    0.587
       133  -7.7953     29.3440    197.6759   8.3396919243e+01   2.9503984275e+01    0.1339062   0.06352177  56.02 0.0007050536    1.736    0.424
       134  -8.3695     12.6683    196.8573   8.7132657928e+01   3.1243466637e+01    0.2658701   0.08404655  66.59  0.001154883    3.015    0.668
       135  -7.9156    132.8758    195.7836   5.9358189860e+01   1.6196420113e+01    0.1730443    0.1365394  51.26 0.0004962272    1.318    0.241
       136  -9.4193    245.6494    193.3535   3.7887187071e+01   1.0199687869e-01    0.2271414    0.2119684 -41.68  0.001038221    1.939    0.484
       137  -8.7415    224.6933    194.1836   4.1351813820e+01   2.7352371551e+00    0.2261143    0.1361343 -41.60 0.0009679544    2.172    0.540
       138  -8.8431    185.2130    194.7809   4.8463903899e+01   8.3053027029e+00    0.2116703    0.1977033  34.78 0.0007575623    1.379    0.275
       139  -9.1138     44.3123    193.6234   7.9669629910e+01   2.8753431722e+01    0.4685219    0.1583421  57.38  0.001899481    3.071    0.674
       140  -8.3841    230.9635    193.8002   4.0263775673e+01   1.9429583267e+00    0.1834966    0.1324848 -32.47 0.0007303029    1.590    0.371
       141  -8.7778    160.8044    193.8966   5.3145631431e+01   1.2174276507e+01    0.2538091     0.185399  57.85  0.001115211    1.865    0.464
       142  -8.7684     76.8672    193.6870   7.1956662817e+01   2.4754076108e+01    0.2195586    0.1707807  77.02 0.0004738045    1.336    0.251
       143  -8.2951    198.8889    191.3285   4.5344649261e+01   6.7528598290e+00    0.1882018    0.1564719 -32.23 0.0006548554    1.425    0.298
       144  -8.3871    172.4339    191.7250   5.0448431851e+01   1.0705788431e+01    0.2094062    0.1792689 -71.51  0.001036794    1.829    0.453
       145  -9.2711    139.4218    190.3353   5.7127192913e+01   1.6122032404e+01    0.3287434    0.2447445  77.07  0.001441111    2.102    0.524
       146  -8.0131    205.3763    191.2882   4.4171325806e+01   5.8095430587e+00    0.1483434    0.1077189 -35.81 0.0006685542    1.575    0.365
       147  -8.2342    179.1830    191.2726   4.9046258364e+01   9.7321292873e+00    0.1538887    0.1447713  40.90 0.0005361594    1.370    0.270
       148 -10.2542     92.6550    188.9300   6.7673588983e+01   2.3518694857e+01    0.9525928    0.1900168  43.09  0.002999965    4.077    0.755
       149  -8.1709     21.9776    191.5156   8.4779076479e+01   3.1489879372e+01    0.1903252   0.04917993  46.76 0.0008091836    2.663    0.625
       150  -8.8783    215.8545    195.3115   4.3025779325e+01   3.8048456195e+00    0.2258369    0.1562465 -43.27  0.001035819    1.986    0.497
       151  -8.9137    216.5453    187.8120   4.1629328846e+01   4.6602711439e+00    0.2242407    0.1807922 -32.96 0.0007790726    1.496    0.331
       152  -8.3086    148.6550    189.1072   5.4939816773e+01   1.4869011419e+01    0.1855726    0.1640986  86.63  0.001148232    1.552    0.356
       153  -8.8062    129.2923    188.4353   5.9090564996e+01   1.8057104883e+01    0.2723166    0.1814056  61.40 0.0008341642    1.954    0.488
       154  -8.6369     34.3387    187.9533   8.1661811176e+01   3.1011921844e+01    0.3120146    0.1315026  69.74  0.001413434    2.567    0.610
       155  -8.2699    237.0903    188.2999   3.8347667971e+01   1.7826468115e+00    0.1549904    0.1222252  -0.59  0.000662449    1.085    0.079
       156  -8.8940    191.3952    187.1234   4.6012471107e+01   8.4663932122e+00    0.2376377    0.2031811 -64.73 0.0008568837    1.913    0.477
       157  -9.2521    155.9665    187.3616   5.3109316344e+01   1.3994680751e+01    0.2729171    0.2088957 -60.33 0.0008492388    1.786    0.440
       158  -9.4538    120.5572    185.9949   6.0724990877e+01   1.9880577710e+01     0.372972     0.233386 -72.56  0.001825615    2.343    0.573
       159  -8.5881     51.5510    187.5030   7.7472011140e+01   2.9205876573e+01    0.1996378    0.1660789  17.60 0.0001317684    1.438    0.305
       160  -8.8580     54.3676    186.6634   7.6715986288e+01   2.9050464377e+01    0.4079592    0.1757455  60.58  0.001691193    2.535    0.605
       161  -9.4109    249.4794    185.5538   3.5974367912e+01   4.9514786972e-01    0.2212279    0.1807228 -30.02  0.001268737    1.587    0.370
       162  -8.2335    230.4810    187.0595   3.9185621301e+01   2.8163673586e+00    0.1673898    0.1001865 -28.49  0.001022212    1.578    0.366
       163  -8.4680    164.8528    186.7003   5.1153958192e+01   1.2683121053e+01    0.2068235    0.1707443 -88.15 0.0008063965    2.010    0.502
       164  -9.2025    109.5477    185.7942   6.3263930848e+01   2.1625587453e+01    0.3735755    0.2390184  72.95  0.001127635    2.300    0.565
       165  -8.8773    210.1751    183.9593   4.2057108641e+01   6.0871657679e+00    0.2297318    0.1585029 -25.51 0.0004993038    1.399    0.285
       166  -8.5072    202.9211    184.5196   4.3442968629e+01   7.0884527610e+00    0.2054584    0.1684956 -43.58 0.0009439412    1.629    0.386
       167  -8.8069    182.9620    184.5321   4.7174218282e+01   1.0151807603e+01    0.2131459    0.1790949 -53.29 0.0008426875    1.654    0.396
       168  -8.9297     66.8794    184.6689   7.3462139445e+01   2.7919270361e+01    0.3514587    0.1452513  53.14 0.0009729151    2.416    0.586
       169  -8.5174    224.1487    183.6074   3.9616163868e+01   4.1202756470e+00    0.1866864    0.1413787 -26.24 0.0006185113    1.353    0.261
       170  -8.3638    197.3054    183.4458   4.4276557326e+01   8.0883303979e+00    0.1879442    0.1486565 -50.52 0.0007407791    1.808    0.447
       171  -8.9448    174.2743    183.4602   4.8699633309e+01   1.1691694036e+01    0.2236807    0.2122908  73.40 0.0005542911    1.468    0.319
       172  -8.9715     44.6594    182.5935   7.8771150051e+01   3.1043942756e+01    0.3483635    0.1326416  49.24 0.0009960538    2.218    0.549
       173  -7.8270      1.7695    183.5801   8.9161979637e+01   3.4902562391e+01    0.1647186    0.0797391  42.08 0.0008416008    1.626    0.385
       174  -8.2436    235.4665    181.0965   3.7342096468e+01   2.8622091957e+00    0.1696721   0.09884278 -27.70 0.0008000401    1.568    0.362
       175  -9.1515    147.4243    180.3186   5.3792779157e+01   1.6581997101e+01    0.3057559    0.2417155  77.30  0.001110708    1.885    0.469
       176  -9.2570     25.9674    179.3581   8.3172386885e+01   3.3699734425e+01    0.5629569    0.1799822  68.23  0.002047086    3.932    0.746
       177  -8.1419    240.6097    179.7777   3.6305165596e+01   2.3247666595e+00    0.1536769   0.09476218 -33.08 0.0009482383    1.647    0.393
       178  -8.6793    137.4777    178.9902   5.5787079655e+01   1.8458137490e+01    0.2675255    0.2069382  77.39   0.00100421    1.860    0.462
       179  -9.3267    191.3548    178.1491   4.4446003456e+01   9.7810740509e+00    0.2432346     0.235252  73.15 0.0005791054    1.508    0.337
       180  -8.0715    169.7889    178.8153   4.8802721162e+01   1.3155587173e+01    0.1715307    0.1487278  49.81 0.0007275577    1.375    0.273
       181  -9.0266     35.9904    176.5240   8.0484891863e+01   3.3311712222e+01    0.5298296    0.1792212  69.76  0.001770051    4.528    0.779
       182  -9.3502    249.0686    177.0623   3.4540907131e+01   1.5220778819e+00    0.2499626    0.2065092 -20.96  0.001101946    1.363    0.266
       183  -8.5700    250.5047    172.8710   3.3575624744e+01   1.8224079564e+00    0.2032117     0.135051 -20.19 0.0006705345    1.254    0.202
       184  -8.3976    247.4782    173.5266   3.4141733560e+01   2.1476502310e+00    0.2157401     0.131352  -5.37  0.000841581    1.546    0.353
       185  -8.6648    129.1522    176.9310   5.7361908376e+01   2.0211517933e+01    0.2828926    0.2056926  87.04 0.0009282143    2.129    0.530
       186  -8.5887    231.1296    176.7162   3.7247094555e+01   4.0044824195e+00    0.2004079    0.1376822 -30.13 0.0007551456    1.448    0.309
       187  -8.4625    217.4544    177.1152   3.9577919700e+01   5.9269911476e+00    0.1727021    0.1587589   4.09 0.0007943377    1.315    0.240
       188  -8.4477    211.4363    176.7485   4.0547245403e+01   6.8743941133e+00    0.1724521    0.1041497 -19.64 0.0009532223    1.642    0.391
       189  -8.6914    204.9244    177.1690   4.1773813489e+01   7.8067303062e+00    0.1743616    0.1615422   6.04 0.0005285729    1.275    0.216
       190  -9.1323    183.1981    176.2658   4.5672987475e+01   1.1372425441e+01    0.2129692    0.2116443 -25.45 0.0006920187    1.356    0.262
       191  -8.7162     88.9046    176.5198   6.7050032213e+01   2.6606347410e+01    0.2413408    0.1760978  79.87 0.0007258697    1.577    0.366
       192  -9.2388     58.7824    175.3963   7.4578179493e+01   3.0945163656e+01    0.4960456    0.2012518  59.44  0.001816325    2.965    0.663
       193  -9.0024     56.0048    170.5311   7.4815428551e+01   3.2370862491e+01    0.3814752     0.184935  66.49  0.001651445    2.443    0.591
       194  -8.4065     12.9212    176.5819   8.6236703552e+01   3.5495099602e+01    0.2514338    0.0924883  58.10  0.001168439    2.298    0.565
       195  -9.3246    158.9545    174.8508   5.0369756852e+01   1.5613064646e+01    0.3566793    0.2651443  79.64  0.001206626    2.455    0.593
       196  -9.3001    104.2790    174.5277   6.2953402509e+01   2.4690219168e+01    0.5310063    0.2484932  57.47   0.00171223    3.070    0.674
       197  -8.6512    224.6315    174.4436   3.7889944593e+01   5.2255456018e+00    0.2094461    0.1739948 -44.79  0.001181878    1.720    0.419
       198 -10.5401     75.9442    170.8089   6.9640530818e+01   2.9691967699e+01    0.9695486    0.4205855 -85.56  0.003162361    4.679    0.786
       199  -9.4825    175.7096    172.0662   4.6396188934e+01   1.3267841537e+01    0.3071423    0.2287009 -33.56  0.001166663    1.404    0.288
       200  -8.2791    143.0436    172.1448   5.3389625320e+01   1.8782777137e+01    0.2064364    0.1612009  68.53 0.0007067558    1.714    0.417
       201  -8.6690    134.7039    171.5843   5.5200021493e+01   2.0299985638e+01    0.2093225    0.1712891  87.44 0.0007990974    1.650    0.394
       202  -9.0744     45.1839    171.0756   7.7694522023e+01   3.3525198545e+01    0.3275351    0.1685426  72.43  0.001461575    2.121    0.528
       203  -9.4680    121.3386    170.3418   5.8151134250e+01   2.2782743228e+01    0.3271017    0.2461791  79.36  0.001131835    1.795    0.443
       204  -8.3140    237.3511    169.2649   3.4901167799e+01   4.0593255040e+00    0.2001882    0.1308028 -31.96 0.0007444837    1.502    0.334
       205  -9.1128    230.4274    168.7581   3.5898254002e+01   5.1176048602e+00      0.39728    0.1810363 -42.71   0.00188703    2.758    0.637
       206  -8.3208    205.8469    170.1426   4.0315261607e+01   8.6575990702e+00    0.1751431    0.1637948 -25.04 0.0006122016    1.353    0.261
       207  -8.6168    198.3850    169.9862   4.1638684080e+01   9.8669695865e+00    0.2032071     0.180351  58.05 0.0008869675    1.601    0.375
       208  -8.8330     73.8483    160.3695   6.8880294874e+01   3.2327028974e+01    0.2202811      0.17082 -27.70 0.0007822382    1.748    0.428
       209  -8.2025    244.6326    169.1755   3.3773111138e+01   3.0548701830e+00    0.1711548    0.1283454 -30.31 0.0006591451    1.419    0.295
       210  -9.1425    167.0154    168.4087   4.7508925285e+01   1.5343771557e+01    0.3156293    0.2200492  60.30  0.001193977    2.063    0.515
       211  -8.5075    149.5431    169.0584   5.1394418326e+01   1.8234885936e+01    0.2464433    0.1773713  51.56 0.0008326907    1.524    0.344
       212  -8.5240    218.7998    168.1103   3.7686893838e+01   6.9350590506e+00    0.1747241    0.1545184 -18.52 0.0005174067    1.268    0.211
       213  -8.0001    211.5336    167.7722   3.8867619020e+01   8.1018368025e+00    0.1827398    0.1136123 -32.05 0.0006219024    1.559    0.359
       214  -8.8225    212.9308    163.4238   3.7797119524e+01   8.4942579345e+00    0.2505907    0.1665032 -32.45  0.001029645    1.469    0.319
       215  -8.6091    111.5615    167.0980   6.0024520642e+01   2.5055688979e+01    0.2780768    0.2068433  81.58  0.001026721    1.748    0.428
       216  -8.0617     88.7894    168.5737   6.6024374393e+01   2.8323181322e+01    0.2034711    0.1088927  45.55 0.0009380708    1.685    0.407
       217  -8.9704    191.9247    166.5764   4.2202681386e+01   1.1433560389e+01    0.2278702     0.180331 -35.26 0.0005192537    1.359    0.264
       218  -8.7069    185.0010    166.4255   4.3504548040e+01   1.2612099996e+01    0.2255311    0.1814582 -49.69 0.0008488272    1.576    0.366
       219  -9.7091     19.9264    166.3973   8.3942951013e+01   3.7152945742e+01    0.3786351    0.2023967  34.08   0.00205645    1.701    0.412
       220  -9.5437    137.4240    164.7163   5.3380236161e+01   2.1144770029e+01    0.6391829    0.2462318  51.28  0.002103154    3.701    0.730
       221 -10.0249     94.9883    162.6223   6.3560352285e+01   2.8670677037e+01     0.837419    0.4053876  67.55  0.002559792    4.818    0.792
       222  -8.0060     94.8234    155.2062   6.2457910914e+01   3.0337693271e+01    0.3773063    0.2228907  -0.42  0.001224606    4.495    0.778
       223  -7.9842    234.0198    164.9807   3.4620703932e+01   5.0803688094e+00    0.1612749    0.1407601 -39.83  0.000540929    1.572    0.364
       224  -9.6150     34.1186    163.3612   7.9983673552e+01   3.6483164970e+01    0.6744535    0.1262709  46.45  0.002233181    4.007    0.750
       225  -8.5245    159.4008    164.0093   4.8310475195e+01   1.7426157098e+01    0.2270241    0.1885336  62.63 0.0008230958    1.528    0.345
       226  -8.3805    246.2078    162.8633   3.2365151509e+01   3.6068258330e+00    0.1699617    0.1348136 -17.88 0.0004875501    1.172    0.147
       227  -8.5309    205.0045    162.6369   3.9038560771e+01   9.8776907498e+00    0.2019009    0.1658805 -32.09 0.0005850074    1.310    0.237
       228  -9.2354      3.5592    162.2439   8.7980091439e+01   3.9439252668e+01    0.4082502     0.109763  50.54  0.001726551    2.800    0.643
       229  -8.7557     60.7095    160.7794   7.2512014364e+01   3.4003902159e+01     0.353323    0.2653313  64.84  0.001994623    1.246    0.198
       230  -8.9869    177.3808    160.4451   4.3868678340e+01   1.4886813166e+01     0.242461    0.2252731 -68.74 0.0008826222    1.440    0.305
       231  -8.6179    151.7041    160.6733   4.9376377937e+01   1.9389728759e+01    0.2564923    0.1972567  79.08 0.0009812894    2.022    0.505
       232  -9.1576    243.3540    159.2056   3.2097462562e+01   4.4640235891e+00    0.3182786     0.166074  11.68  0.001520963    2.674    0.626
       233  -9.6615    250.2043    157.5293   3.0775079596e+01   3.7013619854e+00    0.2889308    0.1377521 -30.30 0.0009276902    1.799    0.444
       234  -8.2336    246.7453    155.3428   3.0858596841e+01   4.4611150802e+00    0.1674901    0.1341703   4.94 0.0004791547    1.113    0.102
       235  -8.9520    227.4116    159.0086   3.4529660661e+01   6.8499546598e+00    0.2741027    0.1798914 -48.10  0.001049752    2.152    0.535
       236  -8.9678    236.9766    158.5239   3.2932267646e+01   5.4776604721e+00    0.1882341    0.1363946 -20.82 0.0003732834    1.187    0.157
       237  -8.3163    128.1329    158.8528   5.4544399985e+01   2.3925461736e+01    0.2174701    0.1814389  63.98  0.000623623    1.346    0.257
       238  -9.6167    105.8364    157.8282   5.9977304051e+01   2.7962785513e+01    0.4475881    0.2784454  66.06  0.001155841    2.165    0.538
       239  -8.5153    196.1845    157.6272   3.9667352332e+01   1.2095689878e+01     0.205266    0.1719083 -33.61 0.0005695262    1.284    0.221
       240  -8.6324    188.0962    157.6105   4.1196387518e+01   1.3485078549e+01    0.2096947    0.1758884 -36.39 0.0005245901    1.298    0.230
       241  -9.2697    167.3852    156.9650   4.5251708583e+01   1.7249610947e+01    0.2865573    0.2427797 -77.50 0.0008473231    1.703    0.413
       242  -8.3876    218.0143    156.3972   3.5563659233e+01   8.6765577993e+00    0.2263211     0.157527 -42.17 0.0008044408    1.667    0.400
       243  -8.7607    157.5679    155.7861   4.7136266696e+01   1.9232292609e+01    0.2528515    0.2333446 -80.37 0.0008795742    1.370    0.270
       244  -9.1660    119.5992    155.0924   5.5981817901e+01   2.6196442949e+01    0.3561461    0.2485499  81.87  0.001316264    2.169    0.539
       245  -9.3400     81.6706    154.7206   6.5959219163e+01   3.2486453318e+01    0.4723249    0.2544841  65.75  0.001394118    2.545    0.607
       246  -9.0614     49.9222    155.2751   7.4892512433e+01   3.6629039579e+01    0.4346504    0.1870847  56.42  0.001768645    2.469    0.595
       247  -8.3398    240.0565    164.0055   3.3503343756e+01   4.3336957974e+00    0.1633188    0.1438698 -45.89 0.0006722424    1.698    0.411
       248  -8.2172    204.6793    155.1299   3.7621715148e+01   1.1042048154e+01    0.1935288    0.1504684 -40.25 0.0006531237    1.446    0.308
       249  -8.7119    144.6662    154.5122   4.9802644173e+01   2.1819274384e+01    0.2719257    0.2181035  86.52  0.001394422    1.779    0.438
       250  -9.6861    132.8645    152.7292   5.2260567368e+01   2.4317783258e+01    0.4553465    0.3281689  73.06  0.001266818    2.000    0.500
       251  -9.0193    133.5906    148.1732   5.1201864750e+01   2.5109139882e+01    0.3866056    0.1875518 -44.10  0.001593058    2.208    0.547
       252  -9.2166     68.0976    153.3740   6.9549007505e+01   3.4749458373e+01    0.4134742    0.2374182  68.18  0.001505105    2.078    0.519
       253  -8.4892    239.6419    153.1738   3.1490890530e+01   5.7731511315e+00    0.1710718   0.09539359 -19.94 0.0003856791    1.655    0.396
       254  -8.2215    243.0088    154.7078   3.1285780417e+01   5.0809677770e+00    0.1639563    0.1315303  -1.70 0.0003818665    1.051    0.048
       255  -9.7851     29.7036    150.8394   8.0196641209e+01   3.9875183204e+01    0.4095489    0.1698133  60.02  0.001417747    2.466    0.595
       256  -8.5013      9.4374    153.0000   8.6000799448e+01   4.1126843936e+01    0.2489436   0.06707651  21.53 0.0009317895    3.911    0.744
       257  -9.0085      3.0652    150.8682   8.7639398851e+01   4.2095870916e+01    0.3110889    0.1481877 -87.39  0.001372436    1.847    0.459
       258  -8.7873    189.6129    150.2287   3.9416834863e+01   1.4404841550e+01    0.2384895     0.210953 -70.16 0.0009580583    1.606    0.377
       259  -8.3520    182.2289    150.9146   4.0996525401e+01   1.5612780575e+01    0.1911858    0.1844269 -58.80 0.0006644974    1.308    0.235
       260  -8.1714    162.7636    150.7658   4.5001395616e+01   1.9193566195e+01    0.1851317    0.1687553  74.89  0.001058435    1.384    0.278
       261  -8.4434     98.4247    150.5882   6.0729914570e+01   3.0788190834e+01    0.3047536    0.2054319  74.84 0.0008026821    1.955    0.488
       262  -9.4946    248.8653    149.1443   2.9353121189e+01   4.9305328047e+00    0.2698897    0.1546191 -27.40 0.0007105889    1.471    0.320
       263  -8.8217    243.1981    149.6218   3.0266964737e+01   5.7016424030e+00    0.2313428    0.1427312 -27.32  0.001170477    1.389    0.280
       264  -8.1446    212.9294    149.6561   3.5076421193e+01   1.0471679097e+01    0.1705429    0.1497859  12.75 0.0003750361    1.117    0.104
       265  -8.4693    198.8389    149.0200   3.7440272006e+01   1.2971752194e+01    0.1851398    0.1768998 -33.67 0.0004703596    1.282    0.220
       266  -8.7257     91.3101    148.6837   6.2358731914e+01   3.2379368054e+01    0.2753855    0.2195134  61.89 0.0007218243    1.257    0.205
       267  -9.3709     88.2137    144.5687   6.2541472122e+01   3.3827350284e+01    0.4280168    0.2603582 -84.45  0.001687534    2.256    0.557
       268  -9.5496     40.0417    148.0479   7.6968684095e+01   3.9484478311e+01    0.5185414    0.1973202  54.33  0.002030575    2.726    0.633
       269  -9.3897    233.7391    147.2352   3.1213921613e+01   7.4528234212e+00    0.2796516    0.1404008 -24.33  0.001003093    1.862    0.463
       270  -8.4372    223.2449    146.5616   3.2731378869e+01   9.2156729832e+00    0.2245859    0.1509294 -25.60  0.000290999    1.328    0.247
       271 -10.3949    148.8747    144.9367   4.6912862103e+01   2.2887570095e+01    0.5741738    0.4138556 -85.74  0.001577543    2.421    0.587
       272  -9.8082    139.2050    145.0659   4.9218918791e+01   2.4690481914e+01    0.4557399    0.3236306  83.38  0.001596087    2.378    0.579
       273 -10.1574    106.6551    144.3886   5.7407221083e+01   3.0781328491e+01    0.6991568    0.3799037  64.69   0.00231728    3.079    0.675
       274  -8.7717     77.8637    146.6126   6.5814049490e+01   3.4945737570e+01    0.2719139    0.1797162  87.25 0.0007125558    1.827    0.453
       275 -10.3481     54.9651    144.5544   7.2196665015e+01   3.8589883804e+01    0.7572868    0.3143186  62.44  0.002601294    3.514    0.715
       276  -7.6200    206.4840    146.4847   3.5544561694e+01   1.2034812863e+01    0.1308534    0.1156511  -5.28 -3.391566e-05    1.053    0.050
       277  -8.3314    175.6613    146.0552   4.1313687480e+01   1.7637812071e+01    0.2089558    0.1711163 -55.17 0.0009914387    1.506    0.336
       278  -9.1961     13.0676    145.7912   8.4581697773e+01   4.2553880205e+01    0.2812467     0.165035  65.90  0.001145102    1.503    0.335
       279  -9.0885    240.1971    144.9324   2.9779997091e+01   6.7614057996e+00    0.1796007    0.1439492 -29.09  0.000558755    1.257    0.205
       280  -9.8551    125.1496    142.6133   5.2205025501e+01   2.7830050015e+01     0.529326    0.3583885  89.85  0.001654936    2.534    0.605
       281  -8.9475    247.1246    143.6269   2.8514981272e+01   5.8842934567e+00    0.2257289    0.1424493 -22.04 0.0005228927    1.331    0.248
       282  -8.9012    165.5824    143.9023   4.2973032809e+01   1.9909700179e+01    0.2819947     0.223517  64.38  0.000878726    1.633    0.388
       283  -7.9781    243.2664    143.6011   2.9064184526e+01   6.4676287629e+00    0.1167382    0.0859801 -45.62 0.0005935552    1.729    0.422
       284  -7.6211    194.2748    143.6439   3.7164666391e+01   1.4629699176e+01    0.1265921    0.1073511 -63.93 0.0003916167    1.648    0.393
       285 -10.6961     69.5379    141.0074   6.7388094359e+01   3.7501949700e+01    0.4953235    0.4104838  60.54  0.001962392    1.134    0.119
       286  -9.3114      2.9228    141.7652   8.7265200292e+01   4.4259861012e+01    0.3259032    0.1120365  57.10  0.001395938    2.585    0.613
       287  -8.3804    181.9035    141.2179   3.9030083815e+01   1.7303883386e+01    0.1955989     0.190784 -53.01 0.0004972525    1.239    0.193
       288  -7.6626    250.5012    140.5105   2.7420308971e+01   5.7780029560e+00    0.1215337   0.09611496 -12.52 -0.0001025654    1.004    0.004
       289  -9.8222     23.6990    138.1290   8.0902028127e+01   4.3528354381e+01    0.5550457    0.1926452  58.25   0.00195416    3.142    0.682
       290  -8.2447    243.4894    139.5423   2.8215991550e+01   6.9614511625e+00    0.1233413   0.09946574 -11.57  0.000117072    1.005    0.005
       291  -8.6184    172.3297    138.1318   4.0307761777e+01   1.9657861951e+01    0.2499681    0.2090204 -71.80 0.0006878519    1.637    0.389
       292  -7.9868     43.6420    139.7043   7.5005574330e+01   4.1128954700e+01    0.1336786    0.1021793 -33.37 0.0007032816    1.700    0.412
       293  -7.9310    218.6118    138.2639   3.1767669233e+01   1.1172728257e+01    0.1738816    0.1106299 -22.79 0.0008950616    1.463    0.316
       294  -8.3746    207.7370    137.8881   3.3518477677e+01   1.3120637115e+01    0.2352142    0.1700414 -47.44 0.0009200746    1.639    0.390
       295  -8.7870    197.6078    137.3509   3.5204528111e+01   1.5030203786e+01    0.2445539    0.1876697 -53.02 0.0008290024    1.647    0.393
       296  -9.2225    139.4824    136.8372   4.7431311764e+01   2.6302615016e+01    0.2863046    0.1930954   4.78  0.001194053    2.304    0.566
       297  -9.1165     39.2913    136.2131   7.5942677861e+01   4.2474478163e+01    0.2720827    0.1836606  54.28 0.0006842109    1.386    0.278
       298  -8.9030    248.5117    134.8911   2.6565505120e+01   6.7947972577e+00    0.2548448    0.1527553 -34.86   0.00126559    1.512    0.338
       299  -8.3505    162.6340    136.1360   4.1936731034e+01   2.1903997074e+01    0.2340335    0.1971957  54.54  0.000765372    1.315    0.239
       300  -8.7700    150.1788    135.6535   4.4633784988e+01   2.4444038247e+01    0.3185242    0.1786505  19.66  0.001150874    2.959    0.662
       301  -7.6995    110.6216    136.6972   5.4850960063e+01   3.1797966528e+01    0.1520858    0.1171206  -3.08 0.0007026066    1.771    0.435
       302  -7.9660    187.9891    135.5090   3.6603107148e+01   1.7120432143e+01    0.1694279     0.125544  74.11 0.0004514838    2.220    0.549
       303  -8.1061     95.5175    135.1174   5.8771658365e+01   3.4830422938e+01    0.2097347    0.1454205 -59.43 0.0004579271    1.495    0.331
       304 -10.3593     83.5088    133.0921   6.1915672864e+01   3.7303474625e+01     0.529617    0.3374664 -81.51  0.001371507    1.945    0.486
       305  -8.0116    231.4810    133.9142   2.8827598280e+01   9.6298301866e+00    0.1871015    0.1090302 -29.70 0.0004420706    1.500    0.333
       306  -8.6427    179.5449    133.7815   3.7876023598e+01   1.9029420116e+01    0.2499906    0.2037135 -61.60 0.0007618659    1.587    0.370
       307  -8.8479    112.8492    133.1434   5.3520108378e+01   3.2185545826e+01    0.3618042    0.2437848  68.65  0.000896487    2.000    0.500
       308  -8.4619    237.5041    133.0305   2.7747525044e+01   8.7682265293e+00    0.1919966    0.1054489 -32.37  0.001019046    1.583    0.368
       309 -10.0073    132.0229    130.8166   4.7970541291e+01   2.9012494721e+01    0.5485793    0.3320059 -69.54  0.001484219    2.682    0.627
       310  -9.1324    143.1408    131.6465   4.5409294309e+01   2.6635681959e+01    0.2880496    0.2469315 -87.13 0.0007543159    1.462    0.316
       311  -8.5466    250.7891    129.8031   2.5217178761e+01   7.0998590447e+00     0.354687   0.08619514 -29.88  0.001258524    3.743    0.733
       312  -9.8731     12.9690    128.5900   8.3461418031e+01   4.6771358196e+01    0.6664697    0.2762681  79.66   0.00268008    2.496    0.599
       313  -8.4286    247.0476    129.7301   2.5711033791e+01   7.6896430871e+00    0.2102671    0.1384316 -34.79 0.0006570367    1.392    0.282
       314  -8.2030    204.5114    130.0340   3.2372026251e+01   1.4915817618e+01    0.2005893    0.1227213 -35.94 0.0008884243    1.543    0.352
       315  -8.3110    192.7272    130.1237   3.4513452690e+01   1.7112700832e+01    0.2155928    0.1602384 -45.14 0.0005778506    1.456    0.313
       316  -9.2378    168.2190    129.1956   3.9176536987e+01   2.2077767449e+01    0.3212092    0.2400307 -60.47 0.0007832117    1.717    0.418
       317  -9.4967    152.8908    128.6726   4.2443140328e+01   2.5267169051e+01    0.4170353     0.278594 -60.19 0.0007493062    1.941    0.485
       318 -10.0874     99.3770    127.7582   5.6201929886e+01   3.5880056411e+01    0.6308504    0.3986346  78.94  0.001770658    2.567    0.610
       319  -9.9060     73.5104    129.4557   6.4313897723e+01   3.9745854035e+01    0.4030319    0.2541057  66.46  0.001067596    1.887    0.470
       320  -8.2556    234.0366    129.6796   2.7554100575e+01   9.7916438922e+00    0.1778153    0.1101338  73.89 0.0007045232    4.427    0.774
       321  -7.6357    220.4693    129.5580   2.9608955110e+01   1.2118969078e+01    0.1307319    0.1127285 -11.81 6.986453e-05    1.013    0.013
       322  -8.1742    211.6517    129.1110   3.0950122125e+01   1.3753573611e+01    0.2067498    0.1528701 -46.19 0.0008271682    1.529    0.346
       323  -7.9466    186.4768    129.4957   3.5554255332e+01   1.8419740770e+01    0.1382236    0.1302931 -11.46 0.0002729844    1.071    0.066
       324 -10.8619     45.3268    123.6255   7.2441114711e+01   4.4978102806e+01     1.264108    0.5301058  69.92  0.003861931    4.442    0.775
       325  -9.6304     33.6466    128.8454   7.6899996908e+01   4.4909675478e+01    0.2588412    0.2254854  77.15 0.0003669572    1.013    0.013
       326 -10.8470     28.6095    122.2935   7.7822969531e+01   4.7058968618e+01      1.06352    0.4447142  78.69  0.003881124    3.183    0.686
       327  -7.6025      1.3524    129.7138   8.7133458594e+01   4.7279169240e+01    0.1364454   0.07305551  56.74 0.0007022006    1.665    0.399
       328 -10.6213     60.5321    125.3261   6.7726626600e+01   4.2635652919e+01    0.7778121    0.3872769  66.59  0.002834232    2.970    0.663
       329  -9.9524    117.6659    124.8567   5.0418672159e+01   3.3122500654e+01    0.5314037    0.3624311  74.76  0.001553938    2.173    0.540
       330  -9.0348    179.2445    124.5515   3.5837137992e+01   2.0697432862e+01    0.2695241    0.2302756 -61.82 0.0005709302    1.432    0.302
       331  -8.0453    188.5644    123.7660   3.3847336241e+01   1.8977272099e+01    0.1920535    0.1269824 -45.69 0.0007510516    1.612    0.380
       332  -8.6660     83.8912    122.5800   5.9807377774e+01   3.9792302700e+01    0.3091511     0.251717 -46.43  0.001203233    1.311    0.237
       333  -7.7786    202.9850    121.9598   3.0823537485e+01   1.6470797041e+01    0.1669027    0.1448056 -18.61 0.0004339548    1.045    0.043
       334  -7.9660    195.0081    121.9546   3.2236250589e+01   1.8012414038e+01    0.1735928    0.1471191 -24.32 0.0005064991    1.098    0.090
       335  -8.7685    171.9552    121.2866   3.6550511374e+01   2.2758720136e+01    0.2346051    0.1939728 -47.80 0.0004829316    1.290    0.225
       336  -9.2686    158.5676    121.3008   3.9432046247e+01   2.5526895402e+01    0.3333604    0.2676874 -85.66  0.001039335    1.742    0.426
       337  -9.4625     71.3040    119.8052   6.3269279607e+01   4.2476904143e+01    0.3387588    0.2288847  76.84  0.001081609    1.800    0.444
       338  -9.9222    141.5240    118.3524   4.2707765329e+01   2.9676022661e+01    0.4675718    0.3044973 -63.76  0.001163255    2.074    0.518
       339  -9.7950    131.0757    118.4648   4.5365496116e+01   3.1826220991e+01    0.5183058    0.3621419  89.86  0.001697084    2.371    0.578
       340  -9.7095      2.9588    116.8689   8.5890542458e+01   5.0367653984e+01    0.5768347    0.1951556  66.25  0.002191877    3.183    0.686
       341  -7.8008    231.5522    117.4987   2.5292123133e+01   1.1907169307e+01    0.1292326    0.1097247 -25.05 0.0002762023    1.081    0.075
       342  -8.4346    185.5995    115.7733   3.2527150996e+01   2.0927111033e+01    0.1990373    0.1274079 -45.15 0.0003584721    1.620    0.383
       343 -10.0105    109.4021    114.0775   5.0248002098e+01   3.7178900917e+01    0.5332596    0.3609702 -82.65   0.00151006    2.220    0.550
       344  -8.9704    109.0189    107.4806   4.8743259054e+01   3.8768256838e+01    0.4414706    0.2660835  15.52  0.001522472    3.106    0.678
       345  -8.2680    250.0803    114.6884   2.2157151803e+01   9.1690862327e+00    0.1677539    0.1439144  -3.66  0.001137515    1.124    0.110
       346  -8.2724    192.9484    114.9386   3.0964926722e+01   1.9575077969e+01    0.2511182     0.177595 -39.48 0.0006406069    1.372    0.271
       347 -10.1484     92.7557    112.4761   5.4881241212e+01   4.0705835955e+01    0.6665979    0.3543198 -68.08  0.001587081    2.457    0.593
       348  -9.9134     79.2767    112.6337   5.9228694201e+01   4.3003300294e+01    0.5923353     0.367134  78.85  0.001685465    2.453    0.592
       349  -8.1229    167.4904    114.0300   3.5727502997e+01   2.5016567088e+01     0.219993    0.1422101 -38.82 0.0005633025    1.522    0.343
       350  -9.7641    121.9068    112.1590   4.6261707638e+01   3.5087604622e+01    0.3580673    0.2756871 -71.14 0.0005575962    1.561    0.359
       351 -10.0434     14.3993    110.9846   8.1527360775e+01   5.1120713010e+01    0.4931976    0.1985852  61.38  0.001918198    2.767    0.639
       352  -8.7147    159.1621    111.7229   3.6952571080e+01   2.7231313335e+01    0.2580866    0.1975727 -50.75 0.0006623731    1.392    0.282
       353  -9.9102    133.4808    109.4273   4.2503230549e+01   3.3237865283e+01    0.5869806    0.3272862 -49.24  0.001772372    1.867    0.464
       354 -10.9010    248.6653    106.7233   2.0628749117e+01   1.0444448749e+01    0.7394986    0.2363327 -28.27  0.002935151    2.849    0.649
       355 -10.2111     66.4893    109.7826   6.2928496358e+01   4.5724961709e+01     0.528806    0.3165057 -75.98  0.002125378    1.889    0.471
       356  -8.6296    181.8121    109.5022   3.1722414618e+01   2.2791385710e+01    0.2604612    0.2102418   9.13  0.001353069    1.385    0.278
       357  -8.2140    149.6316    109.8253   3.8640782054e+01   2.9664046852e+01     0.213033    0.1395946 -51.04 0.0004084851    1.644    0.392
       358  -8.7300    174.7887    111.6650   3.3638534575e+01   2.3896711914e+01    0.2934195    0.1876022 -47.29 0.0007148557    1.653    0.395
       359  -8.3214    189.2997    107.8075   2.9902753325e+01   2.1509409694e+01    0.2734917    0.1121693 -42.63 0.0007434743    2.422    0.587
       360 -10.1851    116.7262    104.2915   4.5699222398e+01   3.7908273447e+01    0.6984239    0.4358121  68.02  0.002674337    2.391    0.582
       361 -10.3643    108.3855     98.3832   4.6558898974e+01   4.0974377391e+01    0.6116156    0.4584747 -73.37   0.00108397    1.628    0.386
       362  -8.6678    107.2892     92.3716   4.5226475308e+01   4.2563495529e+01    0.3895917     0.226784  25.39  0.001409117    2.510    0.602
       363 -10.5143     45.6967    102.2012   6.8928718240e+01   5.0456512752e+01    0.8454171    0.4060194  65.95  0.002984097    3.240    0.691
       364 -10.8107     22.8691    102.5223   7.7531955407e+01   5.2657097011e+01    0.7466648     0.341471  62.83  0.002045636    2.604    0.616
       365  -9.6155    150.5891    102.9600   3.6631858862e+01   3.0805184716e+01    0.4731652    0.2836024 -59.92  0.001168603    2.278    0.561
       366  -9.4273    139.8623    104.4190   3.9588869946e+01   3.2891460091e+01    0.3570752    0.2787651 -81.88   0.00081363    1.707    0.414
       367  -8.7321     78.2361    104.8735   5.7859296012e+01   4.5101342267e+01    0.2829191     0.203917  -5.04 0.0008943295    2.101    0.524
       368  -8.7211    166.7611    103.9760   3.3338090703e+01   2.7023913028e+01    0.2651476     0.199225 -54.88 0.0006333392    1.489    0.328
       369 -10.1839    128.6689    102.0117   4.1817415368e+01   3.5849954199e+01    0.4200889     0.304451 -78.02 0.0009857184    1.952    0.488
       370  -8.6771      7.0782    102.9164   8.3428665207e+01   5.3664554071e+01    0.2964454    0.1366266  58.56  0.001148371    2.222    0.550
       371  -7.9866    175.5879    101.8174   3.0989783884e+01   2.5472278242e+01    0.2065255    0.1320077 -46.86 0.0004274162    1.619    0.382
       372  -8.3815    159.7545    100.8613   3.4016267462e+01   2.9158978597e+01    0.2737291    0.1971233 -55.34 0.0006628711    1.565    0.361
       373  -9.2969     82.2463     99.8568   5.5307489219e+01   4.5651135106e+01    0.3885358    0.2705439 -87.23   0.00107475    1.901    0.474
       374  -9.3671     95.0507     96.9717   5.0326302026e+01   4.3977544756e+01    0.3364448    0.2464993 -69.10 0.0006837694    1.547    0.353
       375 -10.1528     64.0754     96.0067   6.0827157651e+01   4.9580469780e+01    0.5762112    0.3566603  75.29  0.001787903    2.356    0.575
       376  -8.5493      7.3302     97.3132   8.2835767481e+01   5.5087278386e+01    0.1358609   0.08509342 -47.82 0.0003242553    1.675    0.403
       377  -8.0857    164.9651     93.9962   3.1063612348e+01   2.9249799921e+01    0.2343181    0.1781148 -65.89 0.0004862123    1.623    0.384
       378  -8.4021    176.4417     92.8021   2.8457095551e+01   2.6857586882e+01    0.2714581    0.1344362 -40.51  0.000645779    1.929    0.482
       379  -9.1487    138.8534     91.8491   3.6388523946e+01   3.5668917264e+01    0.3626889    0.2610488 -69.08 0.0007072309    1.820    0.451
       380  -8.8030    120.4909     92.9920   4.1552538081e+01   3.9578310861e+01    0.2921478    0.2294499  18.19  0.001342333    1.567    0.362
       381  -9.8947    124.6118     90.7617   3.9775114625e+01   3.9136220527e+01     0.434018    0.3332041 -83.60  0.000943237    1.728    0.421
       382  -8.1307    157.8264     91.7692   3.1965751721e+01   3.1299245610e+01    0.2074295    0.1768841 -67.78 0.0004881173    1.325    0.245
       383  -8.9951     47.3040     91.8732   6.6323249884e+01   5.2936653103e+01    0.3973002    0.1965111  16.46  0.001533963    2.777    0.640
       384  -9.4849     35.0254     89.9168   7.0858404625e+01   5.4826976356e+01     0.495271    0.2630696  82.14  0.001724386    2.542    0.607
       385  -9.4215      4.9729     91.7553   8.3231359271e+01   5.6644723932e+01    0.3214394    0.1726392  50.43  0.001056264    1.909    0.476
       386  -8.9885     22.9475     89.9151   7.5780566344e+01   5.5930551059e+01    0.3255462    0.2333524 -35.36  0.001049913    1.582    0.368
       387  -8.3590    150.7471     88.3184   3.2561742315e+01   3.3594916646e+01    0.3999317    0.1752801 -49.67  0.001366358    2.650    0.623
       388 -10.1429     86.5538     85.9171   5.0116932299e+01   4.8226010274e+01    0.6614333    0.4245768 -65.98  0.001770085    1.829    0.453
       389  -7.7937    164.3483     87.1669   2.9305935444e+01   3.0624197556e+01    0.2192545    0.1314455 -45.98 0.0005417858    1.687    0.407
       390  -9.7622     48.6984     84.3219   6.4108824447e+01   5.4702310443e+01    0.5670687    0.3233628  65.93  0.001870586    2.523    0.604
       391  -8.4602     69.9674     86.0000   5.6144937359e+01   5.1157955942e+01     0.246362   0.08598745  35.26 0.0008052563    2.962    0.662
       392  -8.1771    157.9651     83.5702   2.9614026895e+01   3.2774394699e+01    0.2367912    0.1929251 -38.82 0.0001498212    1.199    0.166
       393  -9.8557    104.7852     82.9203   4.3220714625e+01   4.5207430231e+01    0.4729024    0.3386309 -72.51  0.000943372    1.819    0.450
       394  -9.1961    140.8608     82.3472   3.3120963107e+01   3.7071855293e+01     0.384418    0.2127621 -46.17  0.001000257    1.838    0.456
       395  -8.0767     64.3514     82.2465   5.7296082460e+01   5.2991099544e+01    0.2085717    0.1370876 -67.82 0.0003988126    1.616    0.381
       396  -9.5804     24.6064     80.5040   7.3560018224e+01   5.8239276023e+01    0.4599953    0.2451022  79.38  0.001356557    2.387    0.581
       397  -9.4342     10.0044     80.9585   7.9977335440e+01   5.9150199072e+01    0.3897996    0.1787476  54.11  0.001471198    2.472    0.595
       398  -8.8216     74.8544     80.3422   5.2726950048e+01   5.1703514283e+01    0.3300058    0.2124929 -70.24 0.0008185786    1.888    0.470
       399  -8.1890    166.8067     79.5434   2.6650158996e+01   3.1386912399e+01    0.2397608    0.1667051 -40.09 0.0004893274    1.385    0.278
       400  -8.2651    150.4245     80.2763   3.0288632169e+01   3.5177384192e+01    0.2174471    0.1409129 -48.47 0.0006261663    1.592    0.372
       401  -8.7984    119.3122     79.8680   3.7971711560e+01   4.2624966509e+01    0.2956379    0.2312016 -68.59 0.0008604981    1.505    0.335
       402  -8.3690    184.3760     77.8480   2.2961386201e+01   2.7543200597e+01    0.2090853    0.1356481 -21.87 0.0006917695    1.681    0.405
       403  -7.8650    157.3444     76.1447   2.7567458811e+01   3.4254684571e+01    0.2260248    0.1312416 -46.02 0.0005050557    1.742    0.426
       404  -9.3729    128.0398     75.1509   3.4114900411e+01   4.1533121757e+01    0.3684384    0.2772647 -68.62 0.0006553276    1.625    0.385
       405  -8.5506    140.6118     75.1367   3.0978878717e+01   3.8505606185e+01    0.2456259    0.1834909 -53.84 0.0005531982    1.418    0.295
       406  -9.6149     82.6480     72.6031   4.7453594800e+01   5.2077571112e+01    0.4910931    0.3169413 -73.97  0.001023859    2.290    0.563
       407  -9.8847     63.2030     73.6118   5.5315247729e+01   5.5291985342e+01    0.4389388    0.2913898 -70.42 0.0009913729    1.727    0.421
       408  -8.2358    163.4859     73.0519   2.5406438560e+01   3.3301026333e+01    0.2353759    0.1438356 -38.18 0.0009906359    1.572    0.364
       409  -7.9431    151.4758     73.4385   2.7995391055e+01   3.6165653823e+01    0.1530376    0.1479987 -68.71 7.537958e-05    1.036    0.035
       410  -8.7223    115.7620     72.7009   3.6688567849e+01   4.4921070038e+01    0.3117315    0.2063705 -51.39  0.000684556    1.587    0.370
       411  -8.2711     42.7094     72.5974   6.3827667499e+01   5.8426131252e+01    0.2450396    0.1701727 -89.78 0.0007406487    1.730    0.422
       412  -7.5494    175.6639     72.2886   2.2912514201e+01   3.0490838432e+01    0.1524632    0.1128696 -69.34 0.0004506836    1.633    0.388
       413  -9.1650    105.9706     71.5961   3.9242997200e+01   4.7391338958e+01    0.3002088    0.2139288 -61.89 0.0007540034    1.638    0.389
       414  -9.1440     95.2124     71.1054   4.2549812862e+01   4.9852717681e+01    0.3718504    0.2539809 -63.82  0.001040315    1.771    0.435
       415  -9.5445     51.3809     69.4528   5.9120074684e+01   5.8082150596e+01    0.4845725    0.2638837 -74.19  0.001497546    2.436    0.590
       416  -9.0140     16.5839     69.6461   7.5295871060e+01   6.1648869176e+01    0.2910637    0.1882317  77.26  0.001025598    1.717    0.418
       417  -8.6887    147.0581     67.7480   2.7185580214e+01   3.8266868155e+01    0.3457471     0.196825 -50.05 0.0008433054    1.902    0.474
       418  -8.5932    138.6952     65.7219   2.8426360862e+01   4.0709439689e+01    0.3609578    0.1983495 -48.47 0.0007048622    1.936    0.483
       419  -8.7287    121.4673     65.7908   3.2786195343e+01   4.4934442271e+01    0.2920966    0.2382099 -80.80 0.0006930144    1.467    0.318
       420  -8.4607     64.0558     63.8635   5.1888771452e+01   5.7472927989e+01    0.4977198    0.2206252 -33.86  0.001554281    3.684    0.729
       421  -8.7397     37.2917     63.8489   6.4037395970e+01   6.1250132858e+01     0.327372    0.2152247  78.11  0.001237143    2.098    0.523
       422  -8.8651    110.2256     63.3255   3.5118591447e+01   4.8098014781e+01    0.3271452    0.2393584 -53.08  0.000807976    1.449    0.310
       423  -7.9606     95.3387     64.3152   4.0174417036e+01   5.1277873803e+01    0.1589367    0.1237811   4.05 0.0003576622    1.700    0.412
       424  -8.0041    158.4384     61.5460   2.2880707746e+01   3.6474427564e+01    0.1519969    0.1439379 -61.62 7.577982e-05    1.037    0.035
       425  -9.1517     97.7144     60.4106   3.7982275167e+01   5.1558478575e+01    0.3160149    0.2484507  63.79  0.001007001    1.409    0.290
       426  -9.7312     73.4007     59.5030   4.6512978895e+01   5.6796055422e+01    0.4479397    0.2832167 -61.22  0.001114223    1.858    0.462
       427  -7.9550    146.9971     58.9742   2.4367174866e+01   3.9792486019e+01    0.1884299    0.1748584 -41.73 0.0004422314    1.068    0.063
       428  -7.8957     89.1865     59.4050   4.0522292031e+01   5.3633978686e+01    0.2084021    0.1452842  57.96 0.0004190737    1.603    0.376
       429  -9.8153     23.5143     56.2321   6.8968641404e+01   6.4510813927e+01    0.4984133    0.2825722  75.80  0.002113009    2.665    0.625
       430  -9.3732      7.5665     57.0242   7.7573356939e+01   6.5390273643e+01    0.3139019    0.1895743  70.39   0.00129066    1.935    0.483
       431  -8.3773    130.8006     57.1841   2.7424986330e+01   4.4206464295e+01    0.2388416     0.204284 -67.78 0.0006212359    1.262    0.208
       432  -8.0270    139.9971     55.9710   2.4876852149e+01   4.2079341430e+01    0.2414184    0.1788966 -65.70 0.0004467145    1.572    0.364
       433  -8.8350    119.1563     55.6273   2.9841002546e+01   4.7396172393e+01     0.320149    0.2243404 -61.62 0.0007535296    1.722    0.419
       434  -8.6879     44.0358     55.5120   5.8245728736e+01   6.2455409349e+01     0.260874    0.1957975 -77.05  0.001012095    1.544    0.352
       435  -9.2625     62.8903     53.9538   4.8879669132e+01   5.9928205384e+01    0.4873612    0.2308038 -57.86  0.001721295    2.476    0.596
       436  -8.9760     54.2739     53.7507   5.2714673758e+01   6.1392087470e+01    0.3877609    0.2417274 -76.02  0.001357261    2.491    0.598
       437  -7.8686    163.3072     53.3018   1.9385086668e+01   3.6548377693e+01    0.1503204    0.1163258  24.29 0.0003965854    1.599    0.375
       438  -8.3391    105.7921     53.0512   3.2688125596e+01   5.1121396997e+01    0.2398843    0.2060357 -70.07 0.0006011649    1.308    0.235
       439  -9.4787     92.5679     50.5653   3.5964636514e+01   5.4664413183e+01     0.415031    0.2740988 -59.25  0.001054663    1.879    0.468
       440  -8.1002    144.6690     48.7935   2.1431488189e+01   4.2041445896e+01    0.2164168    0.1321974 -41.65  0.000465464    1.612    0.380
       441  -8.1803    129.9569     48.9681   2.4709646054e+01   4.5818053934e+01     0.247484    0.1804253 -65.46   0.00056821    1.627    0.385
       442  -9.2051     82.3503     46.4030   3.7923378552e+01   5.7716434941e+01     0.360283    0.2693322 -67.94 0.0007519225    1.742    0.426
       443  -7.8061    120.5647     47.4988   2.6468318425e+01   4.8461291613e+01    0.1528078    0.1486856 -78.08 0.0001464528    1.033    0.032
       444  -8.6167    112.1541     46.7203   2.8410347844e+01   5.0706171277e+01    0.2621867    0.2041824 -50.58 0.0007691692    1.349    0.259
       445  -8.4716     45.0975     44.5816   5.3779277103e+01   6.4833790672e+01    0.2344412    0.1854017 -62.68  0.000645342    1.343    0.256
       446  -8.8027     16.7945     44.4573   6.9597104232e+01   6.7931510930e+01     0.241212    0.1891668  79.54  0.000617996    1.496    0.332
       447  -8.2258    132.8060     42.8013   2.1813794785e+01   4.6062951857e+01    0.2118712     0.173815 -64.87 0.0003580704    1.311    0.237
       448  -8.5204     92.8315     42.7542   3.2687335746e+01   5.6056620520e+01    0.2595236    0.1619072  15.14 0.0009482632    2.784    0.641
       449  -9.4539     69.8255     41.4701   4.0797661097e+01   6.1259505730e+01    0.4207315    0.3002977 -69.22   0.00133086    1.999    0.500
       450  -8.8608     58.3388     42.4855   4.6363361810e+01   6.3188930548e+01    0.2976543    0.2406471 -74.72  0.001072723    1.589    0.371
       451  -9.3063      5.2881     42.1596   7.5938891124e+01   6.9180231593e+01    0.3193505    0.1989821  83.83  0.001297042    1.841    0.457
       452  -8.2792    140.3813     41.1817   1.9633353512e+01   4.4322403463e+01    0.2198046    0.1315584 -43.34 0.0004635523    1.672    0.402
       453  -8.7648    106.0167     40.8776   2.7815262602e+01   5.3216964585e+01     0.275117    0.1866937 -51.01 0.0006440906    1.624    0.384
       454  -8.3543     36.8709     40.3913   5.6570205854e+01   6.6879449835e+01    0.2274521    0.1828989 -66.15 0.0007352842    1.344    0.256
       455  -7.5382    160.6837     39.3838   1.5341407034e+01   3.9251544172e+01    0.1663902    0.1037261 -60.57 0.0007019772    1.825    0.452
       456  -8.8311     95.7875     37.9348   2.9672406009e+01   5.6197544683e+01    0.2820372    0.1997768 -54.73 0.0007329612    1.631    0.387
       457  -8.4817     80.8760     36.5905   3.4218139159e+01   5.9859881438e+01    0.2861172    0.1854701 -53.73 0.0007621783    1.838    0.456
       458  -7.5592    133.6578     36.3032   1.9225848178e+01   4.6807718128e+01    0.1604029    0.1135694 -69.19 0.0007039675    1.680    0.405
       459  -9.1659     26.2058     35.2903   6.0863769923e+01   6.9255805165e+01    0.2966479     0.218991 -81.27  0.000909979    1.706    0.414
       460  -8.0818    126.0481     35.3124   2.0489143666e+01   4.8956330899e+01    0.2074781    0.1917055  66.61 0.0004242155    1.054    0.051
       461  -8.6080    111.9200     34.4267   2.3541448744e+01   5.2755490589e+01    0.2941435    0.1960371 -48.51 0.0007215391    1.618    0.382
       462  -8.0520    104.6593     34.3235   2.5464032535e+01   5.4609276193e+01    0.1576191    0.1171108 -71.94 0.0007050888    1.726    0.420
       463  -8.8256     48.5600     33.0576   4.7006280171e+01   6.6762963877e+01    0.2591591    0.2184351 -71.47 0.0007499658    1.497    0.332
       464  -8.4084    119.3887     33.1758   2.1177881459e+01   5.1010487100e+01     0.220591    0.1325646 -42.87 0.0005853973    1.711    0.415
       465  -8.5953     60.7631     32.4762   4.0677956308e+01   6.4736519368e+01    0.2540597    0.2162188 -73.19 0.0007477604    1.515    0.340
       466  -9.0068     72.1216     30.8536   3.4941601665e+01   6.2755342535e+01    0.3154893    0.1938325 -51.85 0.0008716022    1.946    0.486
       467  -8.6170     12.9193     30.0125   6.7595050809e+01   7.1621473132e+01    0.3444383    0.1791758 -77.60  0.001373956    2.365    0.577
       468  -8.6271    101.8328     29.4860   2.4161991102e+01   5.6050581215e+01    0.2430366    0.1993035 -61.04 0.0007321543    1.378    0.274
       469  -8.9256     81.6641     27.3616   2.9594035337e+01   6.1229311489e+01    0.2920834     0.227523 -69.34 0.0007623071    1.692    0.409
       470  -8.7366      3.9102     27.4621   7.3109413473e+01   7.2745623986e+01    0.2231474    0.1634668 -89.18 0.0006165633    1.537    0.349
       471  -8.9375     91.8923     26.2578   2.5643588749e+01   5.8981605076e+01    0.3147028     0.193641 -47.24 0.0007260731    1.822    0.451
       472  -8.5585    104.4832     22.4946   2.0321752506e+01   5.6356773147e+01    0.1466902    0.1414211  57.09 0.0008103912    1.014    0.014
       473  -8.9579     63.8307     21.1606   3.3475910680e+01   6.6102202661e+01    0.2961834    0.1857458 -48.59  0.000934214    1.863    0.463
       474  -8.7282     48.5346     21.4461   4.1087625213e+01   6.8974153450e+01    0.2349545    0.2152319 -22.72 0.0006876899    1.075    0.070
       475  -7.7203     34.3386     22.6855   5.0049833872e+01   7.0965419235e+01    0.1265837    0.1076969  77.11 0.0007047352    1.698    0.411
       476  -8.5688    121.0057     21.3403   1.5979718105e+01   5.2173146113e+01     0.205525    0.1879996  72.87 0.0005349269    1.053    0.051
       477  -9.1059     74.3984     19.7199   2.8389385379e+01   6.4041474864e+01    0.3366385    0.2288779 -51.39 0.0009361464    1.783    0.439
       478  -7.8911     38.7678     18.0393   4.4753488601e+01   7.1199850133e+01    0.1716986    0.1049062 -42.16 0.0003589482    1.567    0.362
       479  -8.2527     87.8885     17.2078   2.2481718003e+01   6.1215632203e+01    0.2136718    0.1933778 -67.73 0.0005838848    1.252    0.201
       480  -7.7980    112.5826     16.5331   1.5732052575e+01   5.4986567975e+01    0.1441122    0.1389094  70.63 8.729681e-05    1.020    0.020
       481  -8.4108     97.4489     15.0200   1.8677883650e+01   5.9100294137e+01    0.2124233    0.1410337 -28.94 0.0005091928    1.557    0.358
       482  -7.8281     30.0246     15.5281   4.8936752991e+01   7.2937921847e+01    0.1671958    0.1105923  55.84  0.000807296    2.369    0.578
       483  -7.8072      7.6691     15.3406   6.5824400422e+01   7.5259647100e+01    0.1193935   0.09408942  65.20 0.0007051552    1.745    0.427
       484  -7.5738    119.6702     11.2918   1.2021896789e+01   5.3677917228e+01    0.1514693    0.1059193 -66.09 0.0002998275    1.626    0.385
       485  -9.5889    201.9897    244.8572   5.2786756720e+01  -1.6869941608e-01    0.4435196    0.2154714 -33.75  0.002804398    2.370    0.578
       486  -7.7601     76.6470     10.2979   2.2455294279e+01   6.4786864934e+01    0.1406491    0.1097603 -71.28 0.0004835354    1.693    0.409
       487  -7.9805    191.7166    249.6003   5.5148296085e+01   5.5775428315e-01    0.1453654   0.07733341  36.18 0.0006055526    1.618    0.382
       488  -9.1657    175.4937    247.4377   5.7724774086e+01   2.7965146703e+00    0.2400327    0.1965716  61.17  0.001197204    2.093    0.522
       489  -8.9153    156.3326    248.0488   6.1273117779e+01   5.1470627338e+00    0.2219761    0.1542417  57.41 0.0008854235    2.169    0.539
       490  -9.2348    103.8086    246.5652   7.1128360165e+01   1.2062731577e+01    0.3508286    0.1992815 -88.18  0.001925589    3.264    0.694
       491  -8.4099     93.8245    249.2069   7.3288948003e+01   1.2909184047e+01    0.1911339   0.08138555  55.83 0.0009431167    2.825    0.646
       492  -9.2848    242.7273    246.4052   4.6450319551e+01  -4.9253024367e+00    0.2665397    0.1137111 -25.49  0.001345051    2.312    0.568
       493  -9.0020    218.7746    246.8964   5.0275998711e+01  -2.3410677363e+00    0.2815188    0.1279171 -30.92  0.001784547    2.404    0.584
       494  -8.5710    132.0966    247.6225   6.5770286265e+01   8.3113275214e+00    0.1615658    0.1378079  48.61 0.0004451884    1.325    0.245
       495  -8.2374    112.7549    248.1254   6.9530212231e+01   1.0709350671e+01    0.1547848    0.1240835  61.42 0.0007551879    1.435    0.303
