#   1 NUMBER                 Running object number                                     
#   2 MAG_AUTO               Kron-like elliptical aperture magnitude                    [mag]
#   3 X_IMAGE                Object position along x                                    [pixel]
#   4 Y_IMAGE                Object position along y                                    [pixel]
#   5 X_WORLD                Barycenter position along world x axis                     [deg]
#   6 Y_WORLD                Barycenter position along world y axis                     [deg]
#   7 A_WORLD                Profile RMS along major axis (world units)                 [deg]
#   8 B_WORLD                Profile RMS along minor axis (world units)                 [deg]
#   9 THETA_WORLD            Position angle (CCW/world-x)                               [deg]
#  10 FWHM_WORLD             FWHM assuming a gaussian core                              [deg]
#  11 ELONGATION             A_IMAGE/B_IMAGE                                           
#  12 ELLIPTICITY            1 - B_IMAGE/A_IMAGE                                       
         1  -9.1546     39.5063      7.2677   9.7453891227e+01   7.4091484711e+01    0.3964668    0.2934819  34.29   0.00182341    1.325    0.246
         2 -10.2657     50.1257     36.0338   1.0724316413e+02   6.7053291118e+01      0.82458    0.6049258 -85.70  0.003775421    2.365    0.577
         3 -10.6765     39.1465     29.9464   1.1103332576e+02   6.9915520384e+01    0.8171696    0.3875108 -52.11  0.003219285    2.074    0.518
         4 -11.8257     44.0506     21.0581   1.0320739877e+02   7.0974599421e+01     1.291785     1.044851  78.53  0.006754292    2.063    0.515
         5  -9.1921     12.1344     33.5674   1.3112085573e+02   7.1537715961e+01    0.5068929    0.2601345 -71.48  0.002461171    1.859    0.462
         6 -11.6943    128.2377     15.3581   6.9121667419e+01   5.1797313910e+01     1.497921    0.9920743 -44.21  0.007017551    1.597    0.374
         7 -12.0049    131.7525      3.3996   6.3640581284e+01   5.1974577238e+01     2.602261    0.7267517  76.56  0.007586883    3.861    0.741
         8 -10.7732    121.1604      3.7908   6.5501420249e+01   5.4899398103e+01    0.7366088    0.5286942  79.61  0.002702364    1.317    0.241
         9 -11.6729    109.3286      4.2507   6.7940581574e+01   5.8129260713e+01     2.195408    0.5085993  69.30  0.006162846    4.084    0.755
        10 -12.4775    156.5596     19.9643   6.6242788293e+01   4.3406112348e+01     1.623638     1.001974  44.29  0.006284078    1.796    0.443
        11 -13.5260    169.3169     16.6746   6.3473671070e+01   4.0283588613e+01     3.429443     1.385838  77.81   0.01268409    2.552    0.608
        12 -12.8542    169.7548      5.4658   5.9789314254e+01   4.1286340875e+01     2.696052    0.7738673  76.81  0.008799243    3.368    0.703
        13 -10.5933     71.5850      5.4013   7.9295769470e+01   6.7767137785e+01    0.7556045    0.4539216  47.94  0.003018956    1.476    0.323
        14 -10.6382     76.9489     19.2728   8.5282680608e+01   6.4747880984e+01    0.5582299    0.4073438 -31.33  0.002830311    1.432    0.302
        15 -10.4927     79.2188     12.5701   8.0670874251e+01   6.5102015469e+01    0.6639025    0.4327089  55.90  0.002722343    1.448    0.310
        16 -11.3366     84.2485      3.8114   7.3998353086e+01   6.4821074163e+01    0.9755409    0.5276483  54.79  0.003443066    1.601    0.375
        17 -10.2752    116.4296     15.9532   7.1775468505e+01   5.5001969713e+01     1.003898    0.4144664 -34.87  0.003792154    2.453    0.592
        18  -9.8282     93.7632     17.8848   7.8622495147e+01   6.0815969101e+01    0.5057463    0.4219918 -55.48  0.002084164    1.388    0.280
        19 -10.6021    248.9242     15.7690   5.6637221868e+01   2.1421688869e+01    0.5172505    0.2140671 -31.69  0.002574749    1.950    0.487
        20  -9.7844     64.4686     16.8576   8.9356448488e+01   6.7875873520e+01    0.3804129    0.2421465 -48.41  0.001772725    1.971    0.493
        21  -8.8965     69.4480     14.1111   8.5464674302e+01   6.7181229159e+01     0.358141    0.2530709 -74.84  0.001580252    2.509    0.601
        22  -8.7263     20.7592     13.9867   1.1645448729e+02   7.5323745780e+01    0.4403396    0.1867107 -47.40  0.002026846    2.017    0.504
        23  -9.9735    103.8698     12.0011   7.2892013971e+01   5.8848065296e+01     0.463316    0.4350086  -5.32  0.001996515    1.149    0.130
        24 -10.7786    200.2290      8.0055   5.7910787432e+01   3.3155373613e+01    0.4345527     0.178079  75.40  0.001812816    2.348    0.574
        25 -10.7771    248.6491      5.4105   5.4324400611e+01   2.2523528112e+01    0.5668054    0.4498706   1.44  0.003706766    1.726    0.420
        26  -9.8565    229.9016      6.1099   5.5468424504e+01   2.6408436574e+01    0.2904705    0.1671008 -67.46  0.001218888    1.611    0.379
        27  -8.5326     49.7799      6.0663   9.0096646598e+01   7.2414044997e+01    0.2860138     0.174934  12.89  0.001081298    2.055    0.513
        28  -8.3230     51.9918      1.9828   8.5943138313e+01   7.2505941151e+01    0.2935396    0.2198033  18.80  0.001119973    1.275    0.215
        29  -8.3255     26.6682      3.0016   1.0423678532e+02   7.6721161107e+01     0.186655    0.1478924 -26.16  0.001148222    1.155    0.134
        30  -9.1702     55.0826      7.9440   8.8456415923e+01   7.1100773135e+01    0.3134174    0.1941545  65.10   0.00140056    2.398    0.583
        31  -8.5824     16.7632      1.7121   1.1247947120e+02   7.8112479622e+01    0.2322284    0.1535409  30.39  0.001345695    1.643    0.392
        32 -10.0642     60.8093      2.4863   8.1924421519e+01   7.0563363852e+01     0.644066    0.3677991  49.62  0.003130127    1.583    0.368
        33  -8.3314     40.4709      1.4650   9.2494532540e+01   7.4789184253e+01    0.2631171     0.120736  43.56  0.001189076    2.099    0.524
        34  -9.4958     48.4400     61.8754   1.1801708673e+02   6.1345420083e+01    0.4967657    0.3280046   5.65  0.002276869    1.879    0.468
        35  -8.9593    198.6863     54.9563   7.1231913060e+01   2.7886124321e+01    0.2399883     0.209721  81.74  0.000549543    1.188    0.159
        36  -7.8635     34.9527     52.5083   1.2232134012e+02   6.5215148085e+01    0.2008778    0.1380004  19.42  0.001020165    1.553    0.356
        37  -7.8062     23.4453     52.4941   1.2893051295e+02   6.6219848012e+01    0.1385629     0.118215 -47.91 0.0001992122    1.044    0.042
        38 -10.1710     84.3688     48.1135   9.6231128439e+01   5.8123504959e+01    0.6525305    0.4790531  57.81  0.003034757    1.520    0.342
        39 -10.4277     81.8681     39.3513   9.3384369078e+01   6.0344181518e+01    0.6752441    0.4465819 -38.04   0.00309687    1.548    0.354
        40  -8.7078    110.9072     45.9955   8.6082032137e+01   5.2187082370e+01    0.3398513    0.2208838 -13.93  0.001365744    2.077    0.518
        41  -8.5990     97.5987     44.1872   8.9624687326e+01   5.5816152582e+01    0.2146659    0.1508459 -22.95 0.0005829911    1.617    0.381
        42 -10.3243      3.7120     39.6424   1.3828523817e+02   7.0373609059e+01    0.5880044    0.4428625 -77.17  0.002604196    1.230    0.187
        43  -8.4953    158.5010     41.4962   7.3329814287e+01   4.0139539327e+01    0.1518871    0.1457581  81.99 0.0008105343    1.027    0.026
        44  -9.5439    183.0179    245.9768   1.1399445337e+02   1.4776481514e+00    0.1880232    0.1084664  10.60  0.001134713    1.707    0.414
        45 -10.9487    173.5488    242.9767   1.1539887349e+02   3.0692969284e+00    0.4155906    0.1719459  31.10  0.002206791    1.809    0.447
        46  -9.5064    162.8292    243.6940   1.1755461625e+02   4.3953382174e+00    0.1692405    0.1477035 -58.53  0.001161785    1.821    0.451
        47  -9.6391    159.6390    239.9179   1.1771898847e+02   5.3168920709e+00    0.2526487    0.1339998  35.06  0.001477197    1.444    0.307
        48  -8.3162    108.0000     39.9403   8.4454076775e+01   5.3949123193e+01    0.2549241   0.09001637 -33.41 0.0006251397    2.967    0.663
        49  -8.4712    147.3270     39.3175   7.4642326924e+01   4.3488065064e+01    0.1612716     0.115464  31.59 0.0004333753    1.677    0.404
        50  -8.9594     69.1114     36.7150   9.7719970608e+01   6.3529031843e+01    0.4440133    0.3655513  73.96  0.002235789    1.637    0.389
        51  -9.5752     66.6463     30.1065   9.5620010857e+01   6.5245140846e+01    0.5496183    0.3181717 -32.93  0.001928156    1.789    0.441
        52  -8.5275     27.1211     35.2245   1.2127224644e+02   7.0092846539e+01    0.2342476    0.1991342 -67.07 0.0008498475    1.266    0.210
        53 -10.4282    210.7046    224.4027   1.0591062072e+02   4.4813973704e-01    0.2799345     0.174855  10.45  0.001796436    1.348    0.258
        54 -10.3909    225.2447     29.1435   6.1481690422e+01   2.4984723557e+01     0.398947    0.3498714  62.93  0.001376084    1.310    0.237
        55  -9.9054    201.6148    225.8410   1.0777333288e+02   1.4656216329e+00    0.2805069    0.1068226  23.52  0.001245499    2.752    0.637
        56  -8.8146    238.5184    203.4825   9.7789910183e+01  -6.9770988106e-01    0.1177697   0.08441396   3.79 0.0008099654    1.029    0.029
        57 -11.8668     10.6288    140.7285   1.4493335870e+02   4.4235441997e+01    0.7685211    0.4546463  89.03  0.004166752    1.493    0.330
        58  -9.6440     40.5100    141.9999   1.3579933885e+02   4.1359541377e+01    0.3611894     0.232328  66.44  0.001830992    1.509    0.337
        59 -12.5670    240.7231    133.1332   8.4125304279e+01   7.9589608777e+00     1.333311    0.9079764  39.99  0.005222129    1.614    0.380
        60 -11.2506     12.0566    126.8037   1.4369226925e+02   4.7624210487e+01    0.6156304    0.1964482 -64.22  0.002452743    2.777    0.640
        61  -8.1009     22.7518    125.5800   1.4004180426e+02   4.7178116125e+01    0.1843797    0.1122535  39.13 0.0007691302    1.577    0.366
        62  -8.2441     18.3237    127.6515   1.4168675942e+02   4.6979360241e+01    0.1484753   0.08058818  59.69 0.0007049264    1.747    0.428
        63 -10.0683     17.3341    104.2724   1.4005310728e+02   5.3116593030e+01    0.4100053    0.3131597 -72.57  0.002353308    1.178    0.151
        64  -9.4190     30.1249    102.1203   1.3482011563e+02   5.2741151956e+01    0.2273023    0.1765604 -50.54  0.001017023    1.308    0.236
        65  -9.1022     47.1551     98.8709   1.2749206608e+02   5.1918920980e+01    0.2300922    0.1943131  68.50 0.0009705223    1.207    0.172
        66  -8.9342    104.6445     25.9596   7.9276182540e+01   5.6928976124e+01    0.4203362     0.292449  67.30  0.001942746    1.469    0.319
        67 -10.0241     87.8006     30.1981   8.6758788239e+01   6.0541663711e+01    0.6301604    0.4084656  13.64  0.002602593    2.195    0.544
        68  -8.8413     20.9298     22.7609   1.2064989686e+02   7.3444920574e+01    0.3904528    0.2442534  50.33  0.001941883    2.295    0.564
        69 -12.1439     43.3441     82.4186   1.2581783524e+02   5.6697138698e+01     1.229203     1.058206  -8.22   0.00610862    1.296    0.228
        70  -8.8236    110.9799     16.3174   7.3187843858e+01   5.6449312452e+01    0.2689267    0.2137226  65.11 0.0006184902    1.171    0.146
        71  -8.8551      2.2897     89.3259   1.4475654060e+02   5.7765286969e+01    0.3152274    0.1925726  77.64  0.001674133    1.524    0.344
        72  -7.4760     83.3037     89.3609   1.1098178949e+02   4.8985027041e+01    0.1637889    0.1222883 -19.93 0.0007038115    1.727    0.421
        73 -10.3136     24.6725     65.5807   1.3123730392e+02   6.2800185541e+01    0.8667895     0.322691 -50.58  0.003440123    2.324    0.570
        74  -7.7559      7.8366     17.0174   1.2910644755e+02   7.5572715931e+01    0.2272931   0.09576074 -43.59  0.001078382    1.914    0.478
        75  -9.2041    227.1834     15.0626   5.7823994353e+01   2.6099846958e+01    0.3287879    0.1811051 -76.30  0.001669887    1.892    0.472
        76 -11.0354      3.8496     76.9719   1.4307994411e+02   6.0909835158e+01    0.7467627    0.7002656 -67.85  0.003766155    1.107    0.097
        77  -9.7581     13.5645     77.2977   1.3863983607e+02   6.0422639358e+01    0.3600585    0.2385442 -47.30  0.001862756    1.453    0.312
        78  -7.4276     13.6394     15.2788   1.2327996493e+02   7.5628055736e+01    0.1186968   0.09491452  51.03 0.0007011784    1.667    0.400
        79 -11.0749     12.7325     71.2268   1.3822770942e+02   6.2046784403e+01    0.9801284    0.4771985  51.23  0.004377585    2.379    0.580
        80  -8.5471    125.2284     28.7167   7.5231599068e+01   5.1019213170e+01    0.2977604     0.255631  13.64  0.001512438    1.320    0.243
        81  -8.7792     97.4923     27.6815   8.2237645738e+01   5.8531677382e+01     0.416743    0.2697499 -14.58  0.001818433    1.869    0.465
        82  -8.7493     78.2812     78.3305   1.0970311420e+02   5.2610002508e+01    0.3349909    0.2463846  56.35  0.001522753    1.532    0.347
        83  -9.2979    227.2456     79.0726   7.3720466315e+01   1.8089286421e+01    0.4363286    0.2779754  43.76   0.00225397    1.811    0.448
        84 -10.0192     74.1223     68.5802   1.0828497055e+02   5.5703454317e+01    0.4880749    0.4032868 -66.44  0.002422055    1.326    0.246
        85  -7.7886     38.6207     71.7145   1.2558887068e+02   5.9990494483e+01    0.1525054   0.09966462 -30.19 0.0005295773    1.728    0.421
        86  -8.9602     83.0674     69.0387   1.0476145914e+02   5.3898386362e+01    0.3385809    0.2595966  78.87  0.001506264    1.782    0.439
        87 -10.5250     75.3454     27.0599   9.0106178937e+01   6.3921918661e+01     0.877492    0.4986122  53.49  0.003807877    1.819    0.450
        88  -9.3193     16.4674     63.8082   1.3518068047e+02   6.3778786649e+01    0.4019126    0.1245925 -75.50  0.001422781    3.047    0.672
        89  -9.1393     69.2771     61.1228   1.0780382006e+02   5.8315837816e+01    0.2920243    0.2208276 -71.34  0.001362451    1.631    0.387
        90  -7.8745     88.5058     61.5269   9.9930139351e+01   5.4453822837e+01    0.1554967    0.1518238  17.28 0.0008100508    1.002    0.002
        91  -8.3796     76.2794     60.1502   1.0438240392e+02   5.7241575698e+01    0.2820394    0.2139603  25.22   0.00133239    1.410    0.291
