#   1 NUMBER                 Running object number                                     
#   2 MAG_AUTO               Kron-like elliptical aperture magnitude                    [mag]
#   3 X_IMAGE                Object position along x                                    [pixel]
#   4 Y_IMAGE                Object position along y                                    [pixel]
#   5 X_WORLD                Barycenter position along world x axis                     [deg]
#   6 Y_WORLD                Barycenter position along world y axis                     [deg]
#   7 A_WORLD                Profile RMS along major axis (world units)                 [deg]
#   8 B_WORLD                Profile RMS along minor axis (world units)                 [deg]
#   9 THETA_WORLD            Position angle (CCW/world-x)                               [deg]
#  10 FWHM_WORLD             FWHM assuming a gaussian core                              [deg]
#  11 ELONGATION             A_IMAGE/B_IMAGE                                           
#  12 ELLIPTICITY            1 - B_IMAGE/A_IMAGE                                       
         1 -13.5504    231.1267     46.7375   3.5563038005e+02   2.4209741604e+01    0.8830681    0.7951251  44.57   0.00646384    1.549    0.354
         2 -13.3569    216.2695     56.1850   3.5901249528e+02   2.5733202672e+01     1.085032    0.9926596   4.38  0.005244148    1.474    0.322
         3 -11.4671      2.5540     23.7908   5.4956366437e+01   7.5240060319e+01    0.4632912    0.2653562 -51.00  0.002499701    1.543    0.352
         4 -10.5469      9.2663     12.6701   4.3023803070e+01   7.6843847155e+01    0.2144473     0.154768 -58.34 0.0008860959    1.675    0.403
         5 -10.5620      1.8616      9.5191   4.8212832004e+01   7.8177896790e+01    0.4128123    0.1333708 -51.07  0.001680202    2.724    0.633
         6 -10.6024      2.5976      2.9516   4.2936616037e+01   7.9297168140e+01    0.2978236    0.2643027  15.42  0.001601009    1.215    0.177
         7  -8.9370    148.5029      8.4959   3.5293892997e+02   4.6377985492e+01    0.1306052    0.1128205 -78.07 0.0008105414    1.026    0.025
         8 -11.0712    119.4067    230.5672   5.1662182534e+01   1.0813957897e+01    0.2865716    0.2305287  57.99  0.001813377    1.554    0.357
         9  -9.6767     74.9821    248.4332   6.3288998099e+01   1.2826440192e+01    0.4238709    0.1256789 -52.50  0.001789269    3.978    0.749
        10 -13.8376     56.4492    233.5810   6.6330067213e+01   1.7635751352e+01     5.670171      2.24878 -43.21   0.02237892    4.229    0.764
        11 -15.7484     23.6870    180.0552   7.0834121277e+01   3.3012669857e+01     8.664473      3.06737  84.86   0.01634474    3.716    0.731
        12 -14.5806     10.3014    206.7775   7.5875143839e+01   2.7837748802e+01     1.278189    0.8643198  32.57  0.003793651    1.332    0.250
        13  -9.9604    148.2565    228.5479   4.5244856349e+01   7.6162486264e+00    0.2242208    0.1578293 -63.87  0.001305434    2.159    0.537
        14 -11.0006    106.3798    228.6120   5.4340234281e+01   1.2768650875e+01    0.2493791    0.2061718   7.46  0.001603863    1.178    0.151
        15 -11.4912     97.4944    223.4916   5.5801911710e+01   1.4829430869e+01    0.6607763    0.5135502 -71.60   0.00329462    1.577    0.366
        16 -11.3264     88.7141    223.3876   5.7847848298e+01   1.5930002789e+01    0.7042814    0.4246216  58.12  0.003626758    1.995    0.499
        17 -11.9776     81.6355    221.4361   5.9325607735e+01   1.7176786219e+01      1.03505    0.2818455  33.98  0.003393913    2.767    0.639
        18 -10.6668    173.5009    224.4371   3.9629697261e+01   5.2320501406e+00    0.3723496    0.1820796  11.42   0.00140318    2.551    0.608
        19  -9.6458     67.0547    221.4484   6.2831652392e+01   1.8897042165e+01    0.2013573    0.1815332 -85.28 0.0003378485    1.245    0.197
        20 -10.2858     72.1553    225.9865   6.2020777446e+01   1.7386947160e+01    0.3335199    0.2069936  39.47  0.001241838    1.355    0.262
        21 -11.0291     72.8469    208.7956   6.0183414596e+01   2.0876126792e+01    0.4116626    0.2670719 -83.28  0.001423509    1.870    0.465
        22  -9.2716     95.8652    210.6485   5.4696594013e+01   1.7583395640e+01    0.2318492    0.1976248 -86.70 0.0006679268    1.401    0.286
        23 -10.1161    103.7491    203.7284   5.1902221423e+01   1.7962647648e+01    0.2339244    0.2185124   3.70 0.0003741928    1.083    0.076
        24  -9.5081    210.9925    199.0049   2.8859117722e+01   4.5970174857e+00    0.1777038    0.1383973 -11.54 0.0004750184    1.005    0.005
        25 -11.0402     96.5571    196.0872   5.2670486411e+01   2.0555591045e+01      0.38744    0.3363345  78.70  0.001344691    1.322    0.244
        26 -10.7812    102.4314    193.3328   5.0807555190e+01   2.0336286439e+01    0.3824483    0.2713809  27.41  0.002027924    1.312    0.238
        27 -11.6972    107.7628    190.5862   4.9072122843e+01   2.0171359123e+01    0.4088106    0.3490514   4.04   0.00235611    1.206    0.171
        28  -9.0237    207.4849    189.9862   2.7930896765e+01   6.3623893986e+00    0.1794199    0.1006011 -34.94  0.001019499    1.555    0.357
        29  -8.7850    192.6497    194.3467   3.1284348792e+01   7.5599202266e+00    0.1088369    0.1002634  86.84 0.0007039986    1.817    0.450
        30 -11.1360    113.0878    195.7731   4.8518225601e+01   1.8320161079e+01    0.5479382    0.3016131  -9.80  0.001931719    3.898    0.743
        31  -9.4474     52.4970    186.3710   6.3260982549e+01   2.8446666053e+01    0.3272324    0.1402952  35.22  0.001381604    2.001    0.500
        32 -10.0881    100.3615    183.4828   4.9904982555e+01   2.2796144373e+01    0.3493979    0.2610328  52.71  0.001446374    1.424    0.298
        33 -11.3419    115.5055    181.2983   4.5695201672e+01   2.1035609794e+01    0.3897465    0.2742845  56.47  0.001931678    1.713    0.416
        34 -12.9673     70.3654    127.7622   4.9196038222e+01   4.1148640883e+01     3.648165     1.828859  67.23  0.001274459    4.215    0.763
        35 -11.6262     69.4663    164.7205   5.5743650713e+01   3.1670848536e+01     1.016463    0.5111889  85.06   0.00333335    3.732    0.732
        36 -13.8853     69.7314    148.5550   5.3180592416e+01   3.5780977774e+01     2.310146     1.250983  81.11  0.002279521    3.227    0.690
        37 -11.0816     81.4752    142.6281   4.8453185514e+01   3.5542846983e+01    0.4530054     0.414885  66.86 0.0005840458    1.101    0.092
        38 -11.5765     53.9322    161.0286   5.9950500259e+01   3.4637932043e+01    0.5625669    0.3581673 -16.04  0.002384424    2.369    0.578
        39  -9.9188    176.3963    169.2148   2.9862398309e+01   1.4072121753e+01    0.1864582    0.1184644 -49.59  0.000955235    1.705    0.414
        40 -10.2367    180.4938    166.6472   2.8581347492e+01   1.3911381643e+01     0.398948    0.1952766 -50.46  0.001774117    2.337    0.572
        41  -9.3994    110.7023    167.4763   4.4600165549e+01   2.4846519876e+01    0.2533799    0.2245565 -84.45 0.0005987911    1.291    0.225
        42  -8.6808    101.6093    167.2249   4.6982839776e+01   2.6332977750e+01    0.1926171    0.1333521 -45.46 0.0002851986    1.505    0.336
        43  -9.1188     59.5642    164.2234   5.8644753085e+01   3.3106311822e+01    0.2696643    0.1436933 -76.22 0.0008955026    2.076    0.518
        44 -10.4067    238.2016    159.0646   1.7664101228e+01   7.1076769705e+00    0.1864615    0.1286589 -18.19 0.0007859498    1.280    0.218
        45 -11.4121     59.4494    157.0508   5.7704592230e+01   3.4973639456e+01    0.4222413    0.3576513 -10.67  0.001389956    1.404    0.288
        46 -11.4072    238.0385    148.9336   1.5817503058e+01   8.5986728039e+00    0.4362397    0.1323286 -36.51   0.00189709    2.623    0.619
        47  -8.3781    112.1882    150.3627   4.1019886397e+01   2.8553208136e+01    0.1951381    0.1344598  45.20 0.0001999494    1.482    0.325
        48  -9.1807    134.4353    148.7833   3.4981344735e+01   2.5034089282e+01    0.2725531    0.1415615 -53.95 0.0009470893    2.052    0.513
        49 -10.3221    108.8939    145.4866   4.0944736272e+01   3.0268345491e+01    0.2763921    0.2665462 -74.78 0.0007190719    1.068    0.063
        50 -10.2823     37.0180    143.0234   6.3153682551e+01   4.1391097317e+01    0.4535797     0.267985  76.31 0.0008985481    1.920    0.479
        51 -10.0000     47.3250    147.3339   6.0254228120e+01   3.9058805147e+01    0.3312954    0.2435775  54.18  0.001464957    1.344    0.256
        52  -9.8522    116.2073    139.2534   3.7643098297e+01   3.0437021223e+01     0.280176    0.2296814 -77.81 0.0006747886    1.430    0.301
        53  -8.7099    109.8405    139.7802   3.9500296942e+01   3.1455914884e+01    0.2003095    0.1744387  87.50 0.0004166827    1.309    0.236
        54 -10.2324     95.3636    134.0116   4.2470242053e+01   3.5411812717e+01    0.4892232    0.3893295 -16.69  0.002328862    1.550    0.355
        55 -10.1915     49.0067    134.9890   5.7881987747e+01   4.2190415830e+01    0.3764725    0.2642654  84.97 0.0003375527    1.559    0.359
        56 -11.1267     42.0217    132.9780   6.0042887001e+01   4.3576846703e+01    0.5930164    0.4196678 -20.96 0.0008519001    1.819    0.450
        57 -11.2298     38.2431    128.9774   6.0818184509e+01   4.5102184929e+01    0.6536059    0.3149686  63.93 0.0003478636    2.807    0.644
        58 -11.4995     82.0244    132.0925   4.6219719623e+01   3.8158815485e+01    0.2997714    0.2843915 -40.46 0.0004400476    1.095    0.086
        59  -8.9104     34.3205    133.5948   6.2883665478e+01   4.4253705177e+01     0.185151    0.1447375   7.82 0.0009299089    1.477    0.323
        60  -9.8820    105.8300    130.8782   3.8701311324e+01   3.4307609066e+01    0.4099137    0.3170987 -66.98  0.001240144    1.400    0.286
        61  -9.1564    106.8012    126.4343   3.7412250222e+01   3.5194332978e+01    0.2770061    0.2386516  11.66 0.0009395942    1.318    0.241
        62 -14.8534     15.7439    243.3241   7.6039595902e+01   1.9722575561e+01     1.890256     1.266017  48.48  0.007402265    1.149    0.130
        63  -9.0904    136.0000    129.0434   3.0273041395e+01   2.9036274601e+01    0.2522894   0.08241506 -46.92 0.0008036355    2.951    0.661
        64  -8.2138    219.2635    126.6407   1.4065120790e+01   1.4667799902e+01    0.1246172   0.08514895 -54.13 0.0004472931    1.633    0.388
        65 -13.0434      1.9858    247.1471   7.9095049648e+01   2.0161164223e+01    0.7483552    0.2601708 -82.98  0.003732353    3.075    0.675
        66 -10.4529     93.4497    121.6345   4.0307075286e+01   3.8827703627e+01    0.3614496    0.2983665  -4.98 0.0009057519    1.496    0.332
        67 -12.9886     56.5794    144.7696   5.6824748062e+01   3.8587146837e+01    0.7994984     0.526852 -50.36  0.001086106    1.572    0.364
        68  -8.7912    114.7794    121.7888   3.4061280103e+01   3.4770339149e+01    0.2533972    0.1681991  -8.08  0.000940021    2.710    0.631
        69 -10.7665     77.0010    145.9966   5.0460396784e+01   3.5369854315e+01    0.4091523    0.3511592 -70.31 0.0004573258    1.175    0.149
        70  -9.5489     31.9830    120.2969   6.1885476533e+01   4.8165265370e+01    0.2009116    0.1897054  56.65 0.0007964275    1.077    0.071
        71 -15.4479      4.9166    215.2053   7.7506902209e+01   2.6414365183e+01     3.499942     1.457448  15.57    0.0159533    2.757    0.637
        72 -10.0723     25.0525    116.7477   6.4082333740e+01   4.9819145969e+01    0.3755698     0.244598  70.68 0.0008390365    1.664    0.399
        73  -9.5349    104.7756    116.2160   3.5560674722e+01   3.8020425617e+01    0.2437323    0.2338285 -83.18 0.0002952423    1.051    0.049
        74  -9.0370     38.7859    116.7672   5.8685301787e+01   4.8405208619e+01    0.2057353     0.164018  64.63 0.0004203918    1.302    0.232
        75 -10.6142    244.5601    115.2309   8.5259006813e+00   1.2600256955e+01    0.2523119     0.167654 -58.23  0.001547117    1.812    0.448
        76 -11.8346     26.4294    106.9347   6.2054166611e+01   5.2406750882e+01    0.7580201    0.3705788  49.63  0.003028023    2.275    0.560
        77  -9.6152    117.5083    108.7805   3.0045365219e+01   3.7201330841e+01    0.2764949    0.2176135  46.67 0.0006311157    1.303    0.233
        78  -8.9129     39.8186    107.0756   5.6524212346e+01   5.0944799153e+01    0.2218646    0.1891275  72.72 0.0003086082    1.218    0.179
        79  -9.7564     19.8876    108.8491   6.5074571867e+01   5.2456506051e+01    0.2237949    0.2054108  73.38 0.0005384618    1.081    0.075
        80  -9.1998    134.3696    105.2456   2.4789107162e+01   3.4458956670e+01    0.4114293    0.1247372 -52.13  0.001092389    4.394    0.772
        81  -8.8796     66.6755    104.6850   4.5415399341e+01   4.7793381518e+01    0.1597152    0.1196029 -23.42 0.0007042635    1.666    0.400
        82  -9.8740     12.8412    101.6617   6.7092014167e+01   5.4978403414e+01    0.3027546    0.2113644 -63.58  0.000638057    1.295    0.228
        83 -10.5139     55.1299     92.8657   4.6989532897e+01   5.2676033687e+01    0.3786645    0.2604021  52.69  0.001118138    1.613    0.380
        84 -10.8151     53.7902     87.2408   4.6057304574e+01   5.4324067678e+01    0.4766085     0.313214  63.96  0.002022343    2.010    0.502
        85  -9.4936    101.3597     88.9783   2.9168660800e+01   4.5018517310e+01    0.3738174    0.2611022 -78.11  0.001562896    1.996    0.499
        86  -8.4158     20.4998     90.4932   6.1882676068e+01   5.7440777738e+01    0.1434608    0.1336677 -82.26 -2.538258e-05    1.051    0.048
        87  -8.8531     88.8332     86.5214   3.2443070622e+01   4.8179246187e+01    0.2875329    0.1985604  89.59  0.001145899    2.253    0.556
        88  -8.4341    232.3227     86.3350   4.0057619116e+00   1.8655150289e+01     0.115784   0.08897672  -7.43 0.0007050544    1.709    0.415
        89 -11.2049     26.0947     82.8700   5.7680009175e+01   5.8970880335e+01    0.3716132    0.3235921  57.76  0.001627451    1.238    0.192
        90  -8.5029     37.0833     85.1376   5.2966570865e+01   5.7161842675e+01    0.1984246    0.1681741  72.75 0.0003569949    1.303    0.232
        91  -8.7425     73.7503     79.1898   3.5558184094e+01   5.2849643507e+01    0.3513186    0.1046473  45.56     0.001021    3.585    0.721
        92 -10.5202     49.1957     91.9633   4.9256524554e+01   5.3780233203e+01    0.3296506    0.2352214 -42.95  0.001042865    1.429    0.300
        93  -9.9983     12.3693     71.9516   6.2414343408e+01   6.3016498290e+01    0.3048045     0.219399  28.13 0.0007087375    1.483    0.326
        94 -13.7951     53.9489    218.2814   6.5752935665e+01   2.1037580758e+01     2.576071    0.8919592 -68.53  0.005956745    3.106    0.678
        95  -8.8328    185.3410    238.1252   3.9360903790e+01   1.9117538749e+00    0.1405385    0.1001258 -45.14 0.0005278096    1.805    0.446
        96  -9.5418     47.7927     68.0839   4.3003215324e+01   5.9973327797e+01    0.2388397    0.2102745  33.02 0.0004635915    1.158    0.137
        97 -10.6932     63.8748     64.6767   3.4583482842e+01   5.8001704396e+01    0.4927343    0.2098841 -49.24 0.0009416374    2.346    0.574
        98  -9.5759      1.8886     57.0785   6.5432029135e+01   6.7466129786e+01    0.1977436    0.1742758  66.31 0.0005046632    1.279    0.218
        99 -14.8492     34.2676    172.9879   6.7202470202e+01   3.3767265593e+01     7.295544     2.644131 -89.73   0.02367574    3.891    0.743
       100  -9.6129     32.2796     33.3409   3.7404438122e+01   6.9898130703e+01    0.2402112    0.1703035  41.32  0.001152699    1.477    0.323
       101 -12.0758    206.5182     62.1210   1.3869574601e+00   2.6797606711e+01    0.4545476    0.3488098 -50.36  0.001432024    1.072    0.068
       102 -10.0239     28.0615     31.3045   3.9069888111e+01   7.0916430322e+01    0.1915471    0.1617747  21.14 0.0005992695    1.147    0.128
       103  -9.5817    104.2549    237.7337   5.5819403384e+01   1.1380307780e+01    0.2804132    0.1857042   2.03  0.001583099    1.747    0.427
       104  -9.5219     60.6594     21.5718   1.6684428851e+01   6.6482047744e+01    0.2430826    0.2263028  72.79 0.0007263772    1.165    0.142
       105  -9.7256     14.7857     19.5874   4.2441286694e+01   7.4916381569e+01    0.1762118    0.1113808  36.82 0.0007024488    1.678    0.404
       106  -9.0630    189.0884     15.3248   3.5144834854e+02   3.6308593508e+01    0.1758189    0.1386347 -72.95 0.0006990238    1.096    0.088
       107 -10.2931     72.8595    233.7351   6.2543694131e+01   1.5786571741e+01    0.3180716    0.2223484 -79.23  0.001082706    1.739    0.425
       108 -11.5698    126.4919    230.2094   5.0070787214e+01   1.0005096071e+01    0.3871542    0.3015872  13.67   0.00248848    1.127    0.113
       109 -10.8391     45.3897    230.0441   6.8660993354e+01   1.9512524113e+01    0.5534082    0.2544168  14.20  0.002173249    2.731    0.634
