#   1 NUMBER                 Running object number                                     
#   2 MAG_AUTO               Kron-like elliptical aperture magnitude                    [mag]
#   3 X_IMAGE                Object position along x                                    [pixel]
#   4 Y_IMAGE                Object position along y                                    [pixel]
#   5 X_WORLD                Barycenter position along world x axis                     [deg]
#   6 Y_WORLD                Barycenter position along world y axis                     [deg]
#   7 A_WORLD                Profile RMS along major axis (world units)                 [deg]
#   8 B_WORLD                Profile RMS along minor axis (world units)                 [deg]
#   9 THETA_WORLD            Position angle (CCW/world-x)                               [deg]
#  10 FWHM_WORLD             FWHM assuming a gaussian core                              [deg]
#  11 ELONGATION             A_IMAGE/B_IMAGE                                           
#  12 ELLIPTICITY            1 - B_IMAGE/A_IMAGE                                       
         1 -16.4889    128.6120    153.9782   9.8049994174e+01   2.6365189033e+01     3.092575     2.130565 -67.51   0.01464939    1.851    0.460
         2 -17.5798    192.1927    164.9311   8.7090459880e+01   1.3358524769e+01     4.864242      2.88766  -8.92    0.0238359    2.320    0.569
         3 -18.9109    180.5112    137.6787   8.3882965880e+01   1.9527883661e+01     6.951649       6.1753  64.09   0.04141025    1.368    0.269
         4 -16.2910    183.0862     89.0803   7.1660692157e+01   2.6737846789e+01     3.039907     2.213594 -46.91   0.01174828    1.469    0.319
         5 -11.3800    216.6277     26.0082   4.9052477407e+01   2.7136383258e+01    0.2514446    0.2145071 -53.92 0.0003568222    1.126    0.112
         6 -12.7806    243.0446      8.1741   4.2233836211e+01   2.2854421780e+01    0.4118149    0.2314124 -72.69  0.002111268    1.982    0.496
         7 -10.3598    125.1023      8.5367   5.5044993959e+01   5.2793723482e+01    0.2570937    0.1872852 -40.25 0.0003687382    1.418    0.295
         8 -11.9696    248.3387      3.8471   4.0843690045e+01   2.2101488697e+01    0.3178016    0.2495243  38.95  0.001983193    1.569    0.363
         9 -10.0647     40.3127      2.8169   7.9414586744e+01   7.2511447885e+01    0.2029952    0.1708966  45.50 0.0007691246    1.417    0.294
        10  -9.8923    118.4693    234.9960   1.1058394984e+02   1.4862589314e+01     0.125016    0.1079337 -63.11  0.000377616    1.537    0.349
        11 -11.8363    193.1125    249.7006   9.9515692356e+01   3.2708353459e+00    0.2284862    0.1440355  32.94 0.0004253298    1.153    0.132
        12 -10.4931    227.8700    232.1739   9.1861853464e+01   4.4099764500e-01    0.1477161    0.1109202  24.08 0.0003773411    1.196    0.164
        13 -10.2613    165.1040    231.1773   1.0194971817e+02   8.9875105935e+00    0.2021791    0.1185862  47.15  0.001066276    1.634    0.388
        14 -10.0150    213.9617    229.6698   9.3673256690e+01   2.4812951287e+00    0.1499749    0.1001934  27.44 0.0005034525    1.110    0.099
        15 -10.0442     82.0210    230.2299   1.1680012525e+02   2.0202465766e+01    0.1518945    0.1053615  46.57 0.0003890383    1.065    0.061
        16  -9.9498     69.2352    230.2112   1.1914254851e+02   2.1735354470e+01    0.1478489   0.08886726  54.41 0.0004314385    1.304    0.233
        17 -12.1018    238.0497    221.4140   8.8794668216e+01   1.0146893495e-01    0.3345768    0.2621762 -45.21 0.0004040846    2.444    0.591
        18 -11.6634    241.6855    223.3301   8.8531848643e+01  -5.3236374385e-01    0.3260798    0.2219725 -46.57  0.002101538    3.187    0.686
        19 -11.8782    244.6572    221.1886   8.7778651919e+01  -7.2123750790e-01    0.3354271    0.2682051   5.37  0.001726954    1.272    0.214
        20 -10.7087    196.7392    226.7260   9.6049386064e+01   5.1033400580e+00    0.1822959    0.1453173  19.88 0.0005987854    1.110    0.099
        21 -12.7346    203.8896    224.2748   9.4547583060e+01   4.3775249868e+00    0.4420707    0.2414131  18.05  0.002054074    1.854    0.461
        22 -11.1813    175.0406    224.6923   9.9435866324e+01   8.3572597924e+00    0.1832424    0.1281417   9.86 0.0003824187    1.527    0.345
        23  -9.5328    194.3015    223.2831   9.5989186062e+01   5.8090837039e+00    0.1090743   0.06780446  16.40 0.0003036342    1.552    0.356
        24 -12.1157    182.1448    221.8516   9.7847213608e+01   7.6803787433e+00     0.342158    0.1933629  29.21  0.001133714    1.445    0.308
        25 -11.2158    216.6265    221.7278   9.2145796022e+01   2.9001487436e+00    0.1818579    0.1402578  21.42 0.0002775069    1.117    0.105
        26 -12.2343    130.4957    220.5682   1.0691977700e+02   1.5209044902e+01    0.3567972    0.2642969  38.28  0.002358817    1.050    0.048
        27 -12.2524    142.7968    216.4994   1.0417486075e+02   1.4019924140e+01    0.3856617    0.2845601 -75.42  0.002558943    2.102    0.524
        28 -11.6600    135.3430    218.4445   1.0578257170e+02   1.4819926651e+01    0.2990929    0.2236088 -35.10   0.00126554    1.756    0.431
        29 -11.4904    138.5142    215.5237   1.0485323363e+02   1.4773083141e+01    0.2213447    0.1963471   2.59  0.001057055    1.323    0.244
        30 -10.3679    230.4300    220.1674   8.9768351548e+01   1.2075402053e+00    0.1950419    0.1240945  35.06 0.0007058774    1.396    0.283
        31 -14.9386    231.0440    166.8198   8.0853534283e+01   6.6883118958e+00     2.210269     1.088531  -9.80   0.01039552    2.702    0.630
        32 -10.0426    155.9079    245.6508   1.0514545964e+02   8.5590507991e+00    0.1520382   0.09517661  36.31 0.0004229471    1.152    0.132
        33 -15.7770    227.0480    125.0587   7.3016741284e+01   1.2488510484e+01     2.863661      1.55627  -6.54   0.01285324    2.415    0.586
        34  -9.3147    132.5207    246.5177   1.0920859283e+02   1.1533114315e+01    0.1067362   0.07583389  41.82 0.0008088952    1.077    0.071
        35 -16.8790    190.2493    114.9338   7.6903987619e+01   2.1134343116e+01     2.960109     1.815935  60.64   0.01362535    2.050    0.512
        36 -17.3409    172.7541    153.9328   8.8694550762e+01   1.8431272953e+01     4.720785     2.579625  11.38   0.01663341    4.193    0.761
        37  -9.8815    121.4995    244.0163   1.1088085103e+02   1.3278628709e+01    0.1227092    0.1056399 -70.80  0.001025762    1.576    0.366
        38 -10.5993     88.1391    173.8622   1.1018190176e+02   2.9001873370e+01    0.2010149    0.1489106  63.34  0.001238259    1.275    0.215
        39 -10.8286     95.1082    214.0944   1.1297802306e+02   2.1026910216e+01    0.2759715     0.139293  29.14  0.001125851    2.093    0.522
        40 -12.0177    213.7199    209.4675   9.0817020749e+01   4.5561800317e+00    0.2355107    0.1945313 -39.85  0.001742633    1.789    0.441
        41  -9.9060     65.2020    163.5774   1.1432223980e+02   3.4132142900e+01    0.2189088    0.1376089  89.36 0.0005842047    1.704    0.413
        42 -11.6628    128.5357    211.1176   1.0621866860e+02   1.6845760429e+01    0.2165159     0.197537  51.00 0.0007316964    1.175    0.149
        43 -10.9703    227.1645    209.6727   8.8706388934e+01   2.6582723045e+00    0.2114042    0.1387396  19.71 0.0005031694    1.193    0.162
        44 -10.4876     16.7611    161.3701   1.2564008615e+02   3.9782105948e+01     0.137767    0.1043891  23.07 0.0004135217    1.624    0.384
        45 -10.1499     75.9404    159.4614   1.1127118686e+02   3.3554591502e+01    0.1780055    0.1550864  86.90 0.0003321274    1.121    0.108
        46 -11.5849    101.9706    155.4976   1.0447858401e+02   3.0508866172e+01    0.2286226    0.1808125 -38.92 0.0005152946    1.545    0.353
        47 -11.5111    125.7956    204.7728   1.0599956725e+02   1.8196688030e+01    0.2019189    0.1704255  54.15 0.0006350158    1.161    0.139
        48 -12.4619     97.5848    150.8448   1.0481811377e+02   3.2133303243e+01    0.4275957    0.2442502 -77.84  0.001950277    2.438    0.590
        49 -11.2415    121.6541    212.2830   1.0766799507e+02   1.7658119552e+01    0.2297959    0.1959449 -74.48  0.001314901    1.473    0.321
        50 -10.7314     80.4334    149.2313   1.0881940519e+02   3.5048296536e+01    0.2735848    0.1633737 -86.64  0.001331288    2.103    0.524
        51 -11.2183     89.9708    150.6065   1.0664659565e+02   3.3355301328e+01    0.2365636    0.1784211 -44.89 0.0007255822    1.575    0.365
        52  -9.1608    233.2877    203.2944   8.6762860547e+01   2.4477489504e+00    0.1115635   0.06648675  12.25 0.0002559304    1.547    0.354
        53  -9.2516     69.3391    203.3006   1.1714063712e+02   2.6112049869e+01    0.0992533   0.08659019   1.66 0.0007036277    1.666    0.400
        54 -12.4421     97.7074    141.0201   1.0320235476e+02   3.4137037218e+01    0.3379964    0.2408354  68.47  0.001405778    1.560    0.359
        55 -12.4958    100.6679    137.5471   1.0185533266e+02   3.4379055824e+01    0.4031254    0.2326299 -64.88  0.001761403    1.956    0.489
        56 -12.3518    226.5677    198.2704   8.7011399797e+01   3.9041655132e+00    0.3788756    0.3411786  22.47  0.001487323    1.426    0.299
        57  -9.5835    250.6865    138.7409   7.2421950243e+01   6.7528062156e+00    0.1221507    0.1028137  -5.26 0.0002759536    1.110    0.099
        58  -9.8692    247.5126    138.0289   7.2727587991e+01   7.3512355750e+00    0.1718204    0.1363504  -2.19 0.0004111571    1.031    0.030
        59  -9.7860     71.6340    138.2902   1.0953101107e+02   3.8643209076e+01     0.141138   0.08817045  64.15 0.0007025462    1.706    0.414
        60 -10.8618    102.6243    199.7958   1.1004673747e+02   2.2322829738e+01    0.2374694    0.1411023 -42.31  0.001347352    2.376    0.579
        61  -9.9407     45.6768    201.6547   1.2180260998e+02   2.9142650891e+01   0.09492745    0.0842604 -29.68 0.0007050121    1.737    0.424
        62  -9.6887     78.1483    131.8213   1.0679407677e+02   3.9138599208e+01    0.1645294    0.1555751 -28.36 0.0003386851    1.284    0.221
        63 -12.9832    100.9137    127.9866   1.0003561820e+02   3.6357578859e+01     0.496706    0.3624557 -46.58  0.002014428    1.477    0.323
        64 -10.3186    245.3624    128.7300   7.1094625627e+01   8.7929314625e+00    0.2764455     0.167626  33.97  0.001123903    1.641    0.391
        65 -10.5510    244.7422    125.5608   7.0506699142e+01   9.2742951916e+00      0.28811    0.2149529  25.75  0.001791198    1.293    0.227
        66 -10.5816    112.1451    196.1503   1.0769657280e+02   2.1564838774e+01    0.1668607    0.1420718  34.44 0.0002887766    1.152    0.132
        67 -10.2129     63.8022    126.8528   1.0998066024e+02   4.2261663962e+01    0.1825034    0.1696648 -71.97 0.0003487809    1.144    0.126
        68 -10.3766     95.9057    195.9906   1.1101242082e+02   2.3902920036e+01    0.1720029    0.1410516  50.59            0    1.013    0.013
        69 -12.3958     88.0931    114.5584   1.0088885092e+02   4.1440261636e+01     0.333697    0.3227789 -58.10 0.0004100781    1.112    0.100
        70 -10.2496     33.2064    109.1199   1.1659603092e+02   4.9934929590e+01    0.1824418    0.1555124 -68.78 0.0003770287    1.155    0.134
        71 -11.2953      9.8605    116.8871   1.2452160610e+02   5.0078331475e+01    0.1780821    0.1447396 -67.95 0.0005160552    1.259    0.206
        72 -10.6360     84.9906    107.7086   1.0036165614e+02   4.3489640632e+01    0.2556754    0.1939881 -51.44 0.0005689481    1.326    0.246
        73 -10.1731     13.4947    216.5149   1.2870528188e+02   2.9760473208e+01    0.1016132   0.07201116  58.89 0.0008104034    1.020    0.019
        74 -10.1891    189.2549    241.6088   9.9168314603e+01   4.5710881012e+00    0.1517678   0.07280115  30.43 0.0009394355    1.618    0.382
        75  -9.9071    101.0801    194.5448   1.0978437634e+02   2.3425218562e+01    0.1908183    0.0974532  39.67  0.001034806    1.611    0.379
        76 -11.3717     72.5955     97.8516   1.0202105857e+02   4.7709853048e+01    0.3598213    0.2309574 -65.41  0.001352363    1.540    0.351
        77 -12.4419    246.6706     96.1493   6.3670840531e+01   1.2452883354e+01    0.2383254    0.2204691 -30.88 0.0004916686    1.211    0.174
        78 -11.8725    240.6664     95.7354   6.4355771042e+01   1.3637767931e+01    0.3674598    0.2744361  28.52  0.001248868    1.397    0.284
        79 -12.3117    124.2160    215.7961   1.0756928445e+02   1.6776260810e+01    0.4582719    0.3033663  41.08  0.002355882    1.176    0.149
        80 -10.4394    244.9728    190.9408   8.2970776240e+01   2.0502768748e+00    0.1670817    0.1265843  12.86  0.000458731    1.049    0.047
        81  -9.4337     52.7040    191.7127   1.1966993441e+02   3.0161804555e+01   0.09413443   0.08833708 -17.77 0.0001925667    1.549    0.354
        82 -10.6714     91.9983     92.9545   9.4816701518e+01   4.5605007864e+01    0.2100514    0.2012497 -82.88            0    1.012    0.012
        83 -10.6370    236.7511    213.7263   8.7846590246e+01   9.7486188103e-01    0.2390742    0.1322032  20.42 0.0007667961    1.520    0.342
        84 -11.4917    227.7082     90.7298   6.4917807147e+01   1.6826587372e+01    0.4105846    0.2467798  65.82  0.001593977    2.187    0.543
        85 -11.1192     87.9418     89.2396   9.5108635261e+01   4.7156296902e+01    0.3570504    0.2457488 -22.51  0.001592498    2.130    0.530
        86 -11.9041    217.5976    210.8810   9.0404330027e+01   3.8625765587e+00    0.3327719    0.1857287 -26.47  0.002133676    1.954    0.488
        87 -10.1781     78.8955     89.0864   9.7942708257e+01   4.8734226866e+01      0.21051    0.1945226 -60.67 0.0003599829    1.044    0.043
        88 -10.5010    248.2898     87.9432   6.1550931977e+01   1.3128089592e+01    0.1873331    0.1430493 -25.81 0.0004093146    1.139    0.122
        89 -10.1900    239.7065     85.9635   6.2152066402e+01   1.5025414762e+01    0.1960217    0.1826331  33.58 0.0004674788    1.194    0.162
        90 -10.9102    239.6422     81.9193   6.1180189382e+01   1.5533301589e+01    0.2196992    0.1918206 -38.17 0.0004459952    1.186    0.157
        91 -12.5225    104.8761     84.0536   8.8569086396e+01   4.5094103184e+01    0.6202929    0.3159762  53.55   0.00245022    2.230    0.552
        92  -9.6955     96.2088    185.2579   1.0975269814e+02   2.5743893110e+01    0.1606351    0.1181741  59.98 0.0004056772    1.266    0.210
        93 -10.6080      8.2382     81.2007   1.2165005790e+02   5.8599617504e+01    0.1727287    0.1241364  67.60  0.001062792    1.371    0.270
        94 -11.6131    222.5730     76.9147   6.2156609666e+01   1.9692074117e+01    0.3933466    0.2632066 -52.55   0.00116813    1.755    0.430
        95  -9.4715    231.3950     74.4597   6.0370867859e+01   1.8136652927e+01    0.1350911    0.1172267 -20.67 0.0001406696    1.021    0.020
        96 -10.3975     99.9860     71.5560   8.6267197248e+01   4.8702575799e+01    0.2259341    0.1971461 -46.37 0.0003800911    1.114    0.103
        97  -9.5643     51.6238    180.2388   1.1900999233e+02   3.2456405683e+01    0.1242388   0.06577841  55.61 0.0006294188    1.623    0.384
        98 -10.4040     95.4457    176.8932   1.0891770904e+02   2.7382307830e+01    0.2140246    0.1216759 -67.74  0.001142413    2.047    0.511
        99 -10.3580     24.0348     71.2962   1.1399398854e+02   5.9850295123e+01    0.1675232    0.1537117 -80.11 0.0003416257    1.082    0.075
       100 -11.5082      6.7483     68.1402   1.2055797801e+02   6.1817341160e+01    0.2180441    0.1903722 -54.25 0.0002115403    1.192    0.161
       101  -9.7977    244.3762     66.7131   5.6889525309e+01   1.6401926475e+01     0.174529    0.1316991  70.89 0.0006980542    1.623    0.384
       102 -10.0021    241.1773     64.5015   5.6698236681e+01   1.7313051044e+01     0.293002    0.1816954 -50.81  0.001139079    1.795    0.443
       103 -10.4617     30.0211     62.6511   1.0969089859e+02   6.1387928048e+01    0.1723664     0.161814 -58.31 0.0004854329    1.100    0.091
       104 -11.6928    212.0744     60.9996   5.9346523766e+01   2.4084527130e+01    0.3360999    0.2412307 -84.80  0.001661852    1.845    0.458
       105 -12.2946    130.2076     61.6401   7.4609763681e+01   4.3897485709e+01    0.4357561    0.2758561  33.97 0.0005610367    1.872    0.466
       106 -12.6295    138.5274     57.4047   7.1189075498e+01   4.2610470502e+01    0.4431076    0.2951539 -14.72  0.001900521    1.851    0.460
       107 -10.2360     10.4218     58.8010   1.1750980887e+02   6.3836500455e+01    0.1939939   0.08751727 -60.76 0.0009563799    1.754    0.430
       108 -10.4499     34.6173     58.1654   1.0658422374e+02   6.1990551415e+01    0.1999297   0.09997324 -52.58  0.000497856    1.724    0.420
       109 -10.7342     18.4653     57.9966   1.1374074968e+02   6.3479860743e+01    0.1725678    0.1656145 -65.46 0.0003197721    1.141    0.124
       110  -9.8017      1.4470     57.5298   1.2132953923e+02   6.4622817873e+01    0.1226088   0.09848794 -74.12 4.622327e-05    1.004    0.004
       111 -11.9010    210.1400     54.4509   5.7788331745e+01   2.5367882906e+01    0.3751301    0.3050622  63.84   0.00114351    1.331    0.249
       112 -12.8037    200.9556     52.4441   5.8443621114e+01   2.7801951277e+01    0.4582129    0.4409741 -69.93 0.0008896089    1.094    0.086
       113 -10.8155    205.9963     50.2983   5.7154371452e+01   2.6868214507e+01    0.2280532    0.1830935 -53.28 0.0003882701    1.285    0.222
       114 -10.6871    111.1357     54.8686   7.7278461118e+01   4.9574548572e+01    0.2498153    0.2074679  64.92 0.0003892906    1.317    0.240
       115 -12.7277    125.3415     52.5974   7.2665545933e+01   4.6640277739e+01    0.4736223     0.400535 -12.33  0.001800594    1.274    0.215
       116 -12.0113    118.3940     50.3411   7.3630533756e+01   4.8692241608e+01    0.4518179    0.2354124 -50.42  0.001729921    2.251    0.556
       117 -11.6471    249.3085     52.9168   5.2966099714e+01   1.6973834369e+01    0.2061659    0.1912126 -27.35 0.0002000766    1.085    0.078
       118 -10.7791    242.4470     48.4307   5.2518084703e+01   1.8890568956e+01    0.2453622    0.2068698  10.48 0.0007010233    1.291    0.225
       119 -10.8268    236.8895    175.3925   8.1505049718e+01   4.8314126085e+00    0.2801784    0.1590136  18.92 0.0009017022    1.720    0.418
       120  -9.4563    230.3794     47.1998   5.3435021638e+01   2.1632852500e+01    0.1846917    0.1084042 -35.28 0.0002607606    1.490    0.329
       121 -12.7178    147.3546     45.7750   6.5249956109e+01   4.2231309457e+01    0.4403389    0.3682828 -26.42 0.0008629223    1.192    0.161
       122 -12.2621    168.5104     44.7119   6.0983427708e+01   3.6939742511e+01    0.5009779    0.2966703  26.23  0.001979284    2.359    0.576
       123 -11.8100    191.9792     43.9968   5.7180334816e+01   3.1079128633e+01    0.3546212    0.2607485  59.57 0.0003162092    1.404    0.288
       124 -10.7221    191.6944     40.2943   5.6094013048e+01   3.1612713254e+01    0.2219946    0.1913869 -49.44 0.0002453436    1.144    0.126
       125 -11.0076    174.1089     44.3589   5.9950663562e+01   3.5551043109e+01    0.2919096    0.2318249  19.61 0.0007631389    1.437    0.304
       126 -12.4445    175.9306     39.8485   5.8209499337e+01   3.5676393330e+01     0.437585    0.4157136 -67.35  0.001207972    1.069    0.065
       127 -12.0231    156.0541     44.0213   6.2952967258e+01   4.0248279843e+01    0.3551539    0.2615816 -20.92  0.001480175    1.402    0.287
       128  -9.7916    130.3212     44.2739   6.8407899823e+01   4.6779929579e+01    0.1544591    0.1148994  25.21 0.0002889198    1.573    0.364
       129  -9.4141     18.3323     43.2885   1.1029759100e+02   6.6949596151e+01    0.1310622   0.08120227 -38.31 0.0004563886    1.625    0.385
       130 -11.1726    181.5480     37.1274   5.6508989735e+01   3.4577262150e+01    0.2516203    0.2437885  70.35 0.0002620434    1.061    0.058
       131 -11.2027    165.4709     38.1102   5.9290226882e+01   3.8611991602e+01    0.3450563    0.2249917  74.64 0.0006061306    1.699    0.411
       132 -11.2871    153.7846     38.0175   6.1280564275e+01   4.1673486422e+01    0.4701515    0.1381808  49.87  0.001442626    3.334    0.700
       133 -10.5418     92.7932     37.8198   7.6122527023e+01   5.6721622462e+01    0.2151734    0.1938723  -3.89 0.0004784724    1.133    0.118
       134 -11.9228    241.8283    174.0777   8.0514756501e+01   4.2349355766e+00    0.2667631    0.2015191  42.49  0.001163812    1.577    0.366
       135 -10.7436    219.5565     34.9930   5.1268096530e+01   2.5473513781e+01    0.2004082     0.184945  89.86 0.0004626715    1.163    0.140
       136 -12.1351    188.0335     33.0084   5.4327801204e+01   3.3417749341e+01    0.2907902    0.2564756 -36.93 0.0003693766    1.082    0.075
       137 -11.4943    132.3079     33.2152   6.3751126660e+01   4.7918301315e+01    0.3286427    0.2667871  55.43 0.0005438151    1.223    0.182
       138 -11.0106    199.4656     32.7743   5.2842292125e+01   3.0567880978e+01    0.2640262    0.2473009 -41.62 0.0006974885    1.008    0.008
       139  -9.6419     85.5279     33.4700   7.6639433236e+01   5.9034968433e+01    0.1448247    0.1351299  -7.23 -5.455713e-06    1.040    0.038
       140 -11.5026    214.1319     31.6058   5.0880399893e+01   2.7127552392e+01    0.2413877    0.2263532 -26.78 0.0002927093    1.047    0.045
       141 -10.5445    166.0390     31.5159   5.6957990460e+01   3.9302806008e+01    0.2178183    0.1468944  68.50 0.0005217479    1.519    0.342
       142 -11.5109    232.2266    236.4215   9.1784684707e+01  -4.8065985645e-01     0.292283    0.1716802   7.84  0.001605561    1.570    0.363
       143 -13.0981    245.0380    170.6861   7.9418241641e+01   4.1187167248e+00    0.2465262     0.196628   7.42 0.0006681339    1.065    0.061
       144 -10.9099    201.8810     23.3001   4.9743106367e+01   3.1011900011e+01    0.2918675    0.1889136 -18.54 0.0005685246    1.551    0.355
       145 -10.7574    174.8794     22.0962   5.2511737239e+01   3.8072913241e+01    0.2323539    0.2062336  82.82 0.0003767157    1.141    0.124
       146 -11.8060    101.0050    172.8673   1.0716653226e+02   2.7312072703e+01    0.3251734      0.21638 -64.39 0.0006915659    1.693    0.409
       147 -11.3464     98.3184    166.6295   1.0693800063e+02   2.8898658151e+01    0.2589749    0.1597893  55.80 0.0007340365    1.587    0.370
       148 -10.2774     16.1380     18.8889   1.0324293200e+02   7.2555460665e+01    0.1743337    0.1549096 -62.27 0.0003893384    1.189    0.159
       149 -11.0338    238.4267     16.2699   4.4610560127e+01   2.3111780186e+01    0.1932891   0.09907197 -34.85 0.0009504113    1.618    0.382
       150  -9.4516     12.4646     14.5237   1.0376247673e+02   7.3777982625e+01     0.122995    0.1011246 -44.93 0.0002141312    1.017    0.017
       151 -10.5596    182.5758    237.6458   9.9780056663e+01   5.8733737098e+00    0.2159973    0.1449657  13.70  0.001110972    1.472    0.321
       152 -11.3417    126.7141    237.1016   1.0931743427e+02   1.3489041543e+01    0.2878432    0.1941456  69.82  0.001475688    2.029    0.507
       153 -10.5840    102.1376    236.2424   1.1362500375e+02   1.6813054028e+01    0.1969846    0.1152405  68.93  0.001238967    2.187    0.543
