#   1 NUMBER                 Running object number                                     
#   2 MAG_AUTO               Kron-like elliptical aperture magnitude                    [mag]
#   3 X_IMAGE                Object position along x                                    [pixel]
#   4 Y_IMAGE                Object position along y                                    [pixel]
#   5 X_WORLD                Barycenter position along world x axis                     [deg]
#   6 Y_WORLD                Barycenter position along world y axis                     [deg]
#   7 A_WORLD                Profile RMS along major axis (world units)                 [deg]
#   8 B_WORLD                Profile RMS along minor axis (world units)                 [deg]
#   9 THETA_WORLD            Position angle (CCW/world-x)                               [deg]
#  10 FWHM_WORLD             FWHM assuming a gaussian core                              [deg]
#  11 ELONGATION             A_IMAGE/B_IMAGE                                           
#  12 ELLIPTICITY            1 - B_IMAGE/A_IMAGE                                       
         1 -12.5230     42.7762     20.4809   1.0252417540e+02   6.5750844378e+01    0.7551241    0.3417993  23.71  0.002087394    2.446    0.591
         2 -12.7185    217.1157     15.6673   6.2324653307e+01   2.9381167877e+01    0.7626171    0.4846301  70.58  0.002737174    1.399    0.285
         3 -13.4768    187.5887      7.2264   6.3607269159e+01   3.7381997406e+01    0.9734569    0.4985273 -82.34  0.004288209    2.446    0.591
         4 -12.0495     56.7476      6.9705   9.1544098474e+01   6.5401231320e+01    0.5571716    0.4297558 -44.13  0.003696444    1.958    0.489
         5 -11.6611     43.3292      8.6091   9.7267201203e+01   6.7130493100e+01    0.3088948    0.2074175  36.08  0.001239513    1.576    0.365
         6 -11.7463    166.0088      2.0000   6.4978551695e+01   4.3094608287e+01    0.4526505    0.1642258  68.83  0.001885571    2.354    0.575
         7 -10.7903      2.7009    239.3518   1.5113088150e+02   2.4694779490e+01    0.1921733    0.1431922  85.29  0.001155527    1.199    0.166
         8 -11.4458     29.6887    233.0791   1.4636789901e+02   2.2990188588e+01    0.4691884    0.2022735  67.77  0.002103452    2.167    0.538
         9  -9.5778     65.6706    236.6462   1.4033326602e+02   1.7692181330e+01    0.1045991   0.09433424 -41.74 0.0007046249    1.777    0.437
        10 -11.0269     12.3978    227.0205   1.4887547103e+02   2.6074343400e+01    0.2318632    0.1502991  76.32 0.0005612059    1.125    0.111
        11 -10.5421    104.7829    225.4829   1.3169023762e+02   1.3938235166e+01    0.2606792    0.1617852 -87.70   0.00132703    1.927    0.481
        12 -10.3794     76.9227    225.7572   1.3716776193e+02   1.8240608622e+01    0.2335327    0.1375279  60.50 0.0006824027    1.495    0.331
        13 -11.0912     96.0251    223.6650   1.3320593556e+02   1.5724491832e+01    0.3762391    0.2394637 -55.31  0.002067633    1.793    0.442
        14 -10.7275    149.1227    222.6917   1.2235190358e+02   6.7240966950e+00    0.3543272    0.1974563 -52.14   0.00171755    2.034    0.508
        15  -9.7080    185.5274    223.4837   1.1515538706e+02  -8.1075632659e-02    0.1344716    0.1180657  33.77 4.825184e-05    1.001    0.001
        16 -10.0751    173.7609    221.1279   1.1711128486e+02   2.4770846830e+00    0.2509826    0.1714755 -41.14  0.001332574    1.665    0.400
        17 -10.8024    226.1681    221.1617   1.0691697212e+02  -6.8421568176e+00    0.1604726    0.1589333  69.24  0.001075714    1.361    0.265
        18 -10.1849    211.3295    217.8822   1.0913476354e+02  -3.7891212659e+00    0.2454301    0.1188463 -47.76   0.00108438    2.546    0.607
        19 -10.7831    115.8111    209.0994   1.2723099873e+02   1.5402438435e+01    0.3222065    0.2262654 -67.68  0.001727115    1.496    0.331
        20 -11.2168      4.9669    199.3961   1.4836207452e+02   3.2404687955e+01    0.2775934    0.1508491  54.77  0.001052471    1.675    0.403
        21 -10.3506     48.7455    201.1430   1.4014358159e+02   2.7301497435e+01     0.337185    0.1326816 -85.05  0.001293511    3.444    0.710
        22 -10.3719    149.3995    198.6264   1.1836727788e+02   1.1369004981e+01    0.2722633    0.1320105 -65.42 0.0009607255    3.302    0.697
        23 -12.3497    160.2240    192.0799   1.1485349675e+02   1.0584369322e+01    0.7212518    0.5126292  80.00  0.002905358    1.977    0.494
        24  -9.6893    133.2933    195.6582   1.2136429765e+02   1.5059725584e+01    0.1478387    0.1064997  78.78 0.0005290002    1.656    0.396
        25  -9.6957    215.0000    193.0298   1.0373476232e+02  -3.1854172521e-01    0.2257335   0.07753787 -40.68  0.000807688    2.979    0.664
        26  -9.9600     94.6781    187.0081   1.2857420306e+02   2.3820103415e+01    0.2280761    0.1078985 -82.83 0.0007049182    4.292    0.767
        27 -10.4384    183.4368    182.7194   1.0807627014e+02   7.7859595620e+00    0.3672426    0.1428529 -41.32  0.001310555    2.755    0.637
        28  -9.6861    210.6084    182.1999   1.0241895958e+02   2.4479333865e+00    0.2075479    0.1309972 -28.67  0.000956866    1.734    0.423
        29 -10.0378    148.3170    176.0082   1.1443957708e+02   1.6355920568e+01    0.2394591    0.1153801 -31.15  0.000704448    4.235    0.764
        30 -11.4035     34.6441    173.5129   1.4016855717e+02   3.5120705072e+01    0.4628415    0.2289673 -87.68  0.002243675    2.088    0.521
        31 -11.2499     55.7839    167.9093   1.3472756872e+02   3.3935498919e+01     0.413384    0.2564377 -83.19  0.001512337    1.559    0.359
        32 -10.7980    120.8108    168.4151   1.1937196234e+02   2.3464666836e+01    0.2865277    0.1143861 -56.79  0.001012819    2.618    0.618
        33  -9.5647     88.3315    168.0098   1.2706091157e+02   2.9243180903e+01    0.2345036     0.111145 -81.84 0.0007049534    4.317    0.768
        34 -10.8694     51.1737    159.1395   1.3460688148e+02   3.6560098819e+01    0.3700533    0.1874625  70.39  0.001550076    2.808    0.644
        35  -9.7183    128.6455    159.3127   1.1571542673e+02   2.4045665005e+01    0.1607089    0.1159294  78.75 0.0007044812    1.733    0.423
        36 -11.3807    106.1377    157.0131   1.2076485753e+02   2.8824002854e+01    0.6920087    0.4418913 -80.89  0.002982735    2.018    0.504
        37 -11.1838     28.4617    156.2595   1.3958073120e+02   3.9705078466e+01    0.4239031     0.207627  89.21  0.001791418    2.338    0.572
        38 -10.3961     23.4793    153.5267   1.4041345487e+02   4.0803655129e+01    0.1857711    0.1526373  47.24  8.64369e-05    1.407    0.289
        39 -10.3576     22.3250    159.0360   1.4130194050e+02   3.9652825388e+01     0.255582    0.1105274  57.91  0.001184797    2.736    0.635
        40 -10.8377    167.6107    157.2422   1.0617431196e+02   1.6374589130e+01    0.4261656    0.2405907 -67.31   0.00147556    2.946    0.661
        41 -10.3811    118.3816    156.8209   1.1770934593e+02   2.6611998592e+01    0.2322141    0.2096819  88.92  0.001245363    1.077    0.072
        42  -9.1382    237.3691    156.2670   9.1891322096e+01   1.9032818343e+00    0.1429295    0.1061689   9.43 0.0001577916    1.661    0.398
        43 -10.2178    218.3681    156.2149   9.5381190448e+01   5.7142523516e+00    0.2152773    0.1311161 -48.10 0.0009540033    1.705    0.414
        44 -10.0174      6.6363    155.8486   1.4446472630e+02   4.1706689749e+01    0.1676853   0.08679984 -83.29 0.0005048706    1.601    0.375
        45 -10.1841     40.6767    152.9634   1.3627482489e+02   3.9210984240e+01    0.1847413     0.135536 -77.10 0.0004573859    1.141    0.124
        46 -10.1752    189.6979    150.1420   9.9775327291e+01   1.3034081037e+01    0.2520363    0.1962104 -62.53  0.001193851    1.459    0.315
        47 -10.3679     12.0954    148.3439   1.4246343775e+02   4.2959565863e+01    0.2827348    0.1175077 -59.65  0.001452069    1.948    0.487
        48  -9.6685     78.2222    148.0210   1.2612751312e+02   3.5553342253e+01    0.1941475    0.1059864 -60.10 0.0008741854    1.670    0.401
        49 -10.8740    106.8158    145.1498   1.1823413050e+02   3.1503858438e+01    0.4453005    0.2557304  81.74  0.001427128    3.863    0.741
        50 -10.4327     55.8336    146.0135   1.3150002479e+02   3.9087496741e+01    0.2297812    0.1395034  84.50  0.001060019    2.054    0.513
        51 -10.0239    148.4709    144.9794   1.0785901588e+02   2.3211815893e+01    0.2240623    0.1362179 -71.46 0.0008029887    2.514    0.602
        52  -9.8364    124.5164    143.0221   1.1328756169e+02   2.8634721146e+01    0.2273411     0.133652 -74.62 0.0008103204    2.674    0.626
        53  -9.6669    181.6593    141.3483   9.9462534523e+01   1.6643499766e+01    0.1642605    0.1240234 -84.86 0.0007045514    1.793    0.442
        54  -9.7136    111.6751    132.6932   1.1427891193e+02   3.3531593538e+01    0.1500137    0.1208308 -13.48 0.0004742834    1.648    0.393
        55 -10.5979     83.2237    132.1368   1.2175742279e+02   3.8570386349e+01     0.277344    0.1777519  66.39  0.001239923    2.066    0.516
        56 -11.8688     98.3806    127.6068   1.1667577052e+02   3.7135691371e+01    0.7347805    0.4059124 -79.48   0.00237851    3.812    0.738
        57  -9.5945    117.3181    125.6384   1.1115546788e+02   3.4077442683e+01    0.1605103    0.1196616  89.27 0.0007042296    1.767    0.434
        58 -10.5602     58.8488    123.9939   1.2683303486e+02   4.3906494818e+01    0.3318963    0.1726407 -82.33   0.00124895    3.206    0.688
        59 -10.9433     43.0039    122.6705   1.3099406413e+02   4.6035699567e+01    0.4607118    0.2048808 -77.95  0.001743378    3.251    0.692
        60 -11.0639     27.2793    121.2593   1.3507924743e+02   4.7869693314e+01    0.5892047    0.2643854 -89.52  0.002056338    4.512    0.778
        61 -12.0999    193.5974    119.1783   9.1619904210e+01   1.8441323324e+01    0.6589383    0.4303263 -61.24  0.002770923    1.842    0.457
        62 -10.8113     13.8101    121.1544   1.3868248644e+02   4.8968833957e+01    0.3052516    0.1799021 -33.17  0.001723674    2.142    0.533
        63 -10.0753     71.2572    120.2986   1.2259720483e+02   4.3122940638e+01    0.2764463    0.1538771  57.38  0.001176917    2.474    0.596
        64 -10.6600    140.5290    117.0794   1.0306531112e+02   3.1153382498e+01    0.3844432    0.1474389 -51.18  0.001223507    2.864    0.651
        65 -10.6232      2.4621    116.0086   1.4098907111e+02   5.0870381096e+01    0.3644407    0.1575893 -83.17  0.001367895    2.475    0.596
        66 -10.4657    108.4184    112.9016   1.1042698315e+02   3.8686001882e+01     0.486839    0.2128419 -61.24  0.001530077    3.472    0.712
        67 -10.8819     78.6468    112.2460   1.1869331500e+02   4.3904000184e+01     0.385084    0.2480974 -79.39  0.001495796    2.210    0.548
        68 -10.5306     91.8144    111.2642   1.1467269131e+02   4.2025584444e+01    0.4519929    0.1907475 -60.46  0.001548859    3.005    0.667
        69 -10.7591    174.3264    110.9463   9.3580401569e+01   2.4655334435e+01    0.3603695    0.2652327 -39.42  0.001073239    1.372    0.271
        70 -11.9978    160.2114    110.7825   9.6701326982e+01   2.8020599612e+01    0.6086198     0.423007 -60.69  0.002641088    1.647    0.393
        71 -11.4832     14.8595    110.0248   1.3675346702e+02   5.1380613217e+01    0.5976543    0.3424654 -88.72  0.003212772    2.043    0.511
        72 -11.4535    142.1749    100.1896   9.8184081551e+01   3.4374362245e+01    0.4465644     0.328045  49.31  0.002082659    1.364    0.267
        73 -12.0889     44.3222    100.7603   1.2636276616e+02   5.0876515261e+01    0.6435981    0.3983971 -89.38  0.003015875    2.562    0.610
        74 -11.9626    127.6629    100.7798   1.0204599636e+02   3.7445921573e+01    0.5452625    0.3029826 -56.96  0.002122771    2.167    0.538
        75 -10.0631     60.0060    109.9077   1.2362072201e+02   4.7013711915e+01    0.2050026    0.1772464 -49.84 0.0006462173    1.045    0.043
        76 -12.7409    140.4561    104.7112   9.9837796657e+01   3.3821547408e+01    0.6203101    0.3990426  61.75  0.002600278    1.833    0.455
        77 -12.5512    109.6139     99.7896   1.0666573915e+02   4.1332423547e+01    0.9599023    0.5131282  64.32  0.003180054    3.648    0.726
        78 -10.3847     81.6320    100.3651   1.1492433426e+02   4.6108306243e+01    0.2123976    0.1700088  88.39 0.0009517521    1.634    0.388
        79 -10.4748     19.5828     97.2571   1.3321431231e+02   5.3848684885e+01    0.2376771    0.1013633 -67.66  0.001008792    2.102    0.524
        80 -10.8503     62.8754     95.6435   1.1945711580e+02   4.9826991505e+01    0.4143567    0.1894616 -70.34  0.001264983    4.952    0.798
        81 -12.9948    170.2565     90.8358   8.9139644575e+01   2.9595535489e+01     0.431492    0.3705421 -75.93 0.0007441165    1.258    0.205
        82 -10.7148     34.1773     88.0058   1.2676416225e+02   5.4644761996e+01    0.5380409    0.1615567 -61.07  0.002044506    3.151    0.683
        83 -11.3496     42.2813     87.8674   1.2411478833e+02   5.3891832307e+01    0.3516661    0.2157535  -6.18  0.001731515    2.332    0.571
        84 -11.1441     86.9439     87.3508   1.0983399240e+02   4.8027868949e+01    0.3728636     0.274706  70.03  0.001811957    2.009    0.502
        85 -10.8730     46.3284     82.8024   1.2155945001e+02   5.4534421951e+01    0.6472901     0.393374  82.36  0.002387291    4.833    0.793
        86 -10.8250     47.4093     77.6935   1.1988204010e+02   5.5469279000e+01     0.252643    0.1819419 -37.77 0.0005105395    1.209    0.173
        87 -11.2023    171.5348     83.3097   8.6817710046e+01   3.0683047648e+01    0.2808518    0.2607369  71.45 0.0004836819    1.053    0.051
        88 -10.8192    104.3939     83.4750   1.0354086508e+02   4.5698322772e+01    0.3603447     0.245719 -71.35  0.001556905    2.301    0.565
        89  -9.5535    140.6708     83.3219   9.3805611612e+01   3.8051899608e+01    0.1559533    0.1210826 -82.06 0.0007048956    1.693    0.409
        90 -10.7584     24.3403     80.8486   1.2838657073e+02   5.6985669804e+01    0.3671237    0.2005464 -84.11  0.001588927    3.492    0.714
        91 -10.8769     62.4804     72.2043   1.1328395703e+02   5.4731220607e+01    0.5666399    0.1205218 -49.68  0.001731918    4.434    0.774
        92 -10.9528     82.1628     73.1585   1.0716329244e+02   5.1635427450e+01    0.3395979    0.2229313 -73.52  0.001416691    3.004    0.667
        93 -11.4520    223.1743     71.0936   7.4584965773e+01   2.0187379619e+01    0.3212908    0.2615171 -86.21 0.0006097776    1.217    0.178
        94 -10.7756     51.6507     69.7783   1.1625519987e+02   5.6563655645e+01    0.3059403    0.2043651 -64.74  0.001227056    1.916    0.478
        95 -11.3080     39.8582     52.4509   1.1525464614e+02   6.1103178142e+01    0.4450648    0.2254431 -36.75   0.00178319    1.709    0.415
        96 -13.5282     30.7114     59.5931   1.2079285141e+02   6.0681179124e+01      1.18617    0.7614027  29.15   0.00695656    1.813    0.449
        97 -11.2126     19.5307     59.1995   1.2480758235e+02   6.1667503863e+01    0.2793131    0.1905253 -21.86    0.0011627    1.421    0.296
        98 -12.0868     21.1630     52.1986   1.2225656175e+02   6.2850672995e+01    0.7552313     0.429651 -68.96  0.003905469    2.717    0.632
        99 -10.2931    219.8843     65.6982   7.3768169697e+01   2.1835901689e+01     0.250694    0.2189122  24.74  0.001023522    1.499    0.333
       100  -9.7576      9.8143     65.8272   1.2996828785e+02   6.1034651870e+01    0.1415228    0.1230345 -69.93 0.0004652773    1.319    0.242
       101 -11.3575    232.6690     60.1398   7.0704528468e+01   1.9704195265e+01    0.2520384    0.1835577  86.90  0.001338773    1.387    0.279
       102  -9.4599    160.6544     60.7615   8.2708818057e+01   3.7212426562e+01    0.1487728    0.1079243  34.45 0.0002129915    1.562    0.360
       103 -10.2378     73.1378     58.4503   1.0543345309e+02   5.5750072736e+01    0.2242978    0.1488394 -42.53  0.001211424    1.469    0.319
       104 -11.3901      9.9055     57.5080   1.2793635991e+02   6.2639386074e+01    0.4901344    0.3475018  63.63  0.003052657    2.441    0.590
       105 -10.3040     47.8005     57.4917   1.1392780333e+02   5.9324008542e+01    0.2482362    0.1649569 -22.70  0.001177977    1.467    0.318
       106 -10.0294     62.5025     53.4801   1.0740300350e+02   5.8163819985e+01    0.2155113    0.1152103 -51.09 0.0008074243    2.187    0.543
       107 -11.2496    149.0162     52.1928   8.2610889849e+01   4.1356679836e+01    0.3503256    0.2284654  66.04  0.001145129    1.611    0.379
       108 -10.6173    105.8135     50.6011   9.2732641288e+01   5.1221769465e+01    0.2645864    0.1977153 -36.37  0.001427728    1.384    0.277
       109 -10.1955     92.2202     51.2099   9.6909717145e+01   5.3738961748e+01    0.2122726   0.09905615 -45.87 0.0008829543    2.495    0.599
       110 -10.6509    173.0848     49.5990   7.7130861823e+01   3.5830153649e+01    0.2297329    0.2071941 -25.87 0.0003122599    1.240    0.194
       111 -10.4571     82.0597     47.0228   9.8625249101e+01   5.6189585260e+01    0.1902867    0.1665426 -73.92 0.0008429002    1.696    0.410
       112 -10.3805    156.8726     44.9566   7.8835293796e+01   4.0492436363e+01    0.2513162    0.1905826  58.30 0.0006386288    1.217    0.178
       113 -11.6447     71.7467     42.7813   1.0050482834e+02   5.8528747120e+01    0.5895339    0.3307718  50.88  0.002880763    2.386    0.581
       114 -10.3393     69.7039     37.9982   9.9454799391e+01   5.9561160703e+01      0.20387    0.1653347  17.90 0.0003264619    1.140    0.123
       115  -9.9841      9.9729     44.0000   1.2426057813e+02   6.5119024963e+01    0.1826271    0.1378113  12.16   0.00082191    1.510    0.338
       116 -10.7654      5.8569     42.7524   1.2555243259e+02   6.5592933842e+01    0.2828852     0.213785 -82.99  0.001904727    2.126    0.530
       117  -9.9282    114.6700     42.8169   8.7711133926e+01   5.0527844031e+01    0.1763139    0.1628512 -13.36 0.0003570999    1.115    0.103
       118 -12.1928     41.4827     38.2567   1.0985034500e+02   6.3317881903e+01    0.5974863    0.3495206  23.99  0.002226285    1.771    0.435
       119 -10.8944    119.8756     33.9087   8.3396375239e+01   5.0582036084e+01     0.322722    0.2689722  55.26  0.001137571    1.184    0.155
       120 -10.5274     49.2191     34.9955   1.0569799051e+02   6.2897184920e+01    0.3264627    0.1605219  27.73  0.001323995    2.115    0.527
       121 -10.3072     73.9551     32.5349   9.5987376925e+01   5.9649214339e+01    0.2872492    0.1809681  57.94  0.001451871    2.445    0.591
       122 -11.4667    103.8714     30.1630   8.6169103000e+01   5.4431203346e+01    0.5046987    0.3392741  63.32  0.001942977    1.795    0.443
       123 -11.2003    220.1884    248.7079   1.1272552450e+02  -9.7560552202e+00    0.2952354    0.2063984  66.44  0.001541803    2.772    0.639
       124 -12.1834    203.0039     21.0212   6.5167012125e+01   3.2142145486e+01     0.405806    0.2187474  87.48  0.001863881    2.015    0.504
       125 -10.6405    239.7573     20.6955   6.1185243186e+01   2.3548381970e+01    0.2582093    0.1920402  88.50 0.0006330212    1.166    0.142
       126 -11.5381     25.7589    242.7708   1.4766779108e+02   2.1579968307e+01    0.2607303    0.1366037 -88.58  0.001332398    1.604    0.377
       127  -9.8978     88.7593     18.1684   8.5919933292e+01   5.8771693176e+01    0.1884588     0.135931 -70.45 0.0009482451    2.788    0.641
       128 -10.2838    131.5636     15.4692   7.4691816066e+01   5.0009508447e+01    0.1313577    0.1140577  48.35 8.771849e-05    1.010    0.010
       129 -12.0485     22.3790    239.2128   1.4799283582e+02   2.2637806277e+01    0.3119454    0.1653282 -82.42  0.002007127    1.581    0.367
       130 -10.1332     33.7269    242.3832   1.4633412666e+02   2.0721513391e+01    0.2033156   0.08224337  45.86   0.00112735    2.094    0.522
       131 -10.4564      8.2124    240.6009   1.5033902786e+02   2.3900221607e+01    0.1632447    0.1217849  51.40  0.001087712    1.484    0.326
