#   1 NUMBER                 Running object number                                     
#   2 MAG_AUTO               Kron-like elliptical aperture magnitude                    [mag]
#   3 X_IMAGE                Object position along x                                    [pixel]
#   4 Y_IMAGE                Object position along y                                    [pixel]
#   5 X_WORLD                Barycenter position along world x axis                     [deg]
#   6 Y_WORLD                Barycenter position along world y axis                     [deg]
#   7 A_WORLD                Profile RMS along major axis (world units)                 [deg]
#   8 B_WORLD                Profile RMS along minor axis (world units)                 [deg]
#   9 THETA_WORLD            Position angle (CCW/world-x)                               [deg]
#  10 FWHM_WORLD             FWHM assuming a gaussian core                              [deg]
#  11 ELONGATION             A_IMAGE/B_IMAGE                                           
#  12 ELLIPTICITY            1 - B_IMAGE/A_IMAGE                                       
         1 -14.0465      5.7362     66.2109   1.0639334860e+02   6.2425440536e+01     2.377364    0.6377462 -45.52  0.009918235    2.666    0.625
         2 -13.2556      3.8980     51.8604   1.0371187313e+02   6.5582571565e+01     1.145793     0.489986 -62.11  0.005698995    2.093    0.522
         3 -13.1659    229.8303     29.4926   3.5508923485e+01   2.5295597335e+01    0.7328484    0.6550081  61.26  0.005021822    1.384    0.278
         4 -12.7574     59.9407     27.9209   6.8985220953e+01   6.3633877355e+01     1.122718    0.7475243  31.73  0.006414351    1.372    0.271
         5 -11.9448      3.6099     21.3955   9.3854560762e+01   7.1374231277e+01    0.5321397    0.2867632 -39.23  0.003278321    1.442    0.307
         6 -13.7502     12.0938     16.8211   8.7007034269e+01   7.1463352919e+01     1.186181     1.099603  32.32  0.008907364    1.705    0.413
         7 -12.4281     19.7884      8.7377   7.8731530503e+01   7.1869335951e+01    0.6682146    0.3780843 -29.68   0.00338407    1.562    0.360
         8 -13.5086     28.0062     16.0888   7.7996278724e+01   6.9904692480e+01    0.8333101    0.5954762  48.81  0.004950717    2.371    0.578
         9 -12.9575    178.8358      5.9986   3.4997924805e+01   3.9400625797e+01     1.387261    0.6028467  50.45  0.006316798    2.517    0.603
        10 -11.5025     38.7881     13.7396   7.1539610100e+01   6.8792259015e+01    0.2303727       0.1974  -1.88  0.001618949    1.205    0.170
        11 -10.9904     40.5163      9.1669   6.8458937100e+01   6.9092154495e+01    0.2999867    0.1711905  19.11  0.001684238    1.703    0.413
        12 -11.7580    209.8284      5.2429   3.1942997548e+01   3.2383883698e+01    0.6310462    0.3420521 -64.31  0.003453653    1.735    0.424
        13 -11.4019    198.3786      7.3399   3.3407750390e+01   3.4740684283e+01    0.3728388    0.2098453 -18.36  0.001913081    2.482    0.597
        14 -11.8173     28.9408      5.6834   7.2249583157e+01   7.1137616392e+01    0.3478911    0.3298167  35.22  0.002582476    1.737    0.424
        15 -12.1477    167.2499      2.4040   3.5318734618e+01   4.2469174028e+01      0.89799    0.2326786  71.84   0.00323568    3.387    0.705
        16 -11.0452    103.8800      2.5234   4.5159394112e+01   5.7407352797e+01    0.4553469    0.1520221  55.15   0.00195603    2.261    0.558
        17 -10.4808    119.8148      1.8499   4.1835608697e+01   5.3796186237e+01    0.3339482   0.08712551  68.66  0.001106731    3.839    0.740
        18 -12.9709     51.0370    161.0861   1.0765406611e+02   3.5291822867e+01    0.5447822    0.3183138 -39.20  0.001745104    2.160    0.537
        19 -11.3680    243.9037    248.7302   7.8350427642e+01  -1.1495971112e+01    0.3829605    0.2218174  -9.85  0.002330455    1.624    0.384
        20 -11.2748    248.5259    245.4986   7.7018816967e+01  -1.1633301919e+01    0.4342541    0.2385578 -19.74  0.002628444    1.640    0.390
        21 -12.5453    174.9871    249.5015   9.1470092992e+01  -2.3959875789e+00     1.109062    0.2635992  33.45  0.003775628    3.914    0.745
        22 -13.3841     65.1618    208.0288   1.0990108845e+02   2.2147896905e+01     2.107952    0.9998502  31.37  0.009592096    2.189    0.543
        23 -14.4845      8.6874    128.5363   1.1551722647e+02   4.7439886992e+01     4.454135    0.7598462 -70.08   0.01403952    4.092    0.756
        24 -14.2963      7.1515    244.5638   1.2447072837e+02   2.1027754685e+01     2.040736     1.291225 -83.92   0.01218451    1.432    0.302
        25 -13.4549     42.8513    194.0757   1.1361839433e+02   2.8150189138e+01     1.029686    0.6780717  68.34  0.004041565    1.454    0.312
        26 -15.2927     17.4564    204.3216   1.2016927722e+02   2.8461398260e+01     2.005402     1.781221  66.95   0.01431778    1.189    0.159
        27 -12.5890     67.8786    143.5460   1.0006280048e+02   3.7604809795e+01    0.7537878    0.4649958  62.27  0.002921276    2.063    0.515
        28  -9.9090     90.4741    144.4599   9.3626478276e+01   3.3938798481e+01     0.275835    0.2628057 -61.57  0.001007442    1.014    0.014
        29 -11.7875     77.9897    142.2858   9.6840218298e+01   3.6462101598e+01    0.3187475    0.2667754 -54.40 0.0005702439    1.135    0.119
        30  -9.2904     94.1523    140.8225   9.1808222268e+01   3.4238809326e+01     0.208819    0.1777603 -25.68 0.0002729181    1.310    0.236
        31 -11.8674     74.2578    157.4932   1.0067088248e+02   3.3140830729e+01    0.5664554    0.5139491 -47.20  0.003169834    1.154    0.134
        32 -10.4931    105.5795    131.5045   8.6418360524e+01   3.4525935327e+01    0.3655274    0.3119665  -7.50   0.00114118    1.360    0.265
        33 -12.7993     53.2453    122.8442   1.0068726964e+02   4.4793614416e+01     1.586697    0.5453325  37.85  0.005789937    3.032    0.670
        34 -13.0398     52.9874    115.6122   9.9316146310e+01   4.6647385905e+01     1.069059    0.4819142 -65.26  0.004219631    2.235    0.553
        35 -12.6477     54.7229    109.5956   9.7440673161e+01   4.7932307838e+01     1.325299    0.6969491 -37.33  0.005581171    2.101    0.524
        36 -10.3704     91.2224    128.3822   8.9944796532e+01   3.7847000848e+01    0.2833541    0.2616615 -19.85 0.0005466141    1.144    0.126
        37  -9.3092    103.3371    120.0526   8.4313727082e+01   3.7724297928e+01    0.2122419    0.1912925 -47.91  0.000415362    1.072    0.068
        38 -12.8280     42.3485     92.9285   9.8014378640e+01   5.3402665523e+01    0.8032396    0.6846337 -46.21  0.003467563    1.021    0.021
        39 -12.6136     29.8241     87.3877   1.0144521129e+02   5.5930600493e+01    0.8461697     0.723495  80.55  0.004543019    1.451    0.311
        40 -13.5542      4.1222     87.5408   1.1122583899e+02   5.7654648575e+01     1.789797    0.4874378 -63.63  0.007284646    2.572    0.611
        41 -13.0182     17.0553     90.8239   1.0700152632e+02   5.6115462919e+01    0.9660835     0.605558 -61.98  0.003747654    1.327    0.247
        42 -13.6706     19.9554     77.0156   1.0294589052e+02   5.9119542502e+01     1.459083    0.8320491  -6.78  0.006943608    2.136    0.532
        43  -9.2315    135.4768    163.5121   8.5381410988e+01   2.1167778507e+01    0.1519484     0.149584  69.09 0.0001443609    1.048    0.046
        44 -10.7163    132.4743    247.0051   9.9825950049e+01   4.3731147078e+00    0.1690449    0.1281343 -54.49 0.0006195696    1.570    0.363
        45 -11.3380     53.3228     89.9191   9.3193059631e+01   5.2832389664e+01    0.4986774    0.2654953 -49.21  0.002227303    1.652    0.395
        46 -11.8221     54.9189     96.4650   9.4284444702e+01   5.1093637498e+01    0.7132255    0.3593706 -48.28  0.003129376    1.751    0.429
        47  -9.6112     92.6605     90.3167   7.9559308339e+01   4.6582390569e+01    0.1505309     0.122445  83.46 0.0002990991    1.705    0.414
        48 -11.6742     47.3916     76.8990   9.1889929045e+01   5.6505376489e+01    0.3885246    0.3155777  57.89  0.001922716    1.658    0.397
        49 -12.5795     21.9620     66.5478   9.9499741009e+01   6.1291378286e+01    0.6488425    0.6336913 -85.30  0.003329731    1.305    0.234
        50 -11.5342     47.2895     65.2674   8.8411800352e+01   5.8997849589e+01    0.5347091    0.1853197 -43.77  0.002080131    2.551    0.608
        51 -12.0861     97.8529     41.1971   6.1365890924e+01   5.4520317260e+01    0.6991031    0.4618771 -46.94  0.003471365    1.825    0.452
        52 -12.4519    133.7227    238.3392   9.8422552582e+01   5.7270383960e+00    0.4841188    0.2904682  15.65  0.002290293    2.234    0.552
        53 -12.5421     13.2313     31.8063   9.2614041546e+01   6.8860778493e+01    0.6383596    0.4281325  18.11  0.002758285    1.564    0.361
        54  -9.9886     61.5167    236.4805   1.1348070741e+02   1.6514488724e+01    0.2539664    0.1533174  64.58   0.00127626    1.572    0.364
        55  -9.2530     60.2845    232.6439   1.1339684170e+02   1.7457206353e+01    0.1930648    0.1188991 -84.30 0.0007734016    1.682    0.406
        56 -12.3205    128.3535    231.3195   9.8619101878e+01   7.8677193472e+00    0.7033098    0.1960953  43.50  0.002441075    3.303    0.697
        57  -9.6153     83.3171    230.0128   1.0825330200e+02   1.4895103225e+01    0.1812431    0.1595612  73.32  0.001166731    1.086    0.079
        58 -10.5906    153.8255    228.3830   9.2683906834e+01   4.3752081379e+00    0.1986529    0.1143072  25.90 0.0009500789    1.740    0.425
        59 -10.5124    134.8707    225.1099   9.6312548115e+01   8.0233102804e+00    0.2145252    0.1769248  55.87  0.001248168    1.275    0.216
        60 -14.9198     29.6846    186.0474   1.1595000128e+02   3.1485327535e+01     3.886105     1.624396  64.24   0.01322559    2.921    0.658
        61  -9.8918    134.4942    147.9988   8.2286632096e+01   2.4979999598e+01    0.2217971    0.1409773 -74.44 0.0008101609    2.509    0.601
        62 -11.7791     45.4302    181.4632   1.1166185455e+02   3.0878340793e+01     0.509132    0.2695343 -52.60  0.001190886    1.988    0.497
        63 -12.7363     82.0070    206.9489   1.0587220979e+02   2.0052751991e+01     1.285768    0.7929928  82.28  0.005830549    2.036    0.509
        64 -10.7300     94.3037    203.0494   1.0245890933e+02   1.9099200704e+01    0.4597794    0.3013687 -80.66  0.002239583    1.800    0.445
        65 -11.5907     53.0220    174.9141   1.0895913888e+02   3.1585355393e+01    0.2811131    0.2507594 -50.96 0.0004506232    1.249    0.199
        66 -10.6987     65.5407    164.6445   1.0421939488e+02   3.2547786846e+01    0.2537137    0.2353298 -61.49 0.0004094901    1.111    0.100
