#   1 NUMBER                 Running object number                                     
#   2 MAG_AUTO               Kron-like elliptical aperture magnitude                    [mag]
#   3 X_IMAGE                Object position along x                                    [pixel]
#   4 Y_IMAGE                Object position along y                                    [pixel]
#   5 X_WORLD                Barycenter position along world x axis                     [deg]
#   6 Y_WORLD                Barycenter position along world y axis                     [deg]
#   7 A_WORLD                Profile RMS along major axis (world units)                 [deg]
#   8 B_WORLD                Profile RMS along minor axis (world units)                 [deg]
#   9 THETA_WORLD            Position angle (CCW/world-x)                               [deg]
#  10 FWHM_WORLD             FWHM assuming a gaussian core                              [deg]
#  11 ELONGATION             A_IMAGE/B_IMAGE                                           
#  12 ELLIPTICITY            1 - B_IMAGE/A_IMAGE                                       
         1 -11.1597    200.6644     31.5007   5.3848543379e+01   3.0480995616e+01      0.88537    0.6033607  19.70  0.004045772    1.931    0.482
         2 -10.2834    207.6837     22.2458   5.0274491191e+01   2.9744680613e+01     0.517086    0.3719009  31.10  0.001175179    1.677    0.404
         3 -10.2414    214.0568     16.1729   4.7850300267e+01   2.8777038994e+01    0.6706113    0.3929433 -73.02  0.003017916    1.980    0.495
         4 -10.2736    215.0046     11.9828   4.6582986677e+01   2.8976357236e+01    0.6602771    0.3947035 -80.96  0.003069938    1.868    0.465
         5  -7.8161    223.1903      5.8413   4.4153356957e+01   2.7538787263e+01    0.1806525    0.1502983  51.09 0.0003756309    1.321    0.243
         6  -7.7173    180.4498      1.7009   4.7175203048e+01   3.9012591722e+01    0.1778444    0.1383079   3.44  0.000927177    1.498    0.332
         7  -8.1500    172.8923      1.6020   4.8036369942e+01   4.1039184072e+01    0.1992819    0.1633823  77.60 0.0004478405    1.153    0.133
         8  -9.9503     37.1449    242.9626   1.2775481398e+02   2.2858369740e+01    0.3077869     0.192938  45.84  0.001519732    1.385    0.278
         9  -8.0990     98.0656    250.0004   1.1833921335e+02   1.4308603800e+01    0.1677213   0.09330308  62.20 0.0005863217    1.631    0.387
        10 -10.0387     26.5601    250.0078   1.2970298319e+02   2.2905341543e+01    0.5440126    0.1894128  39.67  0.003366097    2.348    0.574
        11 -12.1348     15.3026    166.0551   1.2741789747e+02   3.8894087095e+01     2.184116     0.752259  75.00  0.009451844    3.484    0.713
        12 -12.1361     52.2777    202.9882   1.2273630345e+02   2.7870501961e+01      1.73996    0.6595147  56.60  0.006389055    2.305    0.566
        13  -7.6391     98.3522    240.9892   1.1755750503e+02   1.5571417036e+01     0.144525    0.1127643  61.38 0.0008024161    1.099    0.090
        14 -10.1142    134.5450    234.3832   1.1068098511e+02   1.1271859214e+01    0.2023404     0.168568  48.02 0.0002000584    1.106    0.096
        15  -7.1554    192.3171    234.6536   1.0077780407e+02   2.2831692957e+00    0.1057913   0.08072114  60.52 0.0007048419    1.724    0.420
        16  -8.2321     96.3604    227.2962   1.1671041313e+02   1.7939479240e+01    0.1005583   0.08318324  22.15 0.0003047047    1.707    0.414
        17  -8.3241     37.5072    226.7677   1.2687041596e+02   2.5420514210e+01    0.1786571    0.1099754  49.90 0.0006772424    1.293    0.227
        18  -7.4620    110.0000    224.9916   1.1405331774e+02   1.6338385624e+01    0.1545784    0.0645504 -60.20 7.702982e-05    2.928    0.658
        19  -8.9362     30.1131    224.7130   1.2799869260e+02   2.6558872490e+01    0.1787526    0.1542066  18.18  0.001452314    1.978    0.494
        20  -7.6481    249.3891    223.1610   8.9835637718e+01  -5.1132873792e+00     0.124654   0.09644416 -24.01 0.0003988784    1.580    0.367
        21  -7.7410    136.5417    220.0186   1.0869695307e+02   1.3042357335e+01    0.1856716    0.1222957  44.83 -4.836986e-05    1.197    0.164
        22  -9.6001     72.7804    219.6170   1.2026683096e+02   2.2391522595e+01     0.298966    0.1495476  55.82  0.001808396    1.608    0.378
        23 -11.2289     11.7242    206.8009   1.3027219520e+02   3.1483691202e+01    0.5003703    0.2342221  44.93  0.001926531    1.740    0.425
        24 -12.2460      3.2154    210.1942   1.3185784530e+02   3.1662852739e+01     2.125413    0.3212513 -75.96  0.009007591    5.068    0.803
        25  -8.8191    244.2553    206.3404   8.7915464500e+01  -2.6772534024e+00    0.1931197    0.1579331  21.71 0.0002622316    1.162    0.140
        26  -8.1983     26.2589    205.1073   1.2763545111e+02   3.0364608909e+01    0.2188388   0.08199047  57.62  0.001231226    2.115    0.527
        27  -9.2130     15.7182    199.0711   1.2920653594e+02   3.2498963518e+01    0.2492992     0.129989  61.03 0.0006616606    1.456    0.313
        28  -8.6925    196.9503    197.8707   9.4508269761e+01   6.0828228965e+00    0.3367694    0.1413696  51.59  0.001436666    2.750    0.636
        29 -10.9192     16.5742    241.4728   1.3089185514e+02   2.5230107942e+01    0.3972842    0.3388876  62.91 0.0004972522    1.450    0.310
        30  -9.5155    242.1275    188.2256   8.5106121356e+01  -3.5605689418e-01    0.2622927    0.2485258  79.29    0.0012154    1.719    0.418
        31  -7.2923    155.0294    185.9817   1.0047651534e+02   1.5280370006e+01    0.1505594    0.1320921  44.36   0.00095315    1.024    0.024
        32  -9.0533     68.5033    184.2350   1.1792465420e+02   2.9368795746e+01    0.2862997    0.2073464 -42.68  0.001688612    2.078    0.519
        33  -9.1376    230.4904    183.4042   8.6148148260e+01   2.1549003134e+00    0.2829169    0.1903298  43.44 0.0001072008    1.454    0.312
        34  -9.1241     73.1491    178.5311   1.1636489494e+02   2.9865119096e+01    0.2366997    0.1928224 -62.16 0.0007445816    1.418    0.295
        35  -9.0290    231.2543    178.5759   8.5126289641e+01   2.6212973911e+00    0.2243901    0.1928246  17.31 0.0002785555    1.086    0.079
        36 -12.0606      6.0038    248.2586   1.3270688514e+02   2.5203761915e+01     1.107521    0.7204736  75.55  0.007207277    1.185    0.156
        37  -7.6337    241.3545    173.7530   8.2542771397e+01   1.4807424759e+00    0.1639083    0.1054124 -14.21  0.000541684    1.560    0.359
        38  -9.1536    231.5953    173.7755   8.4162002361e+01   3.1655549295e+00    0.2456911    0.1969541  33.23 0.0003943552    1.174    0.149
        39  -8.5631    152.0835    173.0233   9.8939208041e+01   1.8006591308e+01    0.1939419     0.171318  47.75 0.0002908965    1.017    0.017
        40  -9.4474     85.5739    172.8259   1.1304880635e+02   2.9246370000e+01     0.223863     0.189356  79.85  0.000224352    1.066    0.062
        41  -8.8937     81.9090    168.3186   1.1328464866e+02   3.0686636192e+01    0.2371807    0.1877921  68.50 0.0003917705    1.101    0.092
        42 -10.3997    199.3152    170.8881   8.9312094607e+01   9.4458196735e+00    0.2901555    0.2218232  35.70 0.0004407318    1.154    0.133
        43 -10.5113     69.3442    164.8173   1.1563845435e+02   3.3153454628e+01    0.3498888    0.2387094 -50.37  0.001073163    1.798    0.444
        44  -9.3897     87.9928    161.0873   1.1097103107e+02   3.1271778074e+01    0.4164234     0.269237 -36.51  0.001681986    2.429    0.588
        45  -8.4321     85.0903    157.6553   1.1115489100e+02   3.2419661514e+01    0.2129717    0.1692628 -64.28 0.0002257966    1.298    0.229
        46 -10.3152     12.1398    178.8808   1.2881650704e+02   3.6634879060e+01    0.6797648    0.1659694 -74.35  0.003137441    3.329    0.700
        47  -7.4994    129.3844    154.1985   1.0050374949e+02   2.5704861716e+01    0.1760764    0.1292807 -68.27 0.0003221868    1.549    0.354
        48  -7.4887    205.1141    152.5769   8.4603606641e+01   1.1065963575e+01    0.1782719    0.1694915 -25.54 0.0004166995    1.186    0.157
        49  -8.4050     18.1735    150.2020   1.2568096090e+02   4.1913744933e+01    0.1668257    0.1047719  71.99 0.0008548147    1.351    0.260
        50  -8.8723    219.3206    153.9865   8.2338210540e+01   8.0848103285e+00    0.2267889    0.1762884  36.04 0.0002494759    1.195    0.163
        51  -9.8454     68.1487    144.6740   1.1334702866e+02   3.7599030991e+01    0.6125185    0.3295103  63.50  0.002957373    2.098    0.523
        52  -7.0979     40.6698    148.6756   1.2038907118e+02   4.0046799330e+01    0.1129531   0.08624817 -46.49 0.0007050253    1.702    0.412
        53  -7.4048    152.0312    146.2830   9.3985346524e+01   2.2865310282e+01    0.1909585    0.1750893  43.48 0.0003370824    1.026    0.026
        54  -7.8959    134.0000    145.9837   9.7934793372e+01   2.6457711140e+01    0.2192225   0.08045938 -49.31 0.0007957817    2.897    0.655
        55  -7.6687    246.5092    141.5380   7.5179741196e+01   4.6461172403e+00    0.1326141    0.1123008   4.40 5.146333e-05    1.023    0.022
        56 -10.4592     43.5318    213.6921   1.2506774680e+02   2.6976748569e+01    0.2988678    0.2760356 -64.10  0.001050869    1.625    0.385
        57  -6.9523    111.6645    133.6864   1.0081166168e+02   3.3144559595e+01    0.1366338    0.1133157  -6.99  0.000704619    1.688    0.408
        58  -7.4274     11.4709    132.4892   1.2582491057e+02   4.6256727188e+01    0.1146287   0.08853375  89.71 0.0008098013    1.018    0.018
        59  -7.2045    237.2961    128.6496   7.3814977033e+01   8.1540288558e+00    0.1311554    0.1051016 -57.42 0.0005751154    1.683    0.406
        60  -7.7683     12.7688    128.4783   1.2516507730e+02   4.7028530523e+01    0.1208624    0.1137604 -12.42  0.000923201    1.504    0.335
        61  -7.2512      5.2991    117.6744   1.2611095951e+02   4.9936491575e+01    0.1182136   0.06795006  70.98 0.0003935173    1.633    0.388
        62  -6.8629    168.3135    113.6630   8.3080792042e+01   2.5512405863e+01    0.1523029    0.1200312 -80.49 0.0007046482    1.692    0.409
        63  -6.9422    196.6862    107.3304   7.5778783382e+01   2.0138696827e+01    0.1492081    0.1176382 -70.78 0.0002543397    1.676    0.404
        64  -9.6097    219.0358     99.0045   6.9729836167e+01   1.6366250319e+01    0.2641615    0.2271954 -22.35 0.0003231949    1.112    0.101
        65  -8.0334    223.7782     95.3809   6.8047344455e+01   1.5843553507e+01    0.2552898    0.1889616 -28.37  0.000493489    1.285    0.222
        66  -8.4441     97.5208     90.7955   9.4860600956e+01   4.5024677753e+01     0.229073    0.1962154  45.58 0.0002868419    1.219    0.180
        67  -7.1144    228.6933     89.7215   6.5851790083e+01   1.5571773211e+01    0.1427751    0.1061945  18.18 0.0003525648    1.553    0.356
        68  -8.1294    106.7458     84.0153   9.0359213412e+01   4.4738551887e+01    0.2091162    0.1862751 -71.54 0.0003380056    1.186    0.157
        69  -7.0781     74.4722     71.4241   9.6633633508e+01   5.3097342765e+01    0.1361248    0.1260289 -57.56 0.0002016525    1.053    0.050
        70  -7.7962    120.9892     62.0101   7.9556420696e+01   4.6107321918e+01    0.2256001    0.1777098   5.62 0.0003358061    1.555    0.357
        71  -9.1555    216.6049     50.9884   5.7304335045e+01   2.3916875956e+01    0.3657312    0.2631868 -23.42  0.001770273    1.397    0.284
        72  -8.9522    190.7718     42.8966   5.8687051114e+01   3.1604831880e+01    0.2565081    0.2176825 -88.23 0.0005391056    1.253    0.202
        73 -10.6750    192.1552     36.2270   5.6448539001e+01   3.2117071023e+01    0.5540591    0.4158781  34.85   0.00188803    1.491    0.329
        74  -9.0076    241.2405    248.7334   9.4867317538e+01  -6.2803259549e+00    0.1770533    0.1328356  22.53 0.0005332603    1.120    0.107
        75  -8.2718     60.3074    248.3033   1.2435963673e+02   1.9387182966e+01    0.1960456   0.08879732  76.54  0.001159989    2.503    0.601
        76  -7.3423    163.7013     32.2094   5.9715376991e+01   4.0163485724e+01    0.2027165    0.1377901 -13.55 0.0002886033    1.663    0.399
        77  -7.1843     57.9972     20.0700   8.3758668281e+01   6.5456368754e+01    0.1499267    0.1298936  -9.85 0.0003077725    1.032    0.031
        78  -8.5679     67.3885    247.4631   1.2316943475e+02   1.8652233229e+01    0.1930007    0.1232707  62.04 0.0006796694    1.167    0.143
        79  -7.4431     55.5555    246.8176   1.2503297409e+02   2.0175978141e+01    0.1312891    0.0732842  77.38 0.0006045206    1.665    0.399
        80  -7.1005     44.0005    246.9987   1.2687440674e+02   2.1478116205e+01    0.1186739   0.08053165  62.63 0.0003371728    1.017    0.017
        81  -7.7726     39.7176    246.3106   1.2751227469e+02   2.2059830589e+01    0.1584197   0.05758972  48.21 0.0004638517    1.855    0.461
