#   1 NUMBER                 Running object number                                     
#   2 MAG_AUTO               Kron-like elliptical aperture magnitude                    [mag]
#   3 X_IMAGE                Object position along x                                    [pixel]
#   4 Y_IMAGE                Object position along y                                    [pixel]
#   5 X_WORLD                Barycenter position along world x axis                     [deg]
#   6 Y_WORLD                Barycenter position along world y axis                     [deg]
#   7 A_WORLD                Profile RMS along major axis (world units)                 [deg]
#   8 B_WORLD                Profile RMS along minor axis (world units)                 [deg]
#   9 THETA_WORLD            Position angle (CCW/world-x)                               [deg]
#  10 FWHM_WORLD             FWHM assuming a gaussian core                              [deg]
#  11 ELONGATION             A_IMAGE/B_IMAGE                                           
#  12 ELLIPTICITY            1 - B_IMAGE/A_IMAGE                                       
         1 -13.8978    179.6069     42.1884   6.3438604197e+01   3.5064615500e+01     1.159278      1.00997   3.80  0.001019023    1.243    0.195
         2 -14.2956    189.9493     33.4050   5.8982504162e+01   3.3506207463e+01      1.75302     1.267355 -14.87  0.004924336    1.483    0.326
         3 -15.0197    198.5187     22.4410   5.4361787418e+01   3.2566032235e+01     2.707006     1.802301  19.57  0.001759148    1.945    0.486
         4 -11.5121     49.9821      6.9758   8.3398307366e+01   6.8842604607e+01    0.1986917    0.1641579 -16.34 0.0006210947    1.017    0.017
         5 -10.5911     65.1940      2.3837   7.4778870129e+01   6.6982262221e+01      0.16457    0.1235463  57.67 0.0009550183    1.718    0.418
         6 -11.4747     93.0067    236.2891   1.2030418979e+02   1.7437814773e+01    0.2011436    0.1494144  66.25 0.0002508351    1.116    0.104
         7 -15.8913    120.0659    237.9360   1.1600047538e+02   1.3435394203e+01      6.49076      2.74767  39.57   0.03631473    2.029    0.507
         8 -19.3928      8.5827    133.4010   1.2842956307e+02   4.6231467873e+01     16.48637     1.623889 -77.39   0.03918748   10.244    0.902
         9 -10.5811    164.0537    215.9623   1.0607260710e+02   9.7234047316e+00    0.1945144    0.1704231 -43.33 0.0009697945    1.437    0.304
        10 -12.2356    106.3294    209.0964   1.1551963539e+02   1.9803305444e+01    0.5975124    0.2823001  54.56  0.003261873    1.848    0.459
        11 -11.7176    117.3693    213.1657   1.1396883615e+02   1.7500022926e+01     0.258079    0.1722976  82.47   0.00116317    1.777    0.437
        12 -11.3305    115.0023    210.0000   1.1404922772e+02   1.8360960867e+01    0.2484425    0.1201806  44.22 0.0008647125    1.691    0.409
        13  -9.9857     30.8146    210.7026   1.2895385269e+02   2.9104698996e+01    0.1371782   0.06468953  50.06 0.0004158527    1.616    0.381
        14 -10.2190     34.6833    205.7304   1.2801626248e+02   2.9561268338e+01    0.1627495    0.1076033  52.23 0.0006936053    1.289    0.224
        15 -12.3317    193.9579    194.3721   9.7684853238e+01   7.6087948268e+00    0.8419234    0.5571885 -62.74  0.004466604    2.650    0.623
        16  -9.2611     36.1267    233.9281   1.2927425952e+02   2.4710335075e+01    0.1452871   0.08321713  64.29 0.0005027609    1.229    0.187
        17 -11.6541    120.0304    201.6480   1.1217740056e+02   1.8946875457e+01    0.2430336    0.1741131  45.50 0.0009604087    1.213    0.176
        18 -10.2663     81.6571    195.3861   1.1869279609e+02   2.5688752973e+01    0.2438905     0.222155   8.62  0.001760939    1.730    0.422
        19  -9.7008    180.1720    192.8263   9.9882152045e+01   1.0225310627e+01    0.1843206    0.1550648  56.73 0.0006470994    1.256    0.204
        20 -13.6175     62.2943    206.0729   1.2318254135e+02   2.6315486670e+01       2.2715     1.862104  53.46   0.01766299    1.290    0.225
        21 -16.0070     73.1804    151.5263   1.1549631200e+02   3.5452073501e+01     5.269837     2.589586  81.88   0.01231449    3.202    0.688
        22 -12.4507    103.7009    198.7766   1.1489463715e+02   2.1928823544e+01    0.4407469    0.3302215 -78.78  0.002980293    1.416    0.294
        23 -10.1563     61.3308    186.9498   1.2178491784e+02   2.9910097233e+01    0.3213835    0.1562281  36.43 0.0009481685    2.184    0.542
        24  -9.0199     42.1642    234.7391   1.2837187530e+02   2.3923633131e+01    0.1758873   0.05978861  64.41  0.000900812    2.726    0.633
        25 -12.9206     51.5807    227.4377   1.2646255461e+02   2.4014521436e+01     0.408029    0.1609033  60.79  0.002396713    2.107    0.525
        26 -11.1859    207.5201    183.5135   9.3490660014e+01   6.6713230626e+00    0.2976336    0.2364201 -44.04  0.001182335    1.567    0.362
        27 -11.1205    211.0709    179.6629   9.2192675072e+01   6.5476240791e+00    0.4136688    0.2668495 -12.56  0.001745472    1.885    0.470
        28 -11.1709     99.5463    180.6281   1.1358268261e+02   2.5814539609e+01     0.226978    0.2001787  59.83 0.0006395484    1.142    0.124
        29 -11.4279    143.9720    178.8199   1.0448682161e+02   1.8811080846e+01    0.3313647    0.1675846  44.50  0.001630533    1.730    0.422
        30 -10.3973    197.5034    176.2059   9.3957602706e+01   9.4807548553e+00    0.3650381    0.2338868  63.43  0.001377017    2.216    0.549
        31 -10.9796    195.9764    170.8768   9.3262362693e+01   1.0530754525e+01     0.323395    0.3071876   2.17  0.001126167    1.130    0.115
        32 -10.5197    193.7675    165.0520   9.2575319498e+01   1.1810718836e+01    0.3330659    0.2818488 -42.30  0.001686539    1.349    0.259
        33  -9.6635     69.0104    177.3568   1.1936218287e+02   3.0767352197e+01    0.1673795    0.1406224  37.56  0.001156326    1.474    0.322
        34 -11.0889     46.1989    172.3843   1.2349924608e+02   3.4537120098e+01    0.4221553    0.1904724  44.61  0.002374304    1.962    0.490
        35 -11.0796     42.3849    171.1915   1.2416835601e+02   3.5201785403e+01    0.2691647    0.1845828 -82.14  0.001123698    1.275    0.216
        36 -11.8842    110.2214    181.3005   1.1153228234e+02   2.4033252183e+01    0.2651193    0.2220646 -49.32  0.001734891    1.485    0.327
        37 -13.3022    113.2410    196.9505   1.1289024754e+02   2.0791476680e+01    0.5009264     0.434362  67.00  0.003574685    1.085    0.078
        38 -11.1951     54.0113    222.6435   1.2576800897e+02   2.4508747193e+01    0.1996058    0.1596236  38.08  0.000739535    1.623    0.384
        39 -11.5918     33.7340    228.7996   1.2940072186e+02   2.5781813091e+01    0.2049467    0.1614796 -65.96  0.001270076    1.814    0.449
        40  -9.8714    165.6673    153.3163   9.5722279174e+01   1.9178970841e+01    0.1373793    0.1066573  81.44 0.0003328718    1.688    0.407
        41 -10.7687    174.3151    148.7200   9.3085073142e+01   1.8251471407e+01    0.3593451    0.2954757 -37.69  0.001234702    1.302    0.232
        42 -11.2887    133.7275    144.0520   1.0065844651e+02   2.7080305052e+01    0.9244877    0.2583415 -54.88   0.00275515    4.733    0.789
        43 -10.8505    143.9685    145.7494   9.8760230904e+01   2.4798186431e+01    0.3560246     0.218732 -74.35  0.001502244    2.619    0.618
        44 -12.5460     94.6322    141.9252   1.0916362653e+02   3.4326696009e+01    0.2513112    0.2481306 -65.35 0.0005236703    1.253    0.202
        45 -11.0801     36.0915    225.1535   1.2884240283e+02   2.6118882208e+01    0.1597616    0.1238389  84.15 0.0003291269    1.279    0.218
        46 -11.6023    106.6690    141.4377   1.0628738390e+02   3.2460062811e+01    0.4878218    0.3197439 -33.07  0.002321007    2.321    0.569
        47 -10.8930    114.5136    131.3706   1.0259607656e+02   3.3205121256e+01    0.3248699    0.2847715   7.78 0.0008811508    1.510    0.338
        48 -12.0995    119.1805    127.3741   1.0069118865e+02   3.3193177616e+01    0.8749354    0.3982984 -43.96   0.00352591    2.440    0.590
        49 -10.6909    106.0300    130.8501   1.0451732071e+02   3.4806913715e+01    0.3174003    0.2771969 -83.66  0.001155735    1.085    0.078
        50 -11.1109    102.0018    127.7004   1.0489465075e+02   3.6170660417e+01    0.2476826    0.2429328  27.02 0.0005745887    1.224    0.183
        51 -10.6326    160.3362    128.3257   9.1609695780e+01   2.4787749409e+01    0.4457452    0.2981453 -23.32  0.002029329    1.960    0.490
        52 -11.2160    135.2876    122.1849   9.5798193645e+01   3.1155616932e+01     0.587216    0.1753243 -51.05  0.001824971    3.707    0.730
        53 -10.0401    125.7194    127.3553   9.9146028068e+01   3.1967919765e+01     0.258463    0.1679614 -64.15 0.0006985692    1.715    0.417
        54 -10.1895    109.9146    119.9742   1.0140105820e+02   3.6457471502e+01    0.2045149    0.1903803  88.52 0.0003747241    1.010    0.010
        55 -10.1966     70.9873    229.0351   1.2338238630e+02   2.1413610375e+01    0.1588967    0.1094968  62.96  0.000456981    1.062    0.058
        56 -10.3169    167.6556    112.5660   8.6333488786e+01   2.6135863411e+01     0.300009    0.2520096 -78.10 0.0007962703    1.428    0.300
        57 -10.0992    135.0000    112.1281   9.3539312391e+01   3.3264179015e+01    0.3961817   0.08239028 -45.75  0.001036866    4.804    0.792
        58 -11.2119    120.6882    111.0914   9.6760458146e+01   3.6342690048e+01    0.2921081    0.2463942  72.92  0.001572777    1.246    0.197
        59 -10.2677    205.4903    110.1670   7.8358672189e+01   1.8021063831e+01    0.3146382    0.2004408  41.34 0.0008596324    1.587    0.370
        60  -9.8221    104.0396    111.0841   1.0096874579e+02   3.9434450351e+01    0.2043558    0.1864197 -89.17 0.0002778291    1.048    0.046
        61  -9.7834    134.4876    102.9599   9.1393526653e+01   3.5244775651e+01    0.2292649    0.1439662 -45.32  0.001012532    1.574    0.365
        62  -9.1053    154.3553     79.2816   8.0165237067e+01   3.5403497582e+01    0.1579161    0.1196753  19.14 0.0007015807    1.661    0.398
        63 -11.3188    166.0203     66.3942   7.3730509055e+01   3.4826304360e+01    0.4655737     0.329204 -79.28  0.001850027    1.998    0.500
        64 -11.6689    167.6070     56.2171   7.0179426147e+01   3.6090074728e+01    0.2743675    0.2281469 -44.58  0.001103077    1.204    0.170
        65  -9.0004    168.3041    248.2871   1.0925673153e+02   5.0467301363e+00    0.1016194   0.06833651  26.26 0.0001780419    1.564    0.361
        66 -10.4412     44.6417    228.3768   1.2763927114e+02   2.4655753844e+01    0.2591508   0.08690083  57.54  0.001071244    2.325    0.570
        67 -11.1516     85.0671    235.4025   1.2153430333e+02   1.8623766076e+01    0.3229396    0.1643152 -78.03  0.001191255    2.327    0.570
        68  -9.5120     40.3908    225.5650   1.2817109571e+02   2.5583077678e+01     0.101734   0.06878656  66.98 0.0002328377    1.031    0.030
        69 -10.6159     48.7079    236.9420   1.2746336501e+02   2.2846226542e+01    0.2139073    0.1116089  70.68  0.001431366    1.583    0.368
