#   1 NUMBER                 Running object number                                     
#   2 MAG_AUTO               Kron-like elliptical aperture magnitude                    [mag]
#   3 X_IMAGE                Object position along x                                    [pixel]
#   4 Y_IMAGE                Object position along y                                    [pixel]
#   5 X_WORLD                Barycenter position along world x axis                     [deg]
#   6 Y_WORLD                Barycenter position along world y axis                     [deg]
#   7 A_WORLD                Profile RMS along major axis (world units)                 [deg]
#   8 B_WORLD                Profile RMS along minor axis (world units)                 [deg]
#   9 THETA_WORLD            Position angle (CCW/world-x)                               [deg]
#  10 FWHM_WORLD             FWHM assuming a gaussian core                              [deg]
#  11 ELONGATION             A_IMAGE/B_IMAGE                                           
#  12 ELLIPTICITY            1 - B_IMAGE/A_IMAGE                                       
         1  -8.5949    120.5828     20.7909   7.4515399805e+01   5.1796846104e+01    0.1704596    0.1160009 -41.15 0.0008752166    1.705    0.413
         2  -8.4394     55.7883     10.1754   8.8288196842e+01   6.5240124607e+01     0.158291    0.1421896   5.37 0.0006375446    1.276    0.216
         3  -8.9243      6.2617      8.7532   1.0858909018e+02   7.1355023855e+01    0.1940504     0.143811  41.48  0.001376927    2.423    0.587
         4 -10.1992    247.4553      4.5381   5.4350601663e+01   2.4485827628e+01    0.4660164    0.3439439  42.83  0.002919653    2.216    0.549
         5  -8.5177     33.0809      4.7840   9.4565259688e+01   6.9004139919e+01    0.1859052    0.1285318 -47.23  0.001155838    2.637    0.621
         6  -8.2800     79.0548      4.0377   7.8505383235e+01   6.1804361674e+01    0.1628914    0.1397987 -56.57 0.0008572742    1.704    0.413
         7  -8.4326     15.9750      3.4566   1.0151926966e+02   7.1107299530e+01    0.1187966    0.0870843  44.37 0.0006232839    2.433    0.589
         8  -8.3200     62.5030      1.6219   8.2401021327e+01   6.4934803370e+01    0.1597394    0.1311125  61.09 0.0007579899    1.660    0.397
         9  -7.8114    101.4467      8.4436   7.4523890437e+01   5.7040323067e+01    0.1204383    0.1042733  44.52 0.0001116354    1.066    0.062
        10  -7.7726     39.3348      1.6792   9.0613224735e+01   6.8484654981e+01   0.09046348   0.08760506 -16.35 0.0007049837    1.704    0.413
        11  -9.5465    146.1346    246.6801   1.2263028301e+02   2.0845215732e+00    0.3686208    0.2505108  18.29  0.001880281    1.988    0.497
        12  -8.3283     93.9050    249.5767   1.3321898935e+02   1.0106483924e+01     0.241024    0.1283939  70.61  0.001003149    2.274    0.560
        13  -9.1830     65.7141    249.4447   1.3848482522e+02   1.4300152009e+01    0.2871266     0.151416  61.10  0.001037645    1.667    0.400
        14  -9.3988     34.6196    248.0806   1.4391278051e+02   1.8649384055e+01    0.2247734    0.1151165  58.19 0.0007263874    1.576    0.366
        15  -8.6671    232.7878    247.1907   1.0602436273e+02  -1.1968657702e+01    0.1698955    0.1530104  13.35 0.0006597858    1.237    0.191
        16 -10.0525    224.0797    244.1324   1.0710446958e+02  -1.0260334250e+01    0.4325938     0.245111 -44.97   0.00220342    2.139    0.532
        17  -9.0322    211.0159    246.4954   1.0993998126e+02  -8.6081360133e+00    0.2012503    0.1746307 -56.25  0.000636919    1.601    0.376
        18  -9.1262    120.2891    245.7238   1.2763293453e+02   6.6031790928e+00    0.3353273    0.2075865  83.45  0.001507962    2.287    0.563
        19  -8.0359     76.7635    247.5980   1.3626240062e+02   1.3076023326e+01    0.1741226   0.09273624  52.47 0.0004938665    1.568    0.362
        20  -8.7104      9.9158    246.1778   1.4794491755e+02   2.1842869088e+01    0.2872494    0.1159062 -78.72  0.001610719    2.088    0.521
        21  -8.7491     27.1938    250.4805   1.4534235800e+02   1.9068724635e+01    0.2624609   0.08639388  41.86  0.001310011    2.622    0.619
        22  -9.6526     52.7880    249.9047   1.4086140859e+02   1.5976404302e+01    0.2673257    0.1442964  44.78 0.0009074061    1.666    0.400
        23  -9.1368     46.0501    244.6759   1.4164487525e+02   1.7892602869e+01    0.1658688    0.1223669  60.40 0.0005207309    1.158    0.137
        24  -9.4417    246.4156    229.5295   1.0049991491e+02  -1.1448368034e+01    0.5161466    0.2369587 -46.84  0.002367791    2.915    0.657
        25  -9.3673    248.5097    242.4872   1.0240941899e+02  -1.3540028725e+01    0.2181935    0.2009991 -20.38  0.001309079    1.411    0.291
        26 -10.5839    247.1276    238.3751   1.0193915848e+02  -1.2791304498e+01    0.3598432    0.3055998 -19.40  0.000390284    1.239    0.193
        27  -8.6695    169.1052    243.4814   1.1759422205e+02  -1.2703003872e+00    0.1996207    0.1723031  68.32 0.0005595075    1.351    0.260
        28  -8.3120    159.5102    244.4883   1.1965378047e+02   1.9151518279e-01    0.1721231    0.1256698 -35.65 0.0002619045    1.648    0.393
        29  -9.3800    160.2117    240.4501   1.1890986187e+02   7.7551142054e-01    0.3481869    0.2346516 -80.21  0.001395827    2.447    0.591
        30  -7.8587     77.3303    243.0038   1.3569827973e+02   1.3901907060e+01    0.2016227   0.08889543  88.83 0.0007050966    4.333    0.769
        31  -9.0376    194.3197    240.4152   1.1214120216e+02  -4.9996852350e+00    0.3045868    0.2029143 -62.74  0.001188928    2.388    0.581
        32  -9.4456    182.8831    240.7470   1.1443774979e+02  -3.1460844171e+00    0.3917597    0.3033488  51.78  0.001498611    1.374    0.272
        33  -7.8893    153.4160    242.1918   1.2053371492e+02   1.6369374855e+00    0.1655668    0.1260914 -72.59 0.0009332061    1.665    0.399
        34  -7.9339     88.2009    242.2300   1.3352369419e+02   1.2419729982e+01    0.1845471   0.09267829 -78.30 0.0006814517    2.428    0.588
        35  -9.0534     30.0357    242.0520   1.4428082514e+02   2.0397973775e+01    0.1773473    0.1304387  73.95  0.000526077    1.026    0.026
        36  -9.5165      3.3736    240.7034   1.4870816442e+02   2.3597586064e+01    0.2293534    0.1378299  78.70 0.0006976408    1.217    0.178
        37  -7.6897     62.2972    241.6657   1.3841042802e+02   1.6324307784e+01    0.1310703   0.07478087  70.43 0.0007030354    1.648    0.393
        38  -8.3722    201.8641    243.3096   1.1115757427e+02  -6.6822755417e+00    0.1992464       0.1671 -45.60 0.0007745718    1.444    0.308
        39  -8.3900    146.4221    239.8991   1.2160789392e+02   3.2538948650e+00    0.1709166    0.1131242 -87.55 0.0008033654    2.410    0.585
        40  -9.2250    127.3724    239.3543   1.2538485875e+02   6.6202310015e+00    0.4332785    0.1870408  36.00  0.001217457    2.354    0.575
        41  -8.9530    135.7421    238.9696   1.2363754021e+02   5.2644967223e+00    0.2085947    0.1419107  78.14 0.0006960565    1.944    0.486
        42  -8.0679     84.0096    239.0157   1.3399209266e+02   1.3703984853e+01    0.1559588    0.1241592  63.44 0.0003790555    1.045    0.043
        43  -8.1938     72.1214    238.8535   1.3627817709e+02   1.5501106447e+01    0.1530317    0.1433241  70.92  0.000387275    1.314    0.239
        44  -8.5154     52.9577    239.1309   1.3992290020e+02   1.8108772876e+01    0.1964433    0.1253951  70.34 0.0005309649    1.322    0.244
        45  -9.1672     19.3447    238.4939   1.4589172771e+02   2.2341027084e+01    0.2137268    0.1411489  78.39 0.0005678601    1.130    0.115
        46  -9.1484    231.0420    237.3519   1.0465939204e+02  -1.0325726711e+01    0.2500694    0.1970385 -61.39  0.001044265    2.101    0.524
        47  -7.8443    209.2690    238.6554   1.0896277033e+02  -7.1530787499e+00     0.112467    0.1019789  81.10  0.000327321    1.612    0.380
        48  -7.9953    189.5105    237.5033   1.1260432828e+02  -3.7271249247e+00     0.130089    0.1146998  27.83  0.000174914    1.032    0.031
        49  -9.7473    214.6207    232.9298   1.0695921721e+02  -7.1225013851e+00    0.5002599     0.353355 -81.52  0.002161971    3.880    0.742
        50  -9.1823    203.0144    234.9572   1.0953835938e+02  -5.5599134886e+00    0.2706042    0.1873609 -51.20 0.0009098109    1.811    0.448
        51  -9.6745    175.7837    233.3240   1.1465415801e+02  -6.7210120676e-01    0.4606806    0.2432175 -59.53  0.001998078    2.831    0.647
        52  -7.9599    170.2046    235.8798   1.1618980426e+02  -1.5036519594e-01    0.1587668    0.1075407 -49.78 0.0004870167    1.687    0.407
        53  -8.1263     58.0269    237.0000   1.3878416123e+02   1.7863192268e+01     0.191156   0.06217117  38.96 0.0007995066    2.922    0.658
        54  -8.0305     44.6970    236.3276   1.4121090193e+02   1.9759715357e+01    0.1292018   0.07090858  70.29 0.0003246893    1.646    0.392
        55  -8.1278    152.9767    235.4924   1.1962410937e+02   2.9222390412e+00     0.195916    0.1012149  58.09 0.0008099562    2.510    0.602
        56  -9.3456    108.4670    234.4379   1.2857444824e+02   1.0751155028e+01    0.3050664    0.2053683  75.51 0.0009951865    1.635    0.388
        57  -8.1583     95.4543    235.2319   1.3129933007e+02   1.2695504391e+01     0.172232    0.1148516 -86.46  0.000930781    1.614    0.380
        58  -8.6720     78.8695    234.6164   1.3452640698e+02   1.5377043580e+01    0.2526443    0.1466693  85.27 0.0008727095    1.937    0.484
        59  -8.1763    122.8253    234.0325   1.2558909307e+02   8.4241326859e+00    0.2169992    0.1417149  80.52 0.0008042351    2.003    0.501
        60  -8.3748     99.2214    234.1916   1.3041696529e+02   1.2305906095e+01    0.1884367    0.1340307  74.63 0.0007508607    1.391    0.281
        61  -9.1787     68.4725    232.6091   1.3635510193e+02   1.7315015678e+01    0.4427715    0.1917443  67.23  0.001791021    3.059    0.673
        62  -9.4287     55.5140    230.5003   1.3865985035e+02   1.9556972701e+01    0.2209644    0.1412176 -66.22  0.001149475    1.579    0.367
        63  -9.7881     61.8076    228.5667   1.3725190444e+02   1.9105783411e+01    0.5104663    0.1808329  44.81  0.001933031    2.433    0.589
        64  -8.7393    194.5949    232.6933   1.1079886050e+02  -3.7897391802e+00    0.2447841    0.1614598 -49.81 0.0007652024    1.804    0.446
        65  -8.9189    140.2035    230.1445   1.2144747673e+02   6.1719721633e+00    0.3789624    0.1810768  55.38  0.001561062    2.410    0.585
        66  -8.1000    132.4902    232.9464   1.2345109250e+02   6.9757166745e+00    0.1827891      0.11414 -88.47 0.0008085372    2.520    0.603
        67  -9.5065    186.5243    230.9474   1.1210478884e+02  -2.1200083758e+00    0.3274538    0.2440051  87.37  0.001467123    2.343    0.573
        68  -8.7090     11.2598    231.9898   1.4686678411e+02   2.4533995069e+01     0.144638   0.07705075 -82.46 0.0005486343    1.520    0.342
        69  -8.9340    236.0177    230.9829   1.0262931183e+02  -1.0138132564e+01    0.1871569    0.1594032  -1.97 0.0005044665    1.051    0.048
        70  -8.2847      1.5355    231.0141   1.4846811155e+02   2.5719172943e+01    0.1651372   0.08332855 -85.75 0.0007674314    1.552    0.356
        71  -8.9124    151.4942    229.0197   1.1893452018e+02   4.3905700697e+00    0.2898805    0.2068283  84.87  0.001136817    2.011    0.503
        72  -9.4615    148.8248    224.7042   1.1881389001e+02   5.6953546877e+00    0.4204858    0.3912805  13.68  0.001698816    1.192    0.161
        73  -8.7050     32.5467    230.1103   1.4294296759e+02   2.2546848194e+01    0.1758859    0.1311523  61.70 0.0004857826    1.189    0.159
        74  -8.1092    229.7295    228.9853   1.0342702186e+02  -8.8879156227e+00    0.1523771    0.1030735 -31.81 0.0006356883    1.459    0.315
        75  -8.6558    222.2078    227.6964   1.0460015307e+02  -7.5157620582e+00    0.4804609    0.2673222   4.26  0.001737631    3.142    0.682
        76  -9.0944     49.1845    227.9549   1.3963986298e+02   2.0932656091e+01    0.3219685    0.2269866  53.89  0.001759251    1.288    0.223
        77  -8.7294    162.0436    228.1769   1.1662012042e+02   2.6720103377e+00    0.2515724    0.1770386  56.36 0.0009776728    1.509    0.337
        78  -8.8960    128.1939    227.5621   1.2356962092e+02   8.7845680218e+00    0.2972126    0.1974497  70.86  0.001262026    1.804    0.446
        79  -8.5284    119.2879    227.7768   1.2545982927e+02   1.0279524300e+01    0.2019944    0.1607191  -2.88  0.001063111    1.983    0.496
        80  -9.1331     94.6638    225.2568   1.3024938131e+02   1.4891359067e+01    0.5058633    0.2668536  87.60  0.002049627    2.977    0.664
        81  -8.9695    180.7705    224.4775   1.1216558053e+02   1.7059704504e-02    0.2749283    0.2152386  73.62   0.00111343    1.762    0.433
        82  -8.8949    206.0571    225.9205   1.0737790162e+02  -4.5971403823e+00    0.2195427    0.1687114 -54.93 0.0007868754    1.670    0.401
        83  -8.3473    200.1389    226.1988   1.0858601549e+02  -3.6454234634e+00    0.1698711    0.1598966  74.07 0.0006304716    1.356    0.263
        84  -8.5016      6.0394    226.2819   1.4741354692e+02   2.6240899989e+01    0.1574965    0.1114269  72.76 0.0003952284    1.096    0.088
        85  -8.3850     74.8470    225.1852   1.3429986952e+02   1.7959029186e+01    0.1579363    0.1504533  89.48 0.0003532716    1.302    0.232
        86  -8.9829    216.5420    223.1792   1.0486384529e+02  -5.8857676749e+00    0.3283756    0.1745314 -40.56   0.00134816    1.946    0.486
        87  -8.6471    173.2631    223.4056   1.1351882578e+02   1.5484878747e+00    0.2811769    0.2058855  73.04 0.0009935362    1.953    0.488
        88  -8.7366    104.6560    223.6045   1.2795372545e+02   1.3612058236e+01    0.3042596     0.174051  81.76  0.001298026    2.558    0.609
        89  -9.3258    192.5095    221.5886   1.0928988101e+02  -1.5389529364e+00    0.2997688    0.2408569  78.41  0.001188191    1.834    0.455
        90  -9.0118    238.9431    221.5059   1.0038593803e+02  -9.1595916060e+00    0.2177722    0.1707773 -46.33 0.0006885384    1.574    0.365
        91  -9.3771    225.2962    221.7160   1.0294066711e+02  -7.0671593659e+00    0.1979644     0.191135  -1.31 0.0002610057    1.247    0.198
        92  -9.1639    161.6563    212.4612   1.1406900245e+02   5.7555455202e+00    0.2689623    0.2188637  75.07 0.0007829527    1.469    0.319
        93  -9.0094     54.9958    221.6633   1.3790992575e+02   2.1516564295e+01    0.2153637    0.1611829  67.30 0.0007346796    1.123    0.109
        94  -8.4798     19.0357    221.5207   1.4477114104e+02   2.5888515798e+01    0.2217415    0.1232565  81.41 0.0006991422    1.517    0.341
        95  -9.4751    133.2083    217.2554   1.2095945852e+02   9.9971533373e+00    0.6116169    0.3534221 -74.28  0.002598615    2.513    0.602
        96  -8.5752     82.7385    220.6217   1.3215517496e+02   1.7755360662e+01    0.2578788    0.1479265  81.26  0.001042455    2.106    0.525
        97  -8.3380     73.2478    221.2428   1.3418470055e+02   1.9045336856e+01    0.2042333   0.09885551 -81.15 0.0008851125    2.446    0.591
        98  -8.4318    202.6880    220.1897   1.0701482878e+02  -3.0629211341e+00     0.191093    0.1672891 -56.50 0.0007412235    1.408    0.290
        99  -9.2597    120.1131    219.1997   1.2406201523e+02   1.1909598963e+01    0.3869205    0.2202682  69.82  0.001421129    2.486    0.598
       100  -8.6214    248.8488    218.2630   9.8017784293e+01  -1.0148481362e+01    0.2814361    0.1977486  76.09  0.001131703    4.914    0.796
       101  -8.3734    210.0279    218.8496   1.0533415316e+02  -4.0872834990e+00    0.2180882    0.1669826 -52.51 0.0006785668    1.604    0.377
       102  -9.7583    159.3353    216.3577   1.1523086677e+02   5.4164447148e+00    0.2571745    0.2375968 -38.93 0.0002346835    1.177    0.151
       103  -8.6685    154.4217    215.2408   1.1608624836e+02   6.5411806538e+00    0.2454408    0.1781199 -82.63  0.001110185    1.903    0.474
       104  -8.1464      1.4776    219.5261   1.4779273611e+02   2.8090471928e+01    0.1153328   0.08150403  82.09 0.0001058469    1.005    0.005
       105  -8.7588    142.9167    216.6944   1.1878659599e+02   8.3562587452e+00      0.30693    0.1925123 -76.50  0.001148359    2.345    0.573
       106  -8.5040    108.1758    217.6432   1.2639437009e+02   1.4291126639e+01    0.2191028     0.149141  57.41 0.0005480598    1.374    0.272
       107  -8.5199     61.8555    217.3587   1.3608691373e+02   2.1523153971e+01    0.2504267    0.1413674  81.49 0.0006990817    1.900    0.474
       108  -8.8458     51.5663    217.3259   1.3816409920e+02   2.2918208039e+01    0.2796578    0.1382672 -79.45 0.0008949633    1.953    0.488
       109 -10.1784     34.1867    214.9762   1.4138126163e+02   2.5594784177e+01    0.4679841    0.2697102  66.53  0.002254763    1.554    0.357
       110  -8.6663    169.4809    216.3527   1.1309353156e+02   3.5551789714e+00    0.2842848    0.2135204  86.19   0.00095993    1.959    0.490
       111  -8.0021    111.9589    217.4867   1.2556134524e+02   1.3681092268e+01    0.2051473   0.09937306  59.18 0.0008089907    2.474    0.596
       112  -7.8667     76.3089    217.2897   1.3309709601e+02   1.9456672751e+01    0.1159876    0.1050791 -33.27 0.0004912755    1.579    0.367
       113  -8.5537     12.8796    216.1417   1.4551388438e+02   2.7681370849e+01     0.178941    0.1169244  75.75 0.0004010497    1.203    0.168
       114  -8.5478    232.2303    214.8020   1.0037347132e+02  -7.0712822219e+00    0.2182195     0.199104 -63.83   0.00072514    1.533    0.348
       115  -8.5608    185.7085    214.4040   1.0938527779e+02   9.6274218582e-01    0.2306601    0.1731503 -58.84 0.0006471804    1.625    0.385
       116  -7.9808     87.4655    215.5003   1.3052903923e+02   1.8141644268e+01    0.1384793    0.1140615  74.19  8.23786e-05    1.055    0.052
       117  -8.5787     93.1510    214.0867   1.2913123345e+02   1.7548785530e+01    0.2718929    0.1470915  62.71 0.0009318857    2.051    0.512
       118  -9.8284     72.1172    211.2582   1.3326358694e+02   2.1417417938e+01    0.6171644    0.2738498  66.09  0.002328759    3.211    0.689
       119  -8.3058     68.7188    212.3302   1.3410640684e+02   2.1670347051e+01    0.1908114    0.1533117  56.58 0.0004569184    1.185    0.156
       120  -8.2520    224.8387    212.5596   1.0133189972e+02  -5.5117731981e+00    0.2453183    0.1673304 -52.30  0.001228696    1.868    0.465
       121  -9.3262    213.9910    212.4190   1.0337711786e+02  -3.6708704901e+00    0.3201413    0.2298665  63.20  0.001614415    2.112    0.527
       122  -8.8437    204.3488    210.9529   1.0499150519e+02  -1.7456247551e+00    0.2539343    0.1998981 -61.23  0.000754427    1.662    0.398
       123  -9.5834    175.6676    210.2013   1.1070721912e+02   3.5946626174e+00    0.4163572    0.2884661  74.68  0.001387316    2.308    0.567
       124  -8.1439      3.8929    212.1106   1.4688295684e+02   2.9428589545e+01    0.1733235    0.1126957  74.40 0.0003704714    1.208    0.173
       125  -8.0979    192.5247    210.7501   1.0732693368e+02   4.0079633865e-01    0.1807139      0.13373 -57.16 0.0009318409    1.643    0.391
       126  -8.9655    148.0552    210.7227   1.1669158878e+02   8.6333243908e+00    0.2908739     0.226152  84.32   0.00143793    1.582    0.368
       127  -8.8101    116.2516    210.5165   1.2360529542e+02   1.4442764440e+01    0.3056021    0.2028966  74.57 0.0007696798    1.810    0.447
       128  -8.4475     98.5346    210.5023   1.2747937456e+02   1.7464407555e+01    0.2505318    0.1085576  50.18 0.0009046321    2.225    0.550
       129  -8.5766     85.5144    209.6674   1.3019517502e+02   1.9745660737e+01    0.2848669    0.1626662  79.51  0.001081942    2.239    0.553
       130  -9.0134    236.5364    208.3639   9.8369410545e+01  -6.7210731295e+00    0.2805799      0.23396 -68.57  0.001145801    1.845    0.458
       131  -8.9019    137.8146    208.4942   1.1854975294e+02   1.0993586690e+01    0.4186658    0.2316848  32.89  0.001802734    2.004    0.501
       132  -8.2403    126.1941    208.6936   1.2113657315e+02   1.3070669669e+01    0.2252771    0.1590819  60.08     0.001127    1.426    0.299
       133  -9.4481     25.7031    208.0820   1.4244603442e+02   2.8078575883e+01    0.3643647    0.1759343 -84.44  0.001118003    1.842    0.457
       134  -9.5774    159.0064    220.5100   1.1599717750e+02   4.6687070873e+00    0.6376485    0.2817347  58.26  0.002053318    4.081    0.755
       135  -9.2326     99.5330    206.4871   1.2669206935e+02   1.8196505486e+01    0.4281938     0.251594  80.69  0.001392037    2.352    0.575
       136  -8.0106    214.5334    207.4804   1.0234056340e+02  -2.9137678720e+00     0.137692    0.1197733   0.97 5.853687e-05    1.078    0.073
       137  -8.8778     79.7929    206.4616   1.3102044911e+02   2.1354365332e+01    0.2326536    0.1888518  77.86 0.0006140984    1.083    0.076
       138  -8.9690     56.7164    205.7347   1.3588624732e+02   2.4829457638e+01    0.3259382    0.1572572  67.59  0.001332656    2.459    0.593
       139  -9.4771     12.5604    204.1992   1.4468888971e+02   3.0306267374e+01    0.3212675    0.1802923 -79.30   0.00116336    1.419    0.295
       140  -9.4007    194.8974    203.4458   1.0547362456e+02   1.3199080640e+00    0.3879757    0.2412349 -52.36  0.001379192    1.854    0.461
       141  -9.5495    192.4954    197.3384   1.0478944088e+02   2.9240592727e+00    0.3802878    0.2888897 -66.07  0.001154767    1.719    0.418
       142  -8.9496    183.6213    204.1082   1.0792192079e+02   3.2863385619e+00     0.270366    0.2134904  70.98 0.0008412031    1.653    0.395
       143  -8.8251    131.3517    204.4242   1.1930084560e+02   1.3056735892e+01    0.3201289    0.2095952  71.42  0.001268926    1.967    0.491
       144  -8.1056    109.1568    205.1946   1.2436660701e+02   1.6853133273e+01    0.2023665    0.1532018  79.94 0.0005315757    1.383    0.277
       145  -7.8641     92.3145    205.6349   1.2816538940e+02   1.9574119223e+01    0.1505631   0.09614501  74.87 0.0002078243    1.766    0.434
       146  -9.4812    250.0971    202.1757   9.4764520840e+01  -7.8499973221e+00    0.4014036    0.1704775 -38.70  0.001378511    2.166    0.538
       147  -8.5415    179.0169    204.0295   1.0887072802e+02   4.1652340694e+00    0.2156443    0.2026744  35.19 0.0005079172    1.031    0.031
       148  -9.6440    163.8895    203.0803   1.1191898522e+02   7.2198000657e+00     0.531296    0.2800967  59.37  0.001211825    2.715    0.632
       149  -8.0022    122.3925    204.2212   1.2126335529e+02   1.4732133245e+01    0.1895472    0.1338269 -72.35 0.0004398985    1.553    0.356
       150  -8.9248    140.5200    201.5326   1.1677000974e+02   1.1977751163e+01    0.3643309    0.2304342  84.56   0.00118475    2.699    0.630
       151  -9.1174    243.0040    200.9272   9.5775010947e+01  -6.5415068068e+00    0.2791718    0.2052879 -49.64 0.0008877534    1.623    0.384
       152  -8.2672    210.9554    201.9446   1.0197585554e+02  -1.3103755627e+00    0.2001327    0.1710318 -80.11 0.0005585219    1.653    0.395
       153  -8.7069     80.0879    201.7196   1.3033426915e+02   2.2394919872e+01    0.3238329     0.161223  67.55  0.001277389    2.726    0.633
       154  -7.7922     61.2856    201.6275   1.3443869112e+02   2.5149471452e+01    0.1428126   0.08667141  76.07 0.0007018032    1.711    0.416
       155  -9.2379    246.2565    207.4728   9.6452640045e+01  -8.0996862781e+00    0.2367881    0.1933586 -22.89 0.0006514974    1.108    0.097
       156  -9.3628    149.6198    198.9915   1.1429883761e+02   1.0797151856e+01    0.3997336    0.2694664  82.38  0.001279729    2.295    0.564
       157  -8.7958    123.8531    199.1711   1.2010836598e+02   1.5588507773e+01    0.3109246    0.1999337 -76.66 0.0009920801    1.938    0.484
       158  -9.2174    112.7946    198.7307   1.2254251941e+02   1.7674535040e+01    0.4095415    0.2426184  74.11  0.001471008    2.428    0.588
       159  -9.0475     88.8549    198.7290   1.2796373743e+02   2.1713581417e+01    0.4020771    0.2355468  83.40  0.001736193    2.250    0.556
       160  -8.4171    177.0422    199.0419   1.0834886106e+02   5.5235807674e+00    0.2197109    0.1768529  84.33 0.0005055705    1.657    0.396
       161  -8.7731    105.4137    199.0901   1.2427330465e+02   1.8879150515e+01     0.256689    0.1867588  54.23 0.0005655491    1.300    0.231
       162  -7.8405    230.6857    198.6793   9.7577169052e+01  -4.1528248637e+00    0.1387031   0.09739534  -2.58 0.0004067102    1.655    0.396
       163  -8.2499    202.1898    198.1154   1.0297037147e+02   9.7374130734e-01    0.1835156    0.1683201 -74.53 0.0005001554    1.340    0.254
       164  -9.7547     61.5711    197.4748   1.3387842148e+02   2.6072113047e+01    0.3918927    0.2146323  69.47  0.001490093    2.058    0.514
       165 -10.0258     52.9598    197.2915   1.3573668499e+02   2.7267639807e+01    0.2946928    0.2220281 -71.37  0.001759251    1.227    0.185
       166  -8.8501    236.9092    198.5940   9.6418729944e+01  -5.1717512886e+00    0.2637557    0.1778012 -44.19  0.001131161    1.544    0.352
       167  -8.6084    215.8418    195.7404   9.9810965059e+01  -1.0650041045e+00    0.2514627     0.179066 -65.20  0.001030447    2.106    0.525
       168  -8.1637    133.1422    196.2039   1.1749846263e+02   1.4530044147e+01    0.2070622      0.16496  76.45 0.0005297408    1.373    0.271
       169  -8.7020    224.6239    194.4313   9.7873928042e+01  -2.3791805215e+00    0.2580277    0.1967953 -59.69  0.001185429    1.724    0.420
       170  -8.7611    185.1035    194.7495   1.0582034704e+02   4.8326954398e+00    0.2364875    0.1955639 -58.90 0.0005916851    1.361    0.265
       171  -9.0719    160.9503    194.4998   1.1096633048e+02   9.5631527809e+00    0.3465438    0.2407774  70.52 0.0009699877    1.945    0.486
       172  -9.3206     43.7833    193.6240   1.3731326471e+02   2.9275770900e+01    0.3755318    0.1946577  76.02  0.001740116    2.209    0.547
       173  -9.2453    245.5845    193.4062   9.3850199966e+01  -5.7154845794e+00    0.2539012    0.1973155 -63.35 0.0008104718    1.891    0.471
       174  -8.7869     76.8606    193.9594   1.3000719245e+02   2.4691847228e+01    0.2404288    0.1717624 -81.37 0.0006187552    1.324    0.245
       175  -8.3940      6.1030    194.1375   1.4517106706e+02   3.3147451249e+01    0.1710183    0.1330778 -75.56  0.000482732    1.235    0.190
       176  -8.4686    241.0729    192.4907   9.4469548085e+01  -4.8287638890e+00    0.1881155    0.1272357  35.12 0.0006174759    1.545    0.353
       177  -8.3035    198.5559    191.9713   1.0249318622e+02   2.8129460178e+00    0.2128146    0.1374382 -43.94 0.0005094224    1.562    0.360
       178  -8.4661    172.3356    192.0221   1.0800778110e+02   7.8578874307e+00    0.2068233    0.1860215 -52.88 0.0008068315    1.160    0.138
       179  -9.0312    139.5041    190.6673   1.1506032140e+02   1.4553442216e+01    0.3627064    0.2599963  82.96  0.001096243    1.838    0.456
       180  -8.2897    117.9292    192.2933   1.2030661341e+02   1.8225168229e+01    0.2018508    0.1808523  59.49 0.0004465341    1.065    0.061
       181 -10.5079     92.0935    188.9770   1.2577326594e+02   2.3473296720e+01     0.883707    0.3401324  53.47  0.003075563    3.125    0.680
       182  -8.2398     17.1806    191.6789   1.4273720223e+02   3.2651293111e+01    0.1880803    0.1200748  63.35  0.000610737    1.447    0.309
       183  -8.1202    179.2787    191.6592   1.0644657506e+02   6.5771694448e+00    0.1434084    0.1165945 -89.02 0.0003913865    1.623    0.384
       184  -8.2560    237.0659    188.3409   9.4363635647e+01  -3.4511689665e+00    0.2367927    0.1623946 -28.98 0.0006353754    1.366    0.268
       185  -8.7419    216.6259    188.2512   9.8163557086e+01   1.5811641525e-01    0.2283094    0.2134218 -69.41 0.0007030169    1.296    0.228
       186  -8.2534    148.3864    189.2385   1.1277588821e+02   1.3147884631e+01    0.2063551    0.1408595 -64.36 0.0005688025    1.666    0.400
       187  -8.8353    129.1542    188.5472   1.1705476868e+02   1.7003851149e+01    0.3101146    0.2190326  87.89 0.0009229024    1.828    0.453
       188  -9.7997    120.9219    186.8256   1.1866432853e+02   1.8937875495e+01    0.6111795    0.3180816 -74.43  0.002135677    3.108    0.678
       189  -8.0081     70.9736    189.2690   1.3070637414e+02   2.6672410345e+01    0.1857655    0.1596617  70.04 0.0003204182    1.095    0.086
       190  -8.8954     34.4247    188.4496   1.3878381300e+02   3.1576614976e+01    0.2952573    0.1446234  70.93  0.001011345    2.360    0.576
       191  -8.1152    230.8396    194.3543   9.6698125318e+01  -3.4353971872e+00    0.1857052      0.15901 -35.58 0.0005760659    1.173    0.147
       192  -8.8075    191.4316    187.6920   1.0309956528e+02   5.0108292464e+00    0.2944917    0.2358963  87.79  0.001065152    1.749    0.428
       193  -9.2264    155.9586    187.4204   1.1072228810e+02   1.2056944125e+01    0.3498008    0.2349156 -64.06  0.000875287    1.749    0.428
       194  -9.3187     54.7518    187.1536   1.3412750187e+02   2.9414433541e+01    0.3872194    0.2059406  72.21   0.00159817    2.279    0.561
       195  -8.7633     50.0244    188.3427   1.3533588068e+02   2.9740080645e+01    0.1808047    0.1495572  70.72 0.0004374431    1.127    0.113
       196  -8.8650    164.8021    186.7569   1.0862380514e+02   1.0447175110e+01    0.2841535    0.2061894 -63.96 0.0007086465    1.599    0.375
       197  -9.1763    109.4268    186.1159   1.2124126780e+02   2.1188114746e+01    0.3829355    0.2502448  85.75   0.00109601    2.015    0.504
       198  -8.9692     28.4775    187.0852   1.3992746800e+02   3.2546106711e+01    0.2147688    0.1718601  56.53 0.0005229083    1.295    0.228
       199  -8.6018    249.3175    185.8412   9.1702274876e+01  -5.0536725853e+00    0.2340892    0.1832673 -53.59 0.0007846373    1.544    0.352
       200  -8.8529    182.7941    185.0546   1.0438149975e+02   7.2326288749e+00    0.3449045    0.1996924 -48.29 0.0008448106    1.776    0.437
       201  -8.4264    202.7270    184.4230   1.0012585351e+02   3.4763673228e+00    0.2480368    0.1723496 -53.70 0.0006150895    1.612    0.380
       202  -8.9806     66.6305    184.6582   1.3107617779e+02   2.8395267855e+01    0.3416287    0.1887292  70.31 0.0009957888    2.228    0.551
       203  -8.3135    224.1476    183.8702   9.5840900078e+01  -4.0140229584e-01    0.1996238    0.1821194 -52.73  0.000498431    1.243    0.195
       204  -8.6877    210.1261    184.3282   9.8633381781e+01   2.0926086922e+00    0.1891659    0.1802736  27.61 0.0004187071    1.096    0.088
       205  -8.9506    174.1958    183.6308   1.0594171329e+02   9.2365456775e+00     0.290752    0.2261436 -80.28 0.0009353517    1.694    0.410
       206  -8.0300    143.2417    184.5995   1.1306895055e+02   1.5185233627e+01    0.2126468    0.1425466  33.59 0.0009536687    1.615    0.381
       207  -9.0323     44.4791    182.6861   1.3590855909e+02   3.1764067600e+01    0.3207912    0.1781678  66.85  0.001246186    1.956    0.489
       208  -7.8537      1.7953    183.6316   1.4520882474e+02   3.5877204920e+01    0.1533367   0.09095528  51.42  0.000942036    1.691    0.409
       209  -8.9342    240.6928    181.4485   9.2326961570e+01  -2.8689084186e+00    0.2829826    0.1527851 -49.48  0.001282829    2.072    0.517
       210  -8.0762    235.2565    182.0118   9.3413863668e+01  -2.0328442969e+00    0.1765298    0.1085093 -37.67 0.0005571711    1.498    0.332
       211  -7.5762     83.2974    182.6135   1.2686214217e+02   2.6402240365e+01    0.1538751    0.1003106  78.98 0.0007016039    1.777    0.437
       212  -8.4320     60.2680    181.8957   1.3218023368e+02   2.9937340247e+01    0.2346972    0.1640837  55.45 0.0007221249    1.413    0.292
       213  -9.1443    147.4644    180.5985   1.1132246476e+02   1.5249411935e+01    0.3435507     0.254957  78.36  0.001020798    1.715    0.417
       214  -9.6255     25.4098    178.7365   1.3973840058e+02   3.4814575919e+01    0.6493843    0.2578411  80.97  0.002178404    4.539    0.780
       215  -8.6301    137.7281    179.6261   1.1339283043e+02   1.7394010811e+01    0.3052828     0.209369  81.62   0.00122514    2.060    0.515
       216  -8.0078    114.5259    180.5141   1.1905296128e+02   2.1590756138e+01    0.1515216    0.1363574  81.68 0.0003274755    1.057    0.054
       217  -8.7502    205.1190    178.1794   9.8357103923e+01   4.2305636831e+00    0.3308573    0.1800103 -51.80  0.000900978    2.063    0.515
       218  -9.2866    191.3846    178.4366   1.0121416438e+02   6.8769443313e+00    0.3221779    0.2527186  61.73  0.000599181    1.492    0.330
       219  -8.0648    169.4214    178.9011   1.0602563127e+02   1.1200857746e+01    0.2022729    0.1321912 -73.02 0.0008013891    2.321    0.569
       220  -9.1892     36.0699    177.1840   1.3717216754e+02   3.4045396917e+01     0.517378    0.2185085  85.26  0.001785616    4.016    0.751
       221  -9.5917    248.4642    176.7897   9.0029711950e+01  -3.3715676821e+00    0.4174572    0.2410071 -52.51  0.001961072    2.095    0.523
       222  -8.6378    129.1483    177.4549   1.1499908897e+02   1.9563831223e+01    0.3173046     0.220497  84.09 0.0008903626    1.936    0.484
       223  -8.0463    101.3798    178.2319   1.2181088858e+02   2.4473925519e+01    0.2097337    0.1339246 -71.11 0.0005119085    1.649    0.393
       224  -8.8363     89.0958    176.9000   1.2456150274e+02   2.6856390256e+01    0.3351763    0.2054414 -89.49  0.000840427    2.108    0.526
       225  -8.6079    231.2025    176.8461   9.3092140128e+01  -3.9130801339e-01     0.242474    0.1715329 -46.79 0.0007956636    1.430    0.300
       226  -8.4487    217.6175    177.3343   9.5734685269e+01   2.0102018694e+00    0.2058404    0.1697043 -76.10 0.0006182912    1.640    0.390
       227  -9.3728    183.1871    176.2536   1.0248762783e+02   8.9707471610e+00     0.303267    0.2370115 -58.49 0.0006883448    1.398    0.285
       228  -7.7283     97.6945    177.6586   1.2260406210e+02   2.5243805434e+01    0.1439703    0.1148309 -28.62  0.000704146    1.683    0.406
       229  -9.9785     57.3175    173.3077   1.3169960579e+02   3.2404380205e+01    0.8540415    0.3936158  84.47   0.00266574    4.609    0.783
       230  -9.2946    158.8186    175.2105   1.0764212113e+02   1.4162167919e+01    0.3983549    0.2797229  86.48  0.001052159    2.153    0.536
       231  -9.3509    104.1275    174.7770   1.2053761242e+02   2.4825701273e+01    0.5293545    0.2883125  66.97  0.001751604    2.768    0.639
       232 -10.6293     76.0401    171.0756   1.2680864756e+02   3.0316135411e+01     1.112148    0.4487967 -76.64  0.003196811    4.712    0.788
       233  -8.3290     74.3072    160.3615   1.2547632358e+02   3.3206682539e+01    0.1830404    0.1531999   9.18  0.000652755    1.606    0.377
       234  -8.0819     12.8010    176.6173   1.4228795798e+02   3.6519363713e+01    0.1599999   0.09646302  51.52 0.0005173015    1.693    0.409
       235  -8.2875    224.4046    174.2692   9.3812092406e+01   1.3205318502e+00    0.1988428    0.1263103 -48.82 0.0006761219    1.631    0.387
       236  -8.5659    250.5201    172.8866   8.8887526341e+01  -3.0411784397e+00    0.2011967    0.1177828 -38.87  0.000483255    1.511    0.338
       237  -9.5622    175.8808    172.1728   1.0320653800e+02   1.1322986304e+01    0.3935378    0.2162475 -48.59 0.0008075238    1.840    0.456
       238  -8.4851    143.0196    172.9748   1.1083661810e+02   1.7868933292e+01     0.241288    0.1842566  83.44 0.0005440149    1.622    0.383
       239  -8.4810    134.6718    171.9797   1.1261367388e+02   1.9762612586e+01    0.2211298    0.1934742 -61.71 0.0006234078    1.134    0.118
       240  -9.3649    121.3517    170.4346   1.1552272946e+02   2.2711242969e+01    0.3986607    0.2741501 -85.25  0.001138157    1.887    0.470
       241  -9.2245     44.9950    170.9212   1.3432188482e+02   3.4521045580e+01    0.3766672    0.1932503 -85.78  0.001541996    2.174    0.540
       242  -8.8502    230.6450    170.3436   9.1842076211e+01   8.9912918370e-01    0.2325689    0.2072779 -51.68 0.0007001695    1.210    0.173
       243  -8.4395    205.8385    170.4973   9.6594569301e+01   5.6001637612e+00    0.2830886    0.1836338 -57.99 0.0008505819    1.866    0.464
       244  -8.0989    237.0488    169.7060   9.0560516207e+01  -1.4371029013e-01     0.186019    0.1727254 -23.33 0.0006236521    1.052    0.049
       245  -8.3234    198.5014    170.4908   9.8070590788e+01   7.0629146489e+00     0.146179    0.1422079 -39.69 4.310318e-06    1.047    0.045
       246  -9.0197    167.1888    168.7408   1.0439975165e+02   1.3864428698e+01    0.3428556    0.2466063 -81.61 0.0009559066    1.984    0.496
       247  -8.4537    149.8071    169.5441   1.0854392358e+02   1.7276308455e+01    0.2954341    0.2017903 -69.71 0.0008481562    1.802    0.445
       248  -9.1257    111.1948    168.2706   1.1760092836e+02   2.5126337278e+01     0.462299    0.2645729 -55.66  0.001986371    1.698    0.411
       249  -8.8601     38.8736    170.3148   1.3569491080e+02   3.5373546835e+01     0.343198    0.1201528  39.58  0.001450425    2.868    0.651
       250  -8.9097     19.8532    170.4726   1.4011284798e+02   3.7300196422e+01    0.1944717    0.1134939  39.92 0.0006876941    1.888    0.470
       251  -8.3686    244.4241    169.2755   8.9184823465e+01  -1.3678656237e+00    0.1857749    0.1185316 -46.05 0.0004699909    1.521    0.343
       252  -8.3100     88.7013    168.7984   1.2329135297e+02   2.8893527681e+01    0.2931533    0.1670381 -83.86  0.001144523    2.454    0.593
       253  -8.1558    218.7763    168.5554   9.3667750072e+01   3.4592121802e+00      0.18042    0.1403468  57.53 0.0004172625    1.517    0.341
       254  -9.0374    191.9359    166.6662   9.8600994749e+01   9.1775993097e+00    0.2820744    0.2123353 -53.16  0.000583849    1.379    0.275
       255  -8.7240    185.0123    166.7466   1.0007602936e+02   1.0588610333e+01    0.2735721    0.1860224 -57.46 0.0006190485    1.641    0.390
       256 -10.1477     95.2009    163.2573   1.2066621934e+02   2.9170878956e+01    0.8538797    0.4611022  78.09  0.002654135    4.121    0.757
       257  -9.2857     20.0079    165.6427   1.3955675144e+02   3.8423204971e+01      0.51752    0.2070824  64.53  0.001984647    3.751    0.733
       258  -9.8748    136.6188    164.5583   1.1063367517e+02   2.1108317534e+01     0.618145    0.3217126  61.26  0.002135095    2.813    0.645
       259  -8.3697    233.8636    165.0711   9.0155245668e+01   1.2807419604e+00    0.2116824    0.1780242 -54.53 0.0005615865    1.287    0.223
       260  -8.9828     63.1340    164.6282   1.2899630742e+02   3.3745367622e+01     0.291162    0.1977759  75.99 0.0005973047    1.624    0.384
       261  -8.8926     60.7196    160.1698   1.2890800144e+02   3.5165523070e+01    0.3592174    0.2044707  71.62  0.001539798    2.362    0.577
       262  -9.5356     33.8212    163.5674   1.3605166784e+02   3.7546037875e+01    0.5634369    0.2350465  58.01  0.002273983    3.158    0.683
       263  -8.1961    239.9940    164.3599   8.8927800410e+01   2.9698279590e-01    0.1807877    0.1724693 -10.39 0.0004863469    1.092    0.085
       264  -8.6067    213.0524    163.6693   9.3715694425e+01   5.5193938450e+00    0.2552251    0.1891958 -51.15 0.0006870551    1.383    0.277
       265  -8.4519    159.2597    164.2356   1.0523172958e+02   1.6518732024e+01    0.2143465    0.1817381  89.05 0.0006433628    1.349    0.259
       266  -9.0674    246.0109    163.0014   8.7613913964e+01  -5.2838012647e-01    0.2083205    0.1825026 -38.90 0.0004855497    1.085    0.078
       267  -8.4753    204.8563    163.0296   9.5181803814e+01   7.2845886849e+00    0.2250084    0.1962592 -65.96 0.0005350584    1.280    0.219
       268  -9.0957      3.4288    162.5429   1.4301901482e+02   4.0559039330e+01    0.3527122    0.1693548  63.24  0.001733272    2.321    0.569
       269  -9.0086    151.6375    161.1842   1.0634090139e+02   1.8804280934e+01    0.3594475    0.2256158 -69.19  0.001102445    2.149    0.535
       270  -9.0113    177.4278    160.5750   1.0036194522e+02   1.3493569346e+01    0.3096124    0.2496388 -75.59 0.0007290091    1.485    0.326
       271  -9.8612    250.1991    157.8848   8.5851068278e+01  -3.5207638810e-01    0.3742214    0.1726659 -40.19 0.0008192534    1.894    0.472
       272  -8.5947    227.4293    159.2229   9.0067023725e+01   3.5792879156e+00    0.2673579    0.1996416 -63.53  0.001024261    1.648    0.393
       273  -9.8968    105.8604    158.2114   1.1698590824e+02   2.8538207176e+01     0.505778    0.3352188  76.87  0.001358143    2.052    0.513
       274  -8.6856     84.5013    159.8937   1.2278159407e+02   3.1756547076e+01    0.2393918    0.2024079  47.93  0.000451169    1.243    0.195
       275 -10.0092     81.6621    154.9377   1.2261535021e+02   3.3426047212e+01    0.5514422    0.3166231  75.63  0.001448694    2.841    0.648
       276  -8.1896    236.9955    158.9867   8.8316562424e+01   1.8254989608e+00    0.2155704    0.1656527 -67.09 0.0006395071    1.670    0.401
       277  -8.2245    128.0260    158.9809   1.1156509709e+02   2.4143216546e+01    0.2496695    0.1849794  84.18 0.0005859507    1.701    0.412
       278  -8.5084    196.7840    158.0653   9.5717314631e+01   9.9509984283e+00     0.232718    0.1992172 -69.94 0.0006562953    1.318    0.241
       279  -8.4569    188.1762    157.5869   9.7394878210e+01   1.1856861414e+01     0.287245    0.1111742 -46.70 0.0008116033    2.558    0.609
       280  -8.9197    167.5411    157.3353   1.0183506514e+02   1.6305643397e+01    0.3220784    0.2348526 -81.49 0.0008717917    1.894    0.472
       281  -8.5716     79.0844    158.4967   1.2392566638e+02   3.2946761868e+01    0.2104838     0.143377  38.69  0.001031095    1.585    0.369
       282  -9.2086     42.4009    157.4096   1.3311976284e+02   3.8096800085e+01    0.2390949    0.1955031  85.66 0.0004842138    1.143    0.125
       283  -8.3224    217.8514    156.2517   9.1190076239e+01   6.0183767083e+00    0.2817555    0.1544696 -53.38 0.0007440188    2.059    0.514
       284  -9.2649    119.5751    155.4606   1.1293752620e+02   2.6640437756e+01    0.4646964    0.2999566 -83.11  0.001830901    2.271    0.560
       285  -9.1427    100.1242    156.2631   1.1807272563e+02   3.0035659291e+01     0.291826    0.2355378  73.18 0.0008919627    1.322    0.244
       286  -8.5984    157.4910    156.1070   1.0385939415e+02   1.8724482464e+01    0.2504841    0.2156001  86.19 0.0007727189    1.298    0.230
       287  -8.4359    144.7698    155.2545   1.0667483644e+02   2.1605083537e+01    0.3012158    0.2075999 -77.79 0.0009426532    1.973    0.493
       288  -9.2434     49.4601    155.2417   1.3101424540e+02   3.7801797569e+01    0.3623786    0.2160382  77.66  0.001681688    2.097    0.523
       289  -9.2252    242.6091    155.1665   8.6544391592e+01   1.4951779042e+00    0.2024627    0.1753357 -41.46 0.0004739579    1.073    0.068
       290  -8.2218    204.5359    155.1123   9.3504721385e+01   8.9457117150e+00    0.2286511    0.1412297 -44.10  0.001011213    1.544    0.352
       291  -9.5783    132.9841    153.1300   1.0908186057e+02   2.4535257753e+01    0.5039523    0.3579865 -88.13  0.001398898    1.924    0.480
       292  -8.9087    133.4953    148.4757   1.0792366042e+02   2.5529987816e+01    0.3410046    0.2208638 -44.54  0.001006026    1.559    0.359
       293 -10.0230     67.8183    153.9209   1.2605096222e+02   3.5732136587e+01    0.4334018    0.3191861  79.20    0.0015939    1.486    0.327
       294  -8.3147    232.6074    153.8294   8.7982087142e+01   3.6076994623e+00    0.2092146     0.121745 -49.48 0.0006955883    1.720    0.419
       295  -8.2941    151.6205    152.8380   1.0450367932e+02   2.0717756364e+01    0.2268153    0.1456463 -59.32 0.0008413004    1.696    0.410
       296 -10.0643     28.6635    150.0570   1.3556543339e+02   4.1316295249e+01    0.5783374    0.2565418  64.13  0.002240637    3.575    0.720
       297  -8.5242      3.4238    151.6773   1.4193760488e+02   4.3073996628e+01    0.2482001   0.09619816 -77.62  0.001149561    2.160    0.537
       298  -9.6835    248.7556    149.5344   8.4337272381e+01   1.3999176002e+00    0.3404523     0.195328 -40.47 0.0007488999    1.521    0.343
       299  -9.0817    247.0836    143.8967   8.3413920848e+01   2.7252679042e+00    0.3106481    0.1758592 -39.78 0.0007594355    1.548    0.354
       300  -8.5910    243.3633    150.2612   8.5377376514e+01   2.2520959133e+00    0.2500922    0.1538198 -46.81 0.0008818864    1.516    0.340
       301  -8.8860    189.3707    150.0325   9.5443330694e+01   1.3195004291e+01    0.3084105    0.2168949 -61.97 0.0007534803    1.647    0.393
       302  -8.0004    182.3982    151.2420   9.7193544195e+01   1.4439831507e+01     0.221001    0.1418013 -55.76 0.0006055969    1.683    0.406
       303  -8.0065    162.6063    150.8118   1.0148605554e+02   1.8819794387e+01    0.2261677    0.1459915 -57.46 0.0009421431    1.670    0.401
       304  -8.9386     98.3242    150.7580   1.1744196551e+02   3.1699475306e+01    0.3243561    0.2322255  82.61  0.001243088    1.743    0.426
       305  -8.0379    213.1180    150.1325   9.0733817027e+01   8.1775263933e+00    0.1967484    0.1723607 -72.97 0.0003802413    1.286    0.223
       306 -10.0225     39.9909    148.2383   1.3240201642e+02   4.0592351420e+01    0.5242197    0.2580287  63.67  0.002159491    2.957    0.662
       307  -9.1371    221.2798    148.0862   8.8759379377e+01   6.9226029717e+00    0.4308193    0.2738607  26.53  0.001767806    2.165    0.538
       308  -8.3555    198.8412    149.1467   9.3301925638e+01   1.1356246942e+01    0.2243805    0.2004352 -70.97 0.0003903729    1.207    0.171
       309 -10.5798     89.2868    146.4322   1.1896343884e+02   3.4296409098e+01    0.6816875    0.4008312  88.58   0.00246549    3.024    0.669
       310  -8.9456     53.5371    149.5109   1.2905676263e+02   3.8707225054e+01    0.2932902    0.1623262  44.89  0.001135956    1.959    0.490
       311 -10.3888     54.7454    144.5539   1.2791030774e+02   3.9771469065e+01    0.8592509    0.4541298  80.37  0.002960725    3.483    0.713
       312  -9.2755    233.4828    147.5046   8.6461835880e+01   4.6281556206e+00    0.2797741    0.1794483 -45.40  0.001030397    1.434    0.303
       313  -9.2931     78.0951    147.1694   1.2210632783e+02   3.5892193970e+01    0.2755516    0.1788952  89.75  0.000706329    2.013    0.503
       314 -10.0385    148.9786    145.0389   1.0335346626e+02   2.3071514048e+01    0.5663385    0.3731206 -86.27  0.001888935    2.552    0.608
       315  -9.6681    139.2681    145.4857   1.0581619888e+02   2.5032379450e+01    0.4607403    0.2994738 -67.46  0.001169283    1.884    0.469
       316 -10.2750    106.6017    144.2396   1.1389632651e+02   3.1805889936e+01    0.7693889    0.4799712 -89.11  0.002428534    2.710    0.631
       317  -9.0074     13.3467    146.2556   1.3892425091e+02   4.3578161448e+01    0.3207369    0.1572149  74.29  0.001451041    2.720    0.632
       318  -9.3963    241.0000    137.9869   8.3132790734e+01   4.9547556930e+00    0.3638168    0.2223481 -50.67  0.001639175    1.586    0.370
       319  -8.9857    240.2050    145.4076   8.4865885039e+01   3.7342164817e+00       0.2549    0.1759804 -40.58  0.000442521    1.286    0.222
       320  -9.2919    242.6637    143.3052   8.4006804109e+01   3.6576881551e+00      0.41159    0.2069943 -30.84  0.001713837    2.172    0.540
       321  -7.8901    206.7024    146.3414   9.1114294051e+01   1.0267636577e+01    0.1529937    0.1168691 -74.13 0.0007033776    1.665    0.399
       322  -8.2982    175.5097    146.0724   9.7499818952e+01   1.7055276901e+01    0.2362998    0.1513463 -45.99 0.0005694075    1.524    0.344
       323  -9.3112     32.5186    145.1845   1.3389804194e+02   4.2109023788e+01    0.3769267     0.195595  57.56  0.001765797    2.395    0.583
       324  -9.7437    125.0928    142.9691   1.0880068352e+02   2.8543584228e+01    0.5634446    0.3641061 -88.28  0.001865993    2.598    0.615
       325 -10.0014     62.4786    135.8443   1.2422081626e+02   4.0903114210e+01    0.3292963    0.2580546 -78.20 0.0007819257    1.258    0.205
       326  -9.5494     57.2285    135.5453   1.2562977218e+02   4.1658812581e+01    0.3540786    0.2138306  16.40  0.001628881    2.383    0.580
       327 -11.2946     69.1163    141.8581   1.2352884099e+02   3.8519051764e+01    0.6660583    0.5034836 -68.34  0.002610818    1.214    0.176
       328 -10.3064     72.4074    134.3041   1.2113807433e+02   3.9893394089e+01    0.7703079     0.295625  31.40  0.002809373    3.136    0.681
       329 -10.2294     73.0500    129.4028   1.1994309976e+02   4.0987906657e+01    0.5229243    0.3114007 -81.07  0.001406647    2.422    0.587
       330  -7.8525    194.2397    143.9627   9.3048685161e+01   1.3416325063e+01    0.1994893    0.1249315 -44.22 0.0004324672    1.529    0.346
       331  -8.8147    165.6644    144.0953   9.9237274976e+01   1.9651891335e+01    0.3266822    0.2202097  63.61 0.0009194879    1.778    0.438
       332  -9.4941      2.7602    141.8316   1.4103430848e+02   4.5403585344e+01    0.3694034    0.1755126  85.31  0.001533178    2.420    0.587
       333  -8.2633    182.0126    141.9640   9.5134917845e+01   1.6512460965e+01    0.2422071    0.1878912 -80.96 0.0004692947    1.626    0.385
       334  -8.3694    250.5034    140.9826   8.2250603040e+01   2.6232108309e+00    0.2133948    0.1203766 -40.69   0.00060532    1.536    0.349
       335  -9.0746     46.1770    140.7551   1.2958294371e+02   4.1722098455e+01    0.2571568    0.1703749  49.74  0.001036162    1.688    0.408
       336 -10.1003     23.5958    138.4603   1.3527764466e+02   4.4558701714e+01    0.4941733    0.2593094  73.12  0.001792908    2.702    0.630
       337  -8.1605    207.4453    138.1778   8.9110741377e+01   1.1755991264e+01    0.2162267    0.1342044 -53.61 0.0006061812    1.679    0.404
       338  -8.4064    172.0956    138.0702   9.6372415414e+01   1.9554326561e+01    0.2502389     0.190869 -81.61 0.0006098634    1.674    0.402
       339  -8.7691    114.6220    138.1400   1.1042034702e+02   3.1762457761e+01    0.4026352     0.192425  58.96  0.001055846    3.289    0.696
       340  -8.3862     93.3001    137.6305   1.1604235674e+02   3.5774225931e+01    0.2399113    0.1731638  78.24 0.0007839538    1.779    0.438
       341 -10.4107     83.4575    133.1091   1.1779101731e+02   3.8497791725e+01    0.5496615    0.3321965 -68.42  0.001284586    1.812    0.448
       342  -9.3150     39.0613    136.0511   1.3074686463e+02   4.3640964888e+01    0.2955732    0.1906052  89.17 0.0009818502    1.763    0.433
       343  -9.0706    250.6460    129.9262   7.9877899038e+01   4.5899882566e+00    0.4256778    0.1174157 -39.41  0.001408434    3.225    0.690
       344  -9.2055    248.3988    135.4744   8.1409250068e+01   4.0095141057e+00    0.3197807      0.20016 -45.95 0.0008546117    1.416    0.294
       345  -8.5533    246.9871    130.3064   8.0521490613e+01   5.2153652274e+00    0.2454839    0.1657787 -48.14 0.0005592229    1.329    0.248
       346  -8.0821    162.5472    136.5060   9.8150954167e+01   2.2027024105e+01    0.1589325    0.1512664 -73.78 0.0001750639    1.039    0.037
       347  -8.5563    237.4657    133.5367   8.2742364335e+01   6.4685974123e+00    0.2443097    0.1265778 -42.52 0.0009441676    1.712    0.416
       348  -9.0837    238.5653    130.2520   8.1843684767e+01   6.8625844386e+00    0.2722429    0.2169317 -10.93  0.001001325    1.561    0.360
       349  -7.6228    231.3182    134.2771   8.3930502718e+01   7.5532266586e+00    0.1377937    0.1121314   0.52 0.0002800287    1.573    0.364
       350  -8.5528    179.3687    134.0423   9.3824804552e+01   1.8796289884e+01    0.2695381    0.2158495 -88.40 0.0006103966    1.517    0.341
       351  -8.9208    112.9167    133.4828   1.0979699072e+02   3.3202627098e+01    0.3271434    0.2447223  84.75  0.001097195    1.731    0.422
       352  -8.5453     10.1130    134.1780   1.3824293116e+02   4.6659079334e+01     0.168181     0.126006  82.67 0.0007661211    1.335    0.251
       353  -9.8452    132.4013    131.4265   1.0421888950e+02   2.9749351518e+01    0.5087267    0.3487551 -84.57 0.0009869026    2.196    0.545
       354 -10.3769     98.1708    130.2038   1.1304679337e+02   3.6718431424e+01    0.6687768      0.27019 -55.84  0.001748499    2.465    0.594
       355  -8.9515    142.8842    131.6422   1.0164726005e+02   2.7457375602e+01    0.3079163    0.2224789 -60.68 0.0007382842    1.472    0.321
       356  -9.4776    152.9329    128.3621   9.8409936296e+01   2.5983321647e+01    0.6856866    0.2810051 -47.97  0.001829791    2.423    0.587
       357 -10.4137     13.0122    129.4980   1.3684762793e+02   4.7535785288e+01    0.4642493    0.2535586  78.25  0.002176058    2.388    0.581
       358  -8.1225    220.7420    129.9440   8.4785446902e+01   1.0559588402e+01    0.1950462    0.1193555 -40.40 0.0004979513    1.514    0.340
       359  -8.4587    197.4817    137.4695   9.0890249326e+01   1.4055839710e+01    0.2615688    0.1948166 -71.28 0.0008051823    1.650    0.394
       360  -7.8250    192.7044    130.3293   9.0164666601e+01   1.6586056538e+01    0.1580572    0.1195034 -75.79 0.0007025259    1.633    0.388
       361  -8.9954    168.3075    129.8139   9.5222777466e+01   2.2203326247e+01    0.2922052    0.2573864 -86.69 0.0007646934    1.227    0.185
       362  -8.0341    161.4897    130.4944   9.6935573763e+01   2.3593118722e+01    0.1576996    0.1534325 -64.38 -4.532933e-07    1.015    0.015
       363  -8.7320     30.8162    130.5988   1.3213782414e+02   4.5769974263e+01    0.1632574    0.1148314  47.97  0.000449837    1.642    0.391
       364  -7.8465      1.6332    130.3216   1.3997228410e+02   4.8135852281e+01    0.1229144   0.07730602  72.31 0.0007037882    1.791    0.442
       365  -7.7328    211.6439    129.3058   8.6277288516e+01   1.2623954853e+01    0.1550589    0.1155254 -78.59 0.0007041002    1.720    0.419
       366 -10.5705     60.2700    125.6101   1.2283524305e+02   4.3669378759e+01     0.714423    0.4232382  78.42  0.002508207    3.005    0.667
       367 -10.8184     45.1172    124.0428   1.2693098191e+02   4.5867465615e+01    0.9994972    0.5401043  80.57  0.003665248    3.820    0.738
       368  -9.8658    117.9081    125.3602   1.0651521357e+02   3.4133963390e+01    0.5359852    0.3710833 -83.05  0.001200852    2.104    0.525
       369  -8.1646    228.3838    125.2239   8.2403558473e+01   9.8679561200e+00    0.2158554    0.1219868 -49.86 0.0006909952    1.689    0.408
       370  -8.7650    179.2516    124.7821   9.1603468060e+01   2.0788646508e+01    0.2919061    0.2252357 -73.86 0.0007878494    1.527    0.345
       371  -9.7160    130.7546    118.4604   1.0140213579e+02   3.3056460611e+01    0.5128627    0.3309453 -84.96  0.001251523    2.858    0.650
       372 -10.4273     28.4392    122.4921   1.3147664206e+02   4.7907285904e+01    0.6806638    0.3569425  81.81  0.002756744    3.343    0.701
       373  -8.3105    244.1454    124.2009   7.9641663100e+01   6.8775248124e+00    0.1978763    0.1472287 -57.47 0.0005099328    1.323    0.244
       374  -7.5690    188.6934    124.3266   8.9532651234e+01   1.8730639924e+01    0.1600207    0.1201736 -77.17  0.000499867    1.651    0.394
       375  -8.8963     85.4289    122.6222   1.1489196625e+02   4.0696108487e+01    0.3709106    0.2068297  16.17  0.001337984    3.257    0.693
       376  -8.3595    172.1029    121.8480   9.2415779737e+01   2.3047857364e+01    0.2399559    0.2037278 -76.09 0.0006007092    1.278    0.217
       377  -9.0512    158.5451    121.6342   9.5410565009e+01   2.6198343199e+01    0.3366528      0.23878 -77.40  0.000734419    1.914    0.477
       378  -9.9101     71.1698    120.2725   1.1850898064e+02   4.3446179635e+01    0.3458791    0.2333661 -80.69 0.0009084775    1.907    0.476
       379  -9.7047    141.5790    118.6766   9.8721053460e+01   3.0657940178e+01    0.4474343    0.2955703 -70.60   0.00114715    2.075    0.518
       380  -9.4533     20.2679    118.8569   1.3322708550e+02   4.9451766648e+01    0.3069876    0.1730954  30.32  0.001556711    2.119    0.528
       381  -9.9143      2.8551    117.3434   1.3794831269e+02   5.1027213388e+01    0.4710898    0.2363449  81.49   0.00219705    2.843    0.648
       382  -7.8179    185.6802    116.2836   8.8172860106e+01   2.1072317829e+01    0.1567244    0.1200726 -81.80 0.0002657334    1.589    0.371
       383  -9.7727    109.1418    114.1006   1.0606934982e+02   3.8445740361e+01    0.5083377    0.3317767 -77.57  0.001375716    2.420    0.587
       384  -9.2217     65.5703    115.6571   1.1913985785e+02   4.5322269312e+01    0.2593654    0.1763874  37.28 0.0007575822    1.630    0.386
       385  -9.4430     36.7550    115.3247   1.2774820966e+02   4.8799337297e+01    0.2635665    0.1940997  77.00 0.0008850676    1.690    0.408
       386  -9.5666    249.4756    114.3142   7.6707192845e+01   7.6164739808e+00    0.4052579    0.2318738 -64.13  0.001771446    2.269    0.559
       387  -8.2266    192.7735    115.1855   8.6490713715e+01   1.9659102779e+01    0.2475487    0.1764526 -60.20 0.0004873459    1.493    0.330
       388  -8.7803     59.6769    114.9549   1.2075817056e+02   4.6271840076e+01    0.3249658    0.1888699   5.87  0.001332242    3.005    0.667
       389  -7.9436    167.4523    114.4847   9.1578336682e+01   2.5675175338e+01    0.1576704     0.149887 -72.04  0.000275404    1.024    0.023
       390 -10.2220    133.8303    109.5679   9.8285974015e+01   3.4353898606e+01     0.733878    0.3245493 -52.75  0.002531525    2.535    0.606
       391  -9.9356     92.6463    112.5019   1.1035322209e+02   4.1841038248e+01    0.5882384    0.3283803 -62.95  0.001292935    2.146    0.534
       392  -8.9108     95.1829    103.8238   1.0736086897e+02   4.3345602888e+01     0.496251    0.2021344  28.41  0.001495814    4.194    0.762
       393  -9.3149     51.4243    113.3967   1.2292282609e+02   4.7656475973e+01     0.256032    0.2159866 -85.02  0.000591444    1.301    0.231
       394 -10.1349    121.6411    112.3486   1.0220625595e+02   3.6336388730e+01    0.4464387    0.3219902 -85.37  0.001130364    2.014    0.503
       395  -8.2935    174.9260    111.9992   8.9327807505e+01   2.4449690182e+01    0.2477279    0.1832301 -73.34 0.0005204699    1.638    0.390
       396  -8.3514    159.2232    111.9127   9.2764071724e+01   2.8122544215e+01    0.2422431    0.2031495 -69.54 0.0006651357    1.275    0.216
       397  -9.5636     14.2258    111.4638   1.3378422846e+02   5.1610408318e+01    0.2954068    0.2039623  75.86    0.0011132    1.790    0.441
       398  -9.6625      8.4956    110.0846   1.3525349765e+02   5.2315858361e+01    0.3793489    0.1653043  44.13  0.001836535    3.002    0.667
       399 -10.2536     66.0464    109.8187   1.1765239577e+02   4.6612578446e+01    0.5147968    0.2973486 -60.34  0.001825684    1.688    0.408
       400 -11.2855    248.5204    108.0740   7.5500926965e+01   8.9137629648e+00    0.6052067     0.425553 -47.54  0.003264541    1.226    0.184
       401  -9.1982    110.6746    107.0405   1.0378997118e+02   3.9725270118e+01    0.5087578    0.1895905  32.52  0.001427335    4.392    0.772
       402 -10.8514     22.7972    102.8415   1.2964020175e+02   5.2911264948e+01    0.7034333    0.4369069  79.39  0.002970688    2.462    0.594
       403  -9.2846    139.8933    104.4906   9.5397708554e+01   3.4096168774e+01     0.414797    0.2745546 -64.47  0.001203693    1.900    0.474
       404 -10.4788     45.7448    102.3783   1.2227734136e+02   5.0831996797e+01    0.7397146    0.4555546  76.42  0.003148993    3.147    0.682
       405  -9.4905    150.6608    103.2979   9.2474606387e+01   3.1895608217e+01     0.449736    0.2833868 -67.67  0.001362226    2.247    0.555
       406  -8.8188     78.6239    105.0186   1.1263027712e+02   4.5853937497e+01     0.258957    0.1968332  -8.34  0.000829027    1.657    0.397
       407  -8.3274    166.5184    104.0813   8.9090918123e+01   2.8035866021e+01     0.234455    0.1499294 -45.89 0.0005970295    1.537    0.349
       408  -9.9223    128.4584    102.1695   9.7670252232e+01   3.7101562051e+01    0.3196416    0.2598214 -77.98 0.0007005113    1.479    0.324
       409  -9.2493      6.6106    102.6868   1.3462213648e+02   5.4093293884e+01    0.2749444    0.1654886 -84.89   0.00142428    1.841    0.457
       410 -10.2324    109.1148     99.0963   1.0206233044e+02   4.1752504492e+01    0.6264561    0.4082384  74.26  0.001659477    2.677    0.626
       411  -8.0833    159.6223    100.8607   8.9762736842e+01   3.0306606155e+01    0.2236273     0.139621 -53.27 0.0004857272    1.693    0.409
       412  -9.2822     82.0948    100.0096   1.1026751619e+02   4.6414784661e+01     0.368592    0.2405182 -67.64 0.0009699566    1.965    0.491
       413  -9.1107     95.0522     97.1201   1.0557792541e+02   4.4825677369e+01    0.3129864     0.222874 -59.22 0.0005561221    1.541    0.351
       414 -10.1224     64.0529     96.2202   1.1492657645e+02   4.9941059713e+01    0.4973132     0.339963 -87.99  0.001660606    2.497    0.599
       415  -9.3306     56.5804     94.9430   1.1701130008e+02   5.1202906756e+01    0.2739516    0.1948802  43.75 0.0009766626    1.656    0.396
       416  -8.1135    164.8231     94.0499   8.6798164067e+01   3.0422474932e+01    0.2488208    0.1629177 -64.06 0.0006428165    1.882    0.469
       417  -8.2768    176.2646     93.2269   8.4201409510e+01   2.7850257832e+01    0.2168234    0.1714845 -72.22 0.0006405623    1.386    0.278
       418  -9.3186    138.9991     92.3836   9.2278862861e+01   3.6770069665e+01    0.3748331    0.2813338 -72.27 0.0009574937    1.681    0.405
       419 -10.1919    123.8867     91.4353   9.5860834006e+01   4.0294972783e+01    0.5937282    0.4361928  36.68  0.001236371    1.428    0.300
       420  -8.6691    107.8049     92.6811   1.0062530289e+02   4.3353117325e+01    0.2329878    0.1849314  18.57 0.0008426514    1.446    0.309
       421  -9.9596     78.8745    112.6259   1.1444434591e+02   4.4080733385e+01    0.5007463    0.3449281  89.90  0.001991284    2.239    0.553
       422  -8.9439     46.9399     92.2029   1.1949008196e+02   5.2950562418e+01    0.3064186    0.1775239  20.02   0.00154075    2.082    0.520
       423  -9.6286     34.8494     90.0655   1.2300795684e+02   5.4672811701e+01    0.4125713    0.2563774 -84.40  0.001736246    2.622    0.619
       424  -8.7130     29.6178     91.7394   1.2513852600e+02   5.4792486662e+01    0.1783873    0.1073137 -66.52 0.0009467131    1.649    0.393
       425  -9.3558     22.8784     90.1741   1.2704069160e+02   5.5699233731e+01    0.2436691    0.1956436 -11.96 0.0009121073    1.384    0.277
       426  -9.7729      4.5633     92.4403   1.3349439609e+02   5.6462673616e+01    0.3030592    0.2272427  34.20  0.001554045    1.696    0.410
       427  -8.3644    150.8960     89.1347   8.8545702375e+01   3.4659802296e+01    0.2341608    0.2022198 -77.18 0.0003655362    1.262    0.208
       428  -9.8859     86.2843     86.2111   1.0513662917e+02   4.8639159469e+01    0.5326305    0.3277358 -58.59  0.002059454    1.956    0.489
       429 -10.0570     48.4388     84.2839   1.1696225283e+02   5.4466555744e+01    0.4535277    0.3093345 -89.42   0.00177066    2.724    0.633
       430  -9.2455     14.8933     85.9956   1.2883340484e+02   5.7191409546e+01    0.3155695    0.1558957  48.06  0.001513197    3.173    0.685
       431  -9.5965      9.8568     81.0127   1.2950274664e+02   5.8576552079e+01    0.2618221     0.167524  67.96  0.001418598    2.637    0.621
       432  -7.7064    179.2669     85.6405   8.1621650333e+01   2.8542448270e+01    0.1574536    0.1117544 -69.14 0.0006990521    1.640    0.390
       433  -9.1581    141.0497     83.3699   8.9220951296e+01   3.8037491959e+01    0.4914732    0.2231185 -49.63  0.001654422    2.488    0.598
       434  -9.5994    104.7479     83.3076   9.8761842298e+01   4.5832754667e+01    0.3925102    0.2865032 -69.34  0.001051102    1.899    0.473
       435  -8.2326    157.8842     84.1077   8.5589375841e+01   3.3955114910e+01    0.2283654    0.1995209 -76.14 0.0003752527    1.209    0.173
       436  -8.8249    250.2422     82.2006   6.9730381146e+01   1.3008132333e+01    0.2361321   0.08204382 -48.22 0.0009029323    2.542    0.607
       437  -9.7733     24.5892     80.3854   1.2423390623e+02   5.7638523459e+01    0.4112266    0.2439257 -76.99  0.001427026    2.416    0.586
       438  -8.8335    150.1493     80.7578   8.6363588035e+01   3.6401194255e+01    0.2677276    0.1983503 -54.59 0.0007869521    1.436    0.304
       439  -8.5723    119.3477     80.3214   9.3816459276e+01   4.3422511510e+01    0.2792915    0.2088325 -81.19 0.0006640535    1.964    0.491
       440  -8.8651     74.3900     80.3619   1.0718897106e+02   5.1753420282e+01    0.3160389    0.1976778 -59.22  0.001113901    1.957    0.489
       441  -8.3456    166.6807     79.9595   8.2597105363e+01   3.2600967767e+01     0.210816    0.1856404 -45.37 0.0004996496    1.149    0.130
       442 -10.0508     63.8621     75.0926   1.0911051510e+02   5.4349640696e+01    0.6420221    0.2887517 -59.36  0.002349703    3.534    0.717
       443  -7.9558    184.4306     78.4506   7.8777972840e+01   2.8579974190e+01     0.146891    0.1388868 -83.05 0.0002025441    1.029    0.028
       444  -9.3989    128.1400     75.5291   9.0095109163e+01   4.2392852040e+01    0.3411063    0.2310344 -61.43 0.0006190687    1.904    0.475
       445  -8.2957    105.3475     77.2907   9.6772941111e+01   4.6864499992e+01    0.1478807    0.1107703   7.13 0.0006679311    1.663    0.399
       446  -7.8785    157.2705     76.6400   8.3640935499e+01   3.5448800350e+01    0.1543374    0.1133439 -70.50 0.0006437894    1.648    0.393
       447  -8.8449    140.4549     75.6933   8.7139085962e+01   3.9574131096e+01    0.2694493    0.1411702 -43.58 0.0007027139    1.953    0.488
       448  -8.8724    234.1307     74.9153   7.0210698969e+01   1.7629497551e+01    0.2056502    0.1755261 -65.32 0.0003187054    1.009    0.009
       449  -9.5487     82.3903     72.7780   1.0230885640e+02   5.1922433694e+01    0.3733778    0.2560661 -60.18  0.001062075    1.920    0.479
       450  -8.2398    151.4621     73.5102   8.4009526605e+01   3.7378586937e+01    0.1481344    0.1412478  85.58 9.249065e-05    1.038    0.036
       451  -8.3610    115.6931     72.6241   9.2463080482e+01   4.5603829799e+01    0.2425727     0.171377 -57.81 0.0009512794    1.731    0.422
       452  -9.3223     95.0971     71.2539   9.7902316793e+01   4.9945471693e+01    0.3853263    0.2094864 -52.31 0.0009338484    2.239    0.553
       453  -8.1674     42.5704     72.8342   1.1587346704e+02   5.7456067194e+01    0.1729257    0.1132228 -60.78 0.0005551351    1.721    0.419
       454  -7.5678    175.4845     72.5535   7.8874693285e+01   3.1759121034e+01    0.1482109    0.1376404 -89.73 8.352417e-05    1.015    0.015
       455  -9.2585    105.8031     71.7730   9.4937703324e+01   4.7784460548e+01     0.272969    0.1928592 -51.51 0.0007284656    1.588    0.370
       456  -9.6452     51.4014     69.9297   1.1188013273e+02   5.6995172401e+01    0.3808823    0.2315974 -61.41  0.001305707    2.141    0.533
       457  -8.6374    163.3336     73.4561   8.1491669895e+01   3.4546455190e+01    0.2538764    0.1665865 -57.93 0.0008202575    1.725    0.420
       458  -8.8591     28.2359     71.1875   1.2060509713e+02   5.9200088143e+01     0.253429    0.1148914 -22.86  0.001037064    3.380    0.704
       459  -8.3106     32.0126     68.3021   1.1843084052e+02   5.9422458974e+01    0.1679375    0.1396951 -14.92 0.0005687096    1.157    0.136
       460  -8.9995     16.5310     70.2080   1.2464299404e+02   6.0336273943e+01    0.2416318     0.175287 -82.25  0.001283678    1.928    0.481
       461  -8.8219    147.0652     68.4452   8.3515476992e+01   3.9280533824e+01    0.2639211    0.1949727 -54.55 0.0005679868    1.476    0.323
       462  -9.0967    121.4794     66.2033   8.8951029656e+01   4.5476615297e+01    0.3630263    0.2159146 -44.85  0.001394597    1.786    0.440
       463  -8.8987    138.6569     66.5848   8.4869454433e+01   4.1553694598e+01    0.2671244    0.1771248 -41.26 0.0008132047    1.556    0.358
       464  -8.9230    110.1312     64.0475   9.1288641844e+01   4.8243887314e+01    0.2852787    0.1955422 -42.59 0.0007370625    1.521    0.343
       465  -8.9255     37.2107     64.3163   1.1535614831e+02   5.9673727435e+01    0.2812826    0.2062857 -70.86   0.00114314    1.969    0.492
       466  -8.5718     65.2999     62.8583   1.0479842425e+02   5.6429555099e+01    0.2879362    0.1478546  13.49  0.001089591    3.528    0.717
       467  -8.3571    158.2372     62.0304   7.9318319906e+01   3.7659445243e+01    0.1990504    0.1868647 -66.39 0.0003059196    1.081    0.075
       468  -9.3681     97.6196     60.6397   9.3735414573e+01   5.1306331031e+01     0.295925    0.2401424 -38.82    0.0010497    1.274    0.215
       469  -9.5874     73.2991     59.6623   1.0103463468e+02   5.5762613370e+01    0.3422575    0.2189519 -50.29  0.001073663    1.814    0.449
       470  -7.9459    164.4696     60.4003   7.7642635237e+01   3.6409732317e+01    0.1444812    0.1322924  79.05 1.459829e-05    1.033    0.032
       471  -8.6364    147.0000     59.0859   8.0790022285e+01   4.0803833595e+01    0.2253355    0.0826212 -35.07 0.0007629372    2.874    0.652
       472  -7.9512     88.8395     59.6037   9.6032043176e+01   5.3119833424e+01    0.1772187    0.1268904  50.44 0.0004986573    1.560    0.359
       473  -9.9235     23.5165     56.6452   1.1829549296e+02   6.2394876355e+01    0.3933377    0.2692041 -78.96  0.002118534    2.721    0.632
       474  -9.7110      7.6626     57.1639   1.2465782006e+02   6.3464087210e+01    0.2963164    0.2050266 -82.62   0.00119468    2.293    0.564
       475  -8.2463    130.5202     57.9610   8.4157991426e+01   4.4798495340e+01    0.2029642    0.1400973 -36.44 0.0004612627    1.513    0.339
       476  -9.4336     54.3358     55.5893   1.0627070083e+02   5.9233502146e+01    0.3093138    0.1982532 -53.06  0.001176176    1.882    0.469
       477  -8.1231    139.8578     56.3060   8.1513316628e+01   4.2906651421e+01    0.1960251    0.1705286 -45.66 0.0004561318    1.215    0.177
       478  -9.0207    119.0111     55.3876   8.6172110395e+01   4.7747259554e+01    0.3202258    0.1886222 -46.87  0.001088986    1.936    0.483
       479  -8.8285     44.0802     55.5015   1.1003061126e+02   6.0527553052e+01    0.2240311    0.1603332 -53.81 0.0007610771    1.631    0.387
       480  -7.9782    152.6593     54.3210   7.8227057488e+01   4.0179888741e+01    0.1487708    0.1081788 -77.05 0.0007050258    1.719    0.418
       481  -8.5949    105.8260     53.1206   8.8916718207e+01   5.0869657836e+01    0.1986275    0.1861557 -64.72 0.0005225271    1.274    0.215
       482  -9.4390     92.4132     50.7231   9.1947408598e+01   5.3867877043e+01    0.3473382    0.2162434 -48.28   0.00108218    1.955    0.488
       483  -7.8079    149.6611     48.7870   7.7213686323e+01   4.1696295455e+01    0.1897704    0.1247048 -44.65 0.0003511641    1.623    0.384
       484  -8.6310    129.6591     49.2064   8.1634034469e+01   4.6294600139e+01    0.1833489    0.1314537 -19.69 0.0004245189    1.603    0.376
       485  -8.6949    163.5206     48.5431   7.4513591798e+01   3.8400450987e+01    0.1406207    0.1289764  65.85   0.00024218    1.044    0.042
       486  -8.5465    120.8802     47.5039   8.3172772673e+01   4.8495560750e+01    0.2006065    0.1785657 -26.30 0.0005629287    1.187    0.157
       487  -8.4901    112.1755     46.9439   8.5173964785e+01   5.0453437321e+01    0.1964582    0.1815951 -68.17 0.0006098074    1.293    0.226
       488  -8.7399     82.0264     46.4734   9.3651925119e+01   5.6400161410e+01    0.2236498    0.1742754 -44.72  0.000570722    1.498    0.332
       489  -9.2004    133.0228     44.9730   7.9552731987e+01   4.6117261617e+01    0.3020481    0.1920914 -39.60  0.001051597    1.686    0.407
       490  -8.8431     16.7752     44.8869   1.1738219000e+02   6.5043111535e+01    0.1897141    0.1474149 -60.19 0.0008570938    1.646    0.392
       491  -9.0741     69.5532     41.9042   9.6085706473e+01   5.9173295005e+01    0.2629634    0.2078129 -58.06   0.00091312    1.888    0.470
       492  -8.7936     58.0458     42.5189   1.0033914461e+02   6.0834413072e+01    0.2292532     0.165697 -48.95   0.00112636    1.757    0.431
       493  -9.6099      5.2409     42.3330   1.2142484531e+02   6.6302250988e+01    0.2492455     0.180737 -69.68  0.001446684    1.962    0.490
       494  -8.5207    106.0951     41.6196   8.4976659703e+01   5.2457824041e+01    0.2122767    0.1795239 -42.78 0.0006004799    1.345    0.257
       495  -7.9850    206.4434     41.4645   6.6146187885e+01   2.9043420373e+01    0.1354798     0.116788 -83.40  0.000806851    1.008    0.008
       496  -8.4203     36.9578     40.9668   1.0779856132e+02   6.3769893522e+01    0.1554954    0.1481006 -73.62 0.0004923807    1.662    0.398
       497  -8.9447     95.3328     38.1965   8.6733837423e+01   5.5075507212e+01    0.2668884    0.1493732 -35.05  0.001062305    1.877    0.467
       498  -8.1306     80.5976     36.8015   9.0614119842e+01   5.8012068261e+01     0.169634    0.1138564 -41.28 0.0005572682    1.713    0.416
       499  -9.3175     26.2121     35.6772   1.1027832615e+02   6.5726826258e+01    0.2560275    0.1765685 -49.53 0.0007945443    1.708    0.414
       500  -8.5937    200.7145     35.8514   6.5543636770e+01   3.1148018836e+01    0.2225695      0.16384  63.81 0.0005930574    1.305    0.234
       501  -8.3957     45.0962     44.6769   1.0594574302e+02   6.2224376863e+01    0.1980395    0.1464856 -40.23 0.0005712829    1.370    0.270
       502  -7.9690    125.6483     35.7340   7.8267012637e+01   4.8987924827e+01    0.1687031    0.1225963 -39.91 0.0002907125    1.520    0.342
       503  -8.6668    111.6866     34.9336   8.1277602474e+01   5.2143248483e+01    0.1800477    0.1668421 -10.48 0.0005611392    1.142    0.124
       504  -8.6417    119.3842     33.6420   7.9007846762e+01   5.0634066837e+01    0.2343678     0.120135 -35.97 0.0005983877    2.105    0.525
       505  -9.0080     48.5267     33.5264   1.0049819698e+02   6.3467827103e+01    0.2127184     0.182288 -51.32 0.0007080278    1.708    0.415
       506  -8.4293     60.6946     32.8817   9.5771459161e+01   6.1820276192e+01    0.1660513    0.1394839 -12.25 0.0004865317    1.121    0.108
       507  -8.4115     72.1691     31.2138   9.1219892603e+01   6.0198588097e+01    0.1532521    0.1465161 -30.24 0.0006475338    1.360    0.265
       508  -9.3826     12.8961     30.3758   1.1410176910e+02   6.7732185187e+01    0.2549132     0.139699 -49.69  0.001141304    1.880    0.468
       509  -8.0993    101.4268     29.2712   8.1925408991e+01   5.4958654565e+01      0.16581    0.1186709 -38.74 0.0006027274    1.597    0.374
       510  -8.8253     81.3496     27.5981   8.6957182160e+01   5.9032336700e+01    0.2250368    0.1984705 -65.95 0.0007893951    1.670    0.401
       511  -8.9444      3.7236     27.8552   1.1733460176e+02   6.8796581013e+01    0.1787052    0.1331882 -52.09 0.0008900097    1.596    0.374
       512  -8.5837    208.9419     27.5084   6.2603263866e+01   3.0278426071e+01    0.1930531    0.1138062  71.01 0.0006324256    1.526    0.345
       513  -8.7052     91.6611     26.2270   8.3457626647e+01   5.7251312838e+01    0.2453186    0.1423606 -38.99 0.0008626139    1.998    0.500
       514  -8.4974    228.4195     25.7006   6.0159000990e+01   2.6069327430e+01    0.1528791    0.1205817 -33.33 0.0009206384    1.545    0.353
       515  -9.0220    183.8002     24.1098   6.4858316767e+01   3.6624540615e+01     0.343695     0.159266  86.95  0.001335236    2.948    0.661
       516  -8.3753    167.2997     23.3364   6.6964868380e+01   4.0661999745e+01    0.1323857   0.09402345  37.87 0.0004579644    1.658    0.397
       517  -7.5599    104.6102     23.2929   7.9018129340e+01   5.4966891306e+01     0.123675   0.09894688 -84.28 0.0007010452    1.774    0.436
       518  -8.1461     34.4699     23.4659   1.0209537346e+02   6.6611758026e+01    0.1136354    0.0899673  -6.42 0.0001065263    1.051    0.049
       519  -8.9694     63.8454     21.2706   9.0103953315e+01   6.2772802013e+01    0.2345126    0.1540415 -39.91 0.0009369311    1.877    0.467
       520  -8.7785     48.2020     21.7603   9.5933225606e+01   6.5068611685e+01    0.1841195    0.1400177 -28.19 0.0006378964    1.375    0.273
       521  -7.9116    191.3883    249.7118   1.1420100033e+02  -5.9776311578e+00    0.1242587   0.09312617  60.30 0.0007009169    1.757    0.431
       522  -8.6988     74.0652     19.5666   8.6103027764e+01   6.1239096468e+01    0.2119263    0.1556029 -38.05 0.0007182969    1.662    0.398
       523  -8.0153     38.8718     18.8467   9.8377317654e+01   6.6668213832e+01    0.1402293    0.1229519  -6.81 0.0004798974    1.303    0.233
       524  -8.0171     87.6750     17.7345   8.1409668722e+01   5.8928196073e+01     0.154995    0.1069012 -30.87 0.0004091617    1.612    0.380
       525  -8.6016     19.7549     21.5766   1.0766485672e+02   6.8434085461e+01    0.1333018   0.09445124  27.32  0.000538047    1.614    0.381
       526  -8.2543     29.9547     15.9661   1.0085680609e+02   6.8102983485e+01    0.1436151    0.1356611 -29.03 0.0006085942    1.697    0.411
       527  -8.3268      7.4021     15.2467   1.1079047592e+02   7.0393159025e+01    0.1383898   0.08755859 -44.35 0.0009479154    1.724    0.420
       528  -9.6690    189.7250     14.1118   6.1665796353e+01   3.6327714907e+01    0.3012097    0.1640615  88.76  0.001475563    1.902    0.474
       529  -7.8217     17.2871     14.6166   1.0589277420e+02   6.9610372865e+01   0.09124357   0.08277661 -37.42 0.0007012674    1.742    0.426
       530  -7.4511    119.6825     11.3129   7.1591776881e+01   5.2898626881e+01    0.1205593   0.09401555 -76.03 0.0007035893    1.645    0.392
       531  -8.9874    175.6202    247.7400   1.1695921443e+02  -3.0741928032e+00    0.2974814    0.2247421  75.04  0.001199003    1.953    0.488
       532  -8.7081    156.2726    248.3727   1.2086166695e+02   7.3229344787e-02    0.1978192    0.1549874  89.42 0.0005950248    1.703    0.413
       533  -8.8742    132.2466    248.3016   1.2560119960e+02   4.1360680519e+00    0.3174825    0.1749785  62.36 0.0006802175    2.226    0.551
       534  -8.1113    113.3548    249.1068   1.2941069043e+02   7.1071600820e+00    0.1722876    0.1130484 -80.67 0.0009360292    1.823    0.451
       535  -8.9532    103.9600    247.2260   1.3101910702e+02   8.9755575368e+00    0.3859892    0.1969549 -81.11   0.00169422    2.950    0.661
       536  -9.0372     21.6139    248.3680   1.4614225711e+02   2.0126038729e+01    0.1978774    0.1303647  63.66 0.0005716116    1.177    0.151
       537  -8.9267    242.8876    246.9233   1.0416411347e+02  -1.3358846743e+01    0.2770197    0.1402125 -35.67  0.001522734    2.005    0.501
       538  -8.5635    218.5431    248.0752   1.0879054218e+02  -9.9900868581e+00    0.1688517    0.1154726 -33.61 0.0007591087    1.556    0.357
