#   1 NUMBER                 Running object number                                     
#   2 MAG_AUTO               Kron-like elliptical aperture magnitude                    [mag]
#   3 X_IMAGE                Object position along x                                    [pixel]
#   4 Y_IMAGE                Object position along y                                    [pixel]
#   5 X_WORLD                Barycenter position along world x axis                     [deg]
#   6 Y_WORLD                Barycenter position along world y axis                     [deg]
#   7 A_WORLD                Profile RMS along major axis (world units)                 [deg]
#   8 B_WORLD                Profile RMS along minor axis (world units)                 [deg]
#   9 THETA_WORLD            Position angle (CCW/world-x)                               [deg]
#  10 FWHM_WORLD             FWHM assuming a gaussian core                              [deg]
#  11 ELONGATION             A_IMAGE/B_IMAGE                                           
#  12 ELLIPTICITY            1 - B_IMAGE/A_IMAGE                                       
         1 -12.2422     51.8335     34.7168   1.0911696679e+02   6.4049602911e+01     1.507316     1.250504  39.12  0.008669384    1.462    0.316
         2 -12.1227     40.1509     48.1102   1.1878110302e+02   6.2958563918e+01     1.047751      0.83103 -71.93  0.006512481    1.597    0.374
         3 -12.1894     58.0890     69.4511   1.1856792812e+02   5.6489656608e+01     2.625103    0.7148156 -56.23  0.008509759    3.873    0.742
         4 -11.1803    147.5370     26.2807   7.7440109869e+01   4.5623782506e+01     0.927758    0.5585812  45.40  0.004247877    1.620    0.383
         5 -10.5617    168.5898     25.2282   7.3386604647e+01   4.0252339691e+01    0.7901482    0.5118614  51.20  0.003765146    1.483    0.326
         6 -10.6639    125.1329     34.1140   8.5135742916e+01   5.0189244425e+01     1.185388    0.3515881 -24.52  0.003370868    4.643    0.785
         7 -11.1980    147.7692     15.6158   7.3661361698e+01   4.6764701626e+01     1.019724    0.8414589  21.74  0.005613178    1.313    0.238
         8 -12.1061    162.5511     10.7019   6.9601439320e+01   4.3416505106e+01     1.360923     1.115218  24.64  0.007524556    1.369    0.270
         9 -12.4093    135.1887      4.9385   7.2045103450e+01   5.0996298391e+01     1.366208     0.550525  62.94  0.005591694    2.163    0.538
        10 -12.6694     86.6875     52.4362   1.0309361613e+02   5.5431787964e+01      1.80344    0.9118208 -32.59  0.004465872    2.056    0.514
        11 -11.8818     88.5136     22.2174   9.0423674718e+01   5.9824114747e+01      1.82012     1.041875 -28.25  0.009085204    1.716    0.417
        12 -12.5655     71.7226     31.1028   9.9935633709e+01   6.1645658049e+01     1.903339    0.9257904  50.42  0.008533496    2.563    0.610
        13 -12.0600    130.3929     20.1336   7.8681137802e+01   5.0659784061e+01     1.206758    0.5914786  59.34  0.004817848    1.889    0.470
        14 -11.6821    127.7335     15.2489   7.7389595228e+01   5.1846634903e+01     1.474051    0.2822044  47.08  0.004078792    4.700    0.787
        15 -10.6579    123.6357     10.2679   7.6322608393e+01   5.3350947944e+01    0.3431174    0.3112031  86.04  0.001078811    1.232    0.188
        16 -12.2129    111.9261     22.3200   8.3844786623e+01   5.4795469976e+01    0.6993124    0.5933416  73.89  0.001620385    1.373    0.271
        17 -11.2389    117.2677     15.6647   7.9868752270e+01   5.4317816889e+01    0.2987625     0.286622  -5.97  0.000325624    1.111    0.100
        18 -13.1996     99.9402      6.6864   8.0348021799e+01   5.9185119734e+01    0.8176795    0.4161818 -30.84   0.00227485    2.045    0.511
        19 -11.9083     93.3168      8.6307   8.2985257017e+01   6.0420213620e+01    0.4378193    0.4030046  -6.32 0.0007083699    1.146    0.128
        20 -11.6001    113.5542      9.1754   7.8096774366e+01   5.5856012101e+01     1.135009    0.7022552  50.63  0.005347591    1.437    0.304
        21 -11.4989    123.8540     69.2980   9.7820753845e+01   4.4734539122e+01       1.6654    0.5792688 -38.90  0.005526096    2.858    0.650
        22 -11.9409     67.1771     21.9631   9.7613320864e+01   6.3767142871e+01    0.4466711    0.3639273  24.56  0.001844384    1.190    0.160
        23  -9.9738     31.3288     11.2698   1.0787984406e+02   7.0337176463e+01    0.2966915    0.1839055 -18.92  0.001351143    1.482    0.325
        24 -10.7889     26.2295      4.9112   1.0721519209e+02   7.1827889497e+01    0.5859649    0.2809514 -24.07  0.003146126    2.076    0.518
        25 -12.0380     78.1069      7.4923   8.7021074737e+01   6.3610904031e+01    0.5367057    0.3594804   3.57 0.0004916784    1.530    0.346
        26 -12.1624     28.7461     26.4219   1.1585722742e+02   6.8144496537e+01     1.233109    0.5192512 -38.28  0.006242706    2.012    0.503
        27 -12.2467      9.5862     26.6873   1.2511977109e+02   6.9634432471e+01     1.131691    0.4101849  12.24  0.005342518    3.756    0.734
        28 -12.3661     41.3355     16.2033   1.0556302744e+02   6.8402751979e+01     1.147842    0.6354077 -42.22   0.00644831    1.776    0.437
        29 -12.5355     19.0235     13.6361   1.1518454340e+02   7.1201811707e+01    0.7726765    0.5267884 -48.54  0.005176619    1.499    0.333
        30 -12.6059     50.3278     11.0278   9.9102778110e+01   6.7908531984e+01    0.3866251    0.2749635  22.70 0.0003719048    1.346    0.257
        31 -12.8188     63.2519      4.3709   9.0602677261e+01   6.6658374272e+01     1.780859    0.4696244  50.24  0.006589083    4.017    0.751
        32 -11.4045      2.9247     18.6335   1.2562384966e+02   7.1501934433e+01    0.3611437    0.1415379 -48.09  0.001194845    1.797    0.444
        33 -13.2661      4.4333      8.8599   1.2091610271e+02   7.3103615313e+01     1.150581    0.7052132 -48.19  0.007893761    1.386    0.278
        34 -10.3399     73.0570     17.5066   9.3442623512e+01   6.3357529102e+01    0.5036389    0.3395351  45.88  0.001293027    1.553    0.356
        35 -10.8939    162.2062     39.0088   7.8963655952e+01   4.0178291161e+01    0.5346239    0.3136796 -26.31  0.002111212    1.828    0.453
        36 -11.9120    184.8159     26.4650   7.1317900929e+01   3.5814274527e+01    0.6388962    0.4385796  14.08 0.0009730706    2.029    0.507
        37 -10.2571    230.6598     19.2056   6.3965708175e+01   2.4926887727e+01    0.5665253    0.3498916 -32.39  0.002905192    1.597    0.374
        38  -9.9786    242.8722     12.7947   6.1330716885e+01   2.2735450404e+01    0.4313414    0.2695105 -39.48  0.001618944    1.462    0.316
        39 -11.0404    234.2075     12.1396   6.1899582821e+01   2.4865489116e+01     1.110396    0.4734508 -76.13  0.003639444    3.253    0.693
        40 -10.9032    244.0181     19.4981   6.2824274896e+01   2.1702681024e+01    0.7181715    0.3412269  76.49   0.00330366    2.135    0.532
        41 -10.9961    215.3818     16.5949   6.4806558729e+01   2.9018782527e+01    0.8568708    0.6907701 -50.70   0.00474763    1.181    0.153
        42  -9.4014    221.8936     11.4861   6.2839685777e+01   2.7948615381e+01    0.4058302    0.2860723 -50.33  0.001553514    1.320    0.243
        43 -12.3204    223.3873      1.9246   6.0292773197e+01   2.8575306956e+01    0.4275124    0.2432949  74.99  0.002171593    1.619    0.382
        44  -9.6651    229.9250      2.9095   6.0004071950e+01   2.6880243330e+01    0.3312823    0.2276368  28.05  0.001717394    2.162    0.537
        45 -10.6115    202.5335     18.3711   6.6692035371e+01   3.2109327520e+01    0.5781925    0.3705177  33.84   0.00269792    2.060    0.515
        46  -9.4416    197.9425     16.8160   6.6790835314e+01   3.3474621668e+01    0.3829417    0.2182903  65.20  0.001401426    1.616    0.381
        47 -10.5699     54.5627     18.1209   1.0077365210e+02   6.6302453568e+01    0.4838557    0.2939945  -2.60  0.001912665    2.009    0.502
        48 -10.9200    124.1148      3.0248   7.3387744726e+01   5.3899602581e+01    0.4154807     0.276267  46.48  0.001235764    1.340    0.254
        49  -9.8317    185.5961     14.0992   6.7509311406e+01   3.7001792365e+01     0.439506    0.1980587  67.02  0.001826427    1.994    0.499
        50 -10.3176    189.8848      8.3358   6.5298333685e+01   3.6468460517e+01     0.324514    0.2242807  55.97 0.0003299188    1.409    0.290
        51 -10.4285    196.1194      4.1799   6.3428547006e+01   3.5254001547e+01    0.9212884    0.6450717  -2.01  0.004750467    1.884    0.469
        52 -11.6685    204.1511      6.5456   6.3257530668e+01   3.2950219229e+01    0.5395147    0.4405641  41.88 0.0005782503    1.417    0.294
        53 -11.7300    209.2407      3.5571   6.1959353939e+01   3.1949358237e+01    0.5932091    0.3291311 -89.37 0.0006725799    1.817    0.450
        54  -8.7917    180.4769      7.9471   6.6305911639e+01   3.8973339374e+01    0.3175594    0.1854885 -36.76  0.001519663    1.750    0.429
        55  -9.4811    171.1817      1.2828   6.5413390321e+01   4.2030541513e+01    0.2264401    0.1131137  70.27  0.001001123    1.776    0.437
        56 -10.2818    173.4061      8.7868   6.7468559822e+01   4.0751117673e+01    0.3075536    0.2396077 -33.83 0.0003812075    1.368    0.269
        57 -10.3515    175.4753      4.2124   6.5787625562e+01   4.0641424285e+01    0.4628834    0.2865914  67.37  0.001274871    1.435    0.303
        58 -10.8540    247.9756      5.8995   5.9332061980e+01   2.2305563872e+01    0.5588998     0.387138 -57.23  0.003087772    1.245    0.197
        59  -9.4244    157.6864      7.1606   6.9151770791e+01   4.5028103774e+01    0.2751361      0.19283 -75.84 0.0007606432    1.629    0.386
        60  -8.8931    241.8033      1.4482   5.8753988907e+01   2.4204163784e+01    0.2341753    0.1149835  83.95  0.001118798    1.986    0.497
        61  -8.3582    189.7387      1.3862   6.3309247274e+01   3.7173354974e+01    0.1879968    0.1121709  63.06 0.0005839206    1.517    0.341
        62 -10.7195     32.3036     70.7639   1.2816498629e+02   5.9004917814e+01     0.749289     0.282045 -47.46  0.003405267    2.232    0.552
        63  -8.7459    184.3275    250.6657   1.2227052385e+02  -7.2038888621e-01    0.1115358   0.08033067  60.84 0.0007051731    1.719    0.418
        64  -8.6884     17.3246    249.3042   1.5031432730e+02   2.3062160256e+01   0.08019509   0.07162321  89.92 0.0004007198    1.641    0.391
        65 -10.3891     28.0583    101.9890   1.3568036728e+02   5.2357558963e+01    0.5028622    0.3773706 -63.04  0.002910444    1.114    0.102
        66 -12.1710     53.1748     87.1588   1.2484422854e+02   5.3209592567e+01     1.997263    0.7355697 -46.28  0.008030202    2.576    0.612
        67 -11.4224     81.0825     68.7801   1.1049134142e+02   5.3245162896e+01    0.8620989    0.4127376  29.59  0.001203661    2.722    0.633
        68 -11.5377     38.6984     90.3822   1.3026678234e+02   5.4039152881e+01     1.593509    0.6585391 -47.57  0.007223252    2.237    0.553
        69 -12.3480      5.5636    114.9133   1.4377432056e+02   5.1094181379e+01     1.180602    0.2405367 -58.13  0.004754127    3.451    0.710
        70 -12.0420     17.4183    102.4827   1.3892160211e+02   5.3086222368e+01     1.244415    0.6438175  84.73  0.006233372    2.294    0.564
        71 -11.4023     21.5784     96.6356   1.3679638561e+02   5.4102574603e+01    0.3981749    0.3202316 -35.70 0.0006704713    1.421    0.296
        72 -11.5925     33.8621     58.2193   1.2434865485e+02   6.1536408232e+01    0.6310882    0.4559534 -43.47  0.003966311    1.158    0.137
        73  -8.4551     25.4868    248.5887   1.4903159388e+02   2.2309385579e+01    0.1026661    0.0679674  66.26 0.0001881244    1.016    0.016
        74 -10.6109     30.7122     42.9199   1.2098717004e+02   6.4909113749e+01    0.3479237    0.2786336  62.50  0.001557228    1.871    0.466
        75 -12.0987     46.3871     68.7893   1.2256556020e+02   5.8029855785e+01    0.8267506    0.5518038  36.91  0.002534803    1.739    0.425
        76 -11.5003     40.7609     63.3164   1.2313661130e+02   5.9793207980e+01    0.5518057    0.3353744 -20.29  0.002840878    2.152    0.535
        77  -8.9248    106.4239    119.9751   1.1665069128e+02   3.7550531807e+01    0.3691146     0.138132  51.72  0.001199385    3.308    0.698
        78 -10.2849     40.2713    116.7245   1.3445900997e+02   4.7812087008e+01    0.4399172    0.2257532  76.52   0.00188371    2.908    0.656
        79  -9.9387     12.6195    117.1859   1.4213547732e+02   5.0102361323e+01    0.2661939    0.1872142  40.80  0.001592343    1.638    0.389
        80 -10.3042    105.4759    116.4180   1.1608859092e+02   3.8533058891e+01    0.5038924    0.1476758  39.02  0.001530851    3.798    0.737
        81  -9.9596     97.5893    114.7843   1.1787087895e+02   4.0325772440e+01    0.2947103    0.2844123  79.96 0.0008006933    1.058    0.055
        82 -10.0185    132.7780    111.4576   1.0768448368e+02   3.4155264957e+01    0.4815623    0.4311393 -37.14  0.002140719    1.161    0.139
        83  -9.6677    133.8770    104.4676   1.0557577669e+02   3.5409323083e+01    0.5556045    0.2352748 -40.68  0.001949578    2.463    0.594
        84  -8.4283     45.3491    113.2701   1.3245526318e+02   4.8081226213e+01    0.1246051   0.09127738 -37.23 0.0006149376    1.624    0.384
        85  -9.0147     27.8455    115.9103   1.3781486114e+02   4.9179466792e+01    0.1798539    0.1324004 -62.35 0.0002847181    1.199    0.166
        86  -9.8253    105.3797    109.6344   1.1449709835e+02   4.0084549906e+01    0.3378856    0.3033862 -39.51  0.001843341    1.162    0.139
        87 -10.6297     67.2870    107.8899   1.2503211986e+02   4.6657727497e+01    0.6355006    0.3439969 -32.56  0.002573345    2.930    0.659
        88 -10.1062     73.8487    108.1656   1.2316087212e+02   4.5668477508e+01    0.3029454    0.2842857  62.53 0.0007410338    1.136    0.120
        89  -9.2410     34.8119    109.3510   1.3485977989e+02   5.0056742034e+01    0.2617545    0.2097542 -43.09  0.001674088    1.375    0.273
        90  -8.6499     38.6330    107.2279   1.3339257647e+02   5.0177813190e+01    0.1806662    0.1251711 -51.27 0.0006853748    1.370    0.270
        91  -9.4545    120.7534    109.0519   1.1018893693e+02   3.7204348178e+01    0.2639569    0.2216953  46.84 0.0007113133    1.209    0.173
        92  -8.5956     97.5915    103.8824   1.1526469326e+02   4.2802806167e+01    0.2983311    0.1852469  59.11  0.001306165    1.979    0.495
        93 -10.3933    114.5081    100.4762   1.0963601040e+02   4.0347592799e+01     0.515973    0.3347729 -63.37  0.002225826    1.809    0.447
        94 -10.7994    117.5185     98.4740   1.0827244160e+02   4.0170800029e+01    0.6550979    0.5122232  85.47  0.002391311    1.626    0.385
        95 -11.9338     28.2019     84.8225   1.3260760931e+02   5.6244568110e+01    0.9594803    0.7081331 -42.81  0.006098574    1.328    0.247
        96  -9.1389    140.8604    101.2488   1.0294716683e+02   3.4525066041e+01    0.2721491    0.2134031 -56.23  0.001223751    1.334    0.250
        97  -9.9472     55.9891    101.5603   1.2711012278e+02   4.9581909961e+01    0.2266585    0.2050978 -86.49  0.000417614    1.108    0.098
        98  -9.1497      2.2887     75.2744   1.3963421624e+02   6.0078690520e+01    0.2018282      0.14235 -19.67 0.0009634871    1.759    0.431
        99 -10.7479      3.8697     99.8036   1.4253682069e+02   5.4575267362e+01    0.4573677    0.2685912 -76.97  0.001597608    1.333    0.250
       100  -9.1896      9.3191     99.7621   1.4093727073e+02   5.4253504547e+01    0.2079772    0.1780045 -73.85 0.0008799257    1.111    0.100
       101 -11.1859      3.2310     89.0571   1.4134982175e+02   5.7000516885e+01     0.617546    0.2804482 -60.28   0.00276062    1.651    0.394
       102 -11.1075      5.1306     80.3041   1.3947154747e+02   5.8829679356e+01    0.5029243    0.2509053 -45.37  0.002577812    1.875    0.467
       103 -11.7682     13.1852     89.1426   1.3823952379e+02   5.6387042287e+01    0.3927314    0.2511432 -71.15 0.0006568794    1.245    0.197
       104 -10.4798      9.4804     85.4896   1.3885651746e+02   5.7434302091e+01    0.2075321    0.1576938 -69.61 0.0005720108    1.031    0.030
       105 -10.0411    158.9866     96.8915   9.7414334756e+01   3.1159909728e+01    0.4407872    0.3708196  45.81  0.001629647    1.190    0.160
       106 -10.5691     68.2101     76.3989   1.1706641838e+02   5.3628836539e+01     1.093098    0.3761268 -47.24  0.004153671    2.579    0.612
       107  -9.7858    187.9666     93.0865   9.0213682508e+01   2.4767770976e+01    0.4524521    0.3147316 -47.78  0.001826296    1.474    0.322
       108 -11.2901    119.2083     87.3203   1.0465915969e+02   4.2180695514e+01    0.9764159    0.7291375  81.22   0.00315991    1.840    0.456
       109 -10.2577     89.6447     78.0770   1.1059549283e+02   4.9857873857e+01    0.6964383    0.2634422  37.68  0.002525172    2.967    0.663
       110 -11.3001     96.3009     63.5337   1.0388772184e+02   5.1571262480e+01    0.9629083    0.5656227  23.32  0.003971946    2.438    0.590
       111 -11.5092    108.0271     53.2737   9.6778467798e+01   5.1082859780e+01       1.4155    0.5500655  39.96   0.00498654    2.897    0.655
       112 -11.1532    122.2385     55.3718   9.3566924267e+01   4.7593993403e+01    0.9231632    0.6693195   2.79  0.004250052    1.797    0.444
       113  -9.3728    129.6815     46.7181   8.8611770621e+01   4.7261335073e+01    0.4906568    0.3288107  29.68  0.002225381    1.719    0.418
       114 -11.2090    116.3977     66.5188   9.8952654674e+01   4.6900765886e+01     1.227009     0.731584  -9.49  0.004296574    3.259    0.693
       115 -10.8056    102.4145     70.8116   1.0441393463e+02   4.8967329781e+01    0.6632032    0.3983755 -59.29  0.002325575    2.150    0.535
       116 -11.4536    110.7357     64.7553   9.9972554638e+01   4.8440758024e+01     1.380626    0.7954741 -13.27  0.003194519    3.302    0.697
       117 -11.1611    141.5414     40.4109   8.3621965751e+01   4.5290742305e+01    0.7867742    0.6786019  60.44  0.003076553    1.140    0.123
       118 -10.4131    147.8141     35.0899   8.0446272794e+01   4.4434645675e+01     1.103423     0.226561  58.80  0.003032064    4.201    0.762
       119 -10.3161    130.7337     40.0663   8.5974706048e+01   4.8005072108e+01    0.5533358    0.4084542   9.70  0.001555535    1.636    0.389
       120 -10.6228    134.9424     34.1373   8.2857281105e+01   4.7802517025e+01    0.4359667    0.2529953  50.38 0.0004325393    1.611    0.379
       121 -11.6299    105.9811     86.7851   1.0823676163e+02   4.4986320797e+01     1.004349    0.7847434  32.41  0.005067506    1.395    0.283
       122 -11.5884    100.3274     78.8270   1.0754629994e+02   4.7746340005e+01    0.7941586    0.6390136  80.90  0.004008887    1.620    0.383
       123  -8.8083    206.4939     91.5395   8.6357097221e+01   2.0485188089e+01    0.2945408    0.1245323 -44.84  0.001039183    2.432    0.589
       124  -9.2808    194.2380     90.1746   8.8218381245e+01   2.3731540367e+01    0.3542339    0.2480405  -8.40  0.001376941    1.930    0.482
       125  -9.5199     74.5114     89.0556   1.1843284248e+02   4.9928528254e+01    0.3192096    0.2440533  20.96  0.001715551    1.570    0.363
       126  -8.8780     76.9935     84.7588   1.1650736319e+02   5.0503547496e+01    0.2182256    0.1888996 -53.62 0.0003773746    1.067    0.063
       127 -10.1223    152.7598     87.2063   9.6092770613e+01   3.4543969022e+01    0.3787273    0.3187394  45.63 0.0009049004    1.191    0.161
       128  -9.5905    160.8795     81.4490   9.2550092989e+01   3.3637748500e+01    0.4053795    0.3567574  59.68  0.001857594    1.138    0.122
       129 -10.6333    134.4208     81.1186   9.8764630660e+01   4.0064057838e+01    0.7577068    0.4220898 -31.22  0.002324127    2.033    0.508
       130  -8.7891    135.5307     63.9137   9.3036632958e+01   4.3009057325e+01     0.252617    0.1895349 -53.66  0.001020509    1.472    0.321
       131 -10.3587    138.6528     74.0825   9.5524241002e+01   4.0419392740e+01    0.4787356    0.1746435 -47.06  0.001503495    3.106    0.678
       132  -9.8714    132.2370     68.2387   9.5279234620e+01   4.3009849070e+01    0.4846751     0.333713  68.90   0.00169457    1.797    0.443
       133  -9.7131    143.8886     71.1212   9.3315008033e+01   3.9708312399e+01    0.3644604    0.2718866 -49.40 0.0008747023    1.404    0.288
       134 -10.5969    139.5999     67.9266   9.3336962074e+01   4.1320671548e+01    0.5789857    0.4667795   9.67  0.002020638    1.495    0.331
       135  -9.5117    218.4019     78.3052   8.0884616546e+01   1.9766288442e+01    0.5697716    0.3083659  -7.57  0.001801224    3.987    0.749
       136  -9.8593     17.2300     82.5801   1.3583892000e+02   5.7580921084e+01    0.2749559    0.1474675  12.75  0.001508096    2.539    0.606
       137  -8.6341    188.5805     79.7795   8.6402238150e+01   2.6952026872e+01    0.2236991    0.1397847 -45.58 0.0004750159    1.619    0.382
       138 -11.2161    148.7399     75.5730   9.3549348391e+01   3.7713689706e+01     1.000137    0.6092815  32.47  0.003987158    2.071    0.517
       139  -8.7226    155.4250     71.0210   9.0610967318e+01   3.6882224909e+01    0.3918031    0.2257806 -29.37  0.001338787    1.896    0.472
       140 -10.1859    150.8196     66.9725   9.0383750748e+01   3.8741979134e+01    0.4970164     0.302599  54.87  0.001281904    1.625    0.385
       141  -8.4206    155.5267     66.5005   8.9179609313e+01   3.7645088580e+01    0.3077049    0.2501517 -89.03  0.001463095    1.453    0.312
       142  -9.6664     36.9495     75.5518   1.2763794576e+02   5.7528993186e+01    0.2394843    0.1577489 -55.39 0.0004999491    1.248    0.199
       143  -9.0374     34.3415    246.3231   1.4753218060e+02   2.1701668610e+01   0.08322348    0.0786168 -82.67 0.0007050738    1.727    0.421
       144  -9.3075     17.8195     73.8393   1.3400591843e+02   5.9472215878e+01    0.2680026    0.2165191  87.70  0.001823584    1.358    0.263
       145  -9.3305     20.9901     71.9388   1.3249549191e+02   5.9663302411e+01    0.2360625    0.1930702  60.40  0.001441587    1.502    0.334
       146  -8.3612    193.2098     74.2635   8.3996514698e+01   2.6706318335e+01    0.2520296     0.104216 -42.80 0.0008494579    2.400    0.583
       147  -9.5367    214.9064     71.7338   7.9686442161e+01   2.1659632520e+01    0.3966394    0.2390645 -23.75  0.001275429    1.850    0.459
       148  -8.2803    189.3539     71.7908   8.3988943531e+01   2.8099895935e+01    0.1983239    0.1464012 -23.57 0.0002647974    1.477    0.323
       149  -9.7266      4.9567     70.9391   1.3799331957e+02   6.0883807204e+01    0.3616349    0.1989916  43.53  0.001565916    2.316    0.568
       150  -8.7978      8.0249     50.4578   1.3264991704e+02   6.5058737700e+01    0.4318199     0.271264  54.52  0.002589773    2.355    0.575
       151 -10.3612    250.1506     67.5711   7.3777890429e+01   1.3972993486e+01    0.5589334    0.2264672 -25.11   0.00205452    2.893    0.654
       152 -10.9294    157.5128     50.8933   8.3761232346e+01   3.9677129691e+01     1.114628    0.6364282  34.75  0.004401692    2.193    0.544
       153 -11.8572    141.5999     51.5945   8.7459994452e+01   4.3594521312e+01     0.991926     0.382419  49.47  0.002210571    2.468    0.595
       154 -10.9718    150.2184     51.2612   8.5421070795e+01   4.1485214263e+01    0.5273814     0.404883  19.23  0.001393189    1.560    0.359
       155 -10.8956    164.6491     57.0370   8.4277616637e+01   3.6878473292e+01     0.644945    0.4852879   6.49  0.002092829    1.730    0.422
       156  -9.7721    178.0468     60.4922   8.2750994619e+01   3.2852495225e+01    0.4870458     0.347733  -9.61  0.001096935    1.786    0.440
       157 -11.6161    174.3279     56.6453   8.2277458257e+01   3.4425053869e+01     1.214265    0.6523272 -28.23  0.003203275    2.002    0.500
       158  -8.6075    202.2388     68.4092   8.0803607714e+01   2.5358224582e+01    0.2076339    0.1455962  76.64 0.0008928439    1.602    0.376
       159  -8.9312    189.0114     64.9725   8.2085990464e+01   2.9295490237e+01    0.2526467    0.1800255 -68.58  0.000866551    1.683    0.406
       160  -8.7603     76.0098     46.2705   1.0445255419e+02   5.8398068514e+01    0.2407694    0.1696689 -28.75 0.0009180605    1.349    0.259
       161 -10.0487     77.9862     61.6132   1.0920435455e+02   5.5192792031e+01    0.4972651    0.2969952 -41.24  0.002424055    1.546    0.353
       162 -10.4849     71.6541     54.6653   1.0903451074e+02   5.7553601467e+01    0.4985504    0.3885423 -69.84  0.001009979    1.738    0.425
       163 -10.3996     76.5070     52.0589   1.0640750877e+02   5.7264867288e+01    0.5163915    0.3957353 -80.41  0.002260639    2.118    0.528
       164  -8.7588     61.9803     62.7294   1.1516164751e+02   5.7373757737e+01    0.1712048     0.158276 -29.69 0.0004009122    1.059    0.056
       165  -9.6312    149.3493     59.9081   8.8452434608e+01   4.0312895757e+01    0.3997188    0.2608485 -45.41  0.001091851    1.600    0.375
       166 -10.7359     99.5860     38.8882   9.3892814908e+01   5.5204644821e+01     1.063277     0.575205 -31.73  0.003113354    1.832    0.454
       167  -9.9242    141.9129    243.5426   1.2886226731e+02   7.0599027655e+00    0.2406657    0.1699398  26.86 0.0005060055    1.649    0.394
       168  -9.1789    211.0392    240.4918   1.1624409788e+02  -3.7319325990e+00    0.1688929    0.1456542  -7.14  0.001244649    1.303    0.233
       169 -10.6572    156.2283     24.9232   7.5369667248e+01   4.3534878015e+01     0.781531      0.32796  63.23  0.001744198    2.208    0.547
       170  -9.9654    109.7609     37.9806   9.0599892808e+01   5.3169647546e+01    0.9034814    0.4310027 -15.67  0.003106437    3.451    0.710
       171 -10.8285    106.6414     30.2670   8.8442465312e+01   5.4955352912e+01     1.211038    0.3352528  49.44  0.004078154    3.255    0.693
       172 -10.8812    118.4322     41.5351   8.9597733071e+01   5.0688940940e+01    0.7317722    0.5149366 -60.01  0.003425543    1.900    0.474
       173  -9.6927     12.9875    238.3175   1.5051786357e+02   2.5355343042e+01    0.1453399   0.09714387  64.81 0.0009806113    1.081    0.075
       174  -9.4951     12.7265    232.9802   1.5032802516e+02   2.6304844020e+01    0.1498926   0.09720735  75.22 0.0008615199    1.089    0.081
       175  -8.3839    227.1425    231.6042   1.1213194423e+02  -5.2295686762e+00    0.1727424   0.08684987  31.42 0.0009161461    1.688    0.408
       176  -9.1883    136.8671    226.0883   1.2769087859e+02   1.0583467318e+01    0.2031618    0.1464054 -70.94  0.001247069    1.722    0.419
       177  -8.1741    244.5373    204.5069   1.0460312547e+02  -4.7705643684e+00    0.1240086   0.09869634  13.37 0.0008093826    1.019    0.019
       178  -9.0250    234.1843    201.4169   1.0581260789e+02  -2.6808419971e+00    0.2263219   0.09163827 -30.72  0.001015447    2.677    0.626
       179 -10.5257     26.9241    191.4753   1.4551157820e+02   3.2674347516e+01    0.3330427    0.2245632  87.70  0.002231027    1.177    0.151
       180 -11.2622     17.8991    186.2363   1.4689996568e+02   3.4641108084e+01    0.2928208    0.2776092 -71.14 0.0004728609    1.527    0.345
       181  -9.5990     11.6636    184.4598   1.4799041757e+02   3.5586507388e+01    0.1957762    0.1220179 -81.05   0.00109286    1.330    0.248
       182 -10.6874      6.0045    185.9481   1.4915580776e+02   3.5791754576e+01    0.4685454    0.1549749  58.30  0.002392481    2.606    0.616
       183  -9.7321     38.8961    177.3869   1.4197873758e+02   3.4308896630e+01    0.3385887    0.1501315 -73.98   0.00176321    1.982    0.496
       184  -9.4072      1.6083    177.7306   1.4953269860e+02   3.7826855765e+01     0.197091    0.1023929  86.69  0.001061273    1.494    0.331
       185  -9.4832     62.7777    167.8096   1.3576747477e+02   3.3486188967e+01    0.2702154    0.1786095 -86.27  0.001028362    1.409    0.290
       186  -9.0867      8.8463    167.6785   1.4746750917e+02   3.9305352244e+01    0.1678131    0.1314476  43.03  0.001246845    1.492    0.330
       187  -8.6170    219.1791     52.8589   7.4019055940e+01   2.3424834844e+01    0.2056706    0.1821152 -44.81 0.0003699205    1.088    0.081
       188 -10.7084    222.1192     47.9694   7.2334079112e+01   2.3380391394e+01    0.6502927    0.3678635 -50.37  0.002911099    1.760    0.432
       189 -10.0133    222.1925     57.2794   7.4782330761e+01   2.2041199983e+01    0.4487997    0.3579771 -41.38  0.001550264    1.189    0.159
       190 -10.4135    201.4016     57.2434   7.7811085990e+01   2.7293245071e+01    0.5750145    0.4040644   7.41  0.002520732    2.072    0.517
       191  -9.2021    158.3387     58.3212   8.5982869763e+01   3.8296371965e+01     0.531796    0.3284267  -1.16  0.001953746    2.769    0.639
       192  -9.8930      3.1593     57.5477   1.3614195367e+02   6.3835968362e+01    0.3040318    0.2318827  84.81  0.001930716    1.533    0.348
       193 -10.9220     13.2466     56.6366   1.3201513842e+02   6.3465763880e+01    0.2717138    0.2111185  30.12  0.001900019    1.612    0.380
       194 -10.3468    186.6022     53.1822   7.9045073981e+01   3.1743118649e+01    0.4828944    0.3131579   8.59  0.001914922    2.489    0.598
       195  -9.9968    188.7783     48.8388   7.7398365128e+01   3.1810121092e+01    0.4037458    0.2762825 -49.59  0.000532696    1.499    0.333
       196  -9.3823     13.5078    165.0056   1.4630771510e+02   3.9470465020e+01    0.2085705    0.1545545  54.69  0.001018066    1.334    0.251
       197 -10.5732     26.1029     53.2989   1.2604199891e+02   6.3232914534e+01    0.3148378    0.2261951 -19.04  0.001177271    1.511    0.338
       198 -10.0654     28.5208     49.4993   1.2396518169e+02   6.3802655454e+01    0.2348205    0.1746741 -44.05 0.0006073005    1.082    0.076
       199  -8.9699    192.8416     54.0328   7.8258908925e+01   2.9987941064e+01    0.2286906       0.1908 -70.63 0.0003193473    1.250    0.200
       200 -10.6464      2.5101    159.6483   1.4824713103e+02   4.1513689889e+01    0.5492176    0.1995805 -86.26  0.002305188    2.347    0.574
       201 -10.0065     21.9478    138.1987   1.4203344385e+02   4.4615750102e+01    0.3081848    0.1558062 -54.06  0.001665935    2.022    0.505
       202  -9.4450    236.9202     48.7880   7.0731013611e+01   1.9668085864e+01    0.2405108    0.1889009 -38.27 0.0005490041    1.200    0.167
       203 -10.7462     16.5009    158.6836   1.4517656282e+02   4.0565486313e+01    0.4202529    0.2478471 -47.16  0.002453628    2.305    0.566
       204 -11.8524     19.7787    148.0425   1.4351677882e+02   4.2607782965e+01    0.7943993    0.4705408 -64.67   0.00486852    1.519    0.342
       205  -8.8502     52.9139    151.6774   1.3607601538e+02   3.8339693254e+01    0.1752329    0.1477649  65.82 0.0009522702    1.149    0.130
       206  -6.6152     11.9070     41.8502   1.2877555668e+02   6.6573640344e+01     0.421445     0.330167  -9.92  0.003042127    1.402    0.287
       207  -8.6700     10.3825    157.7553   1.4643427419e+02   4.1288572951e+01      0.15977   0.08161114 -70.43 0.0005182464    1.627    0.385
       208 -10.5011     34.6239    150.1266   1.4025302046e+02   4.0730886527e+01    0.3033523    0.2543178  64.50  0.001032798    1.195    0.163
       209 -11.8955     36.7678     27.5253   1.1263857849e+02   6.7120742736e+01    0.3020687    0.2184763  16.94  0.001948763    1.469    0.319
       210 -10.7847     38.8380    145.7298   1.3875109191e+02   4.1284256459e+01    0.4366113    0.2992583 -83.02  0.001490609    1.232    0.188
       211  -9.7885     67.0275    148.0278   1.3213712819e+02   3.7362227993e+01    0.2201271    0.1413922  73.43  0.001132878    1.677    0.404
       212  -9.4194      1.1756    145.7348   1.4756689075e+02   4.4592299740e+01    0.4419963   0.09393179 -79.07  0.001647824    3.992    0.749
       213  -9.7703      4.7893    147.2349   1.4686878284e+02   4.4003286750e+01     0.249472    0.1579776 -68.72  0.001279162    1.388    0.280
       214 -11.6510     21.1137     43.7677   1.2535410070e+02   6.5552744456e+01     0.558348    0.4139815 -79.73   0.00293416    1.765    0.433
       215 -10.9632     15.7316     33.7797   1.2459871925e+02   6.7889464687e+01    0.5090634    0.3271542 -64.64  0.003161511    1.676    0.403
       216  -9.9417      7.2079    142.9078   1.4597516365e+02   4.4765550531e+01    0.4397498     0.208901  49.08   0.00254302    2.077    0.518
       217  -9.3499     60.9236    147.2673   1.3353584735e+02   3.8343832789e+01    0.1932267    0.1515881 -22.22  0.001079275    1.977    0.494
       218 -10.3494    191.7562     39.2322   7.4102393681e+01   3.2363970108e+01    0.6000225    0.4024049  -2.14  0.001331651    2.092    0.522
       219  -8.6823    196.5108     41.5081   7.4061751907e+01   3.0811602786e+01    0.2197834    0.1300915 -42.68 0.0006633603    1.661    0.398
       220 -10.2327    199.7555     31.3452   7.0694130434e+01   3.1290988951e+01    0.3820467    0.2707959 -78.88   0.00028265    1.515    0.340
       221  -9.9770    194.6338     30.9759   7.1278575608e+01   3.2676511629e+01    0.3376078    0.2993385  11.94  0.001138512    1.338    0.252
       222 -10.2129    207.0649     43.9118   7.3240101486e+01   2.7747269213e+01    0.5902785    0.4234529 -66.45  0.002450158    1.487    0.327
       223 -10.9948    202.8963     37.7750   7.2094048030e+01   2.9648157036e+01    0.5844712    0.3899175  44.96  0.002487266    1.665    0.399
       224  -8.8844    249.2637     44.6631   6.8349705000e+01   1.7345868374e+01    0.2682746    0.1876764  28.95  0.001339418    2.073    0.518
       225  -9.4876    232.4113     43.7703   6.9988105673e+01   2.1429397097e+01    0.4145648    0.2474803  31.52  0.001749566    2.636    0.621
       226  -9.5553    234.2647     39.6878   6.8743059792e+01   2.1523354306e+01    0.3054234    0.2083515  59.23  0.001577569    1.529    0.346
       227 -10.0450     47.3011    137.6371   1.3562166148e+02   4.2209006308e+01    0.3568332    0.1523894  47.90  0.001644283    2.421    0.587
       228 -11.7713    164.4095     62.6059   8.6068440713e+01   3.6040282415e+01    0.7790645    0.7154121  -1.64  0.002886067    1.185    0.156
       229 -12.0418     16.1124     61.7710   1.3208487013e+02   6.2196252355e+01    0.7247444     0.411459   1.75  0.003356821    2.389    0.581
       230  -8.9123    219.4823     60.4855   7.6008103599e+01   2.2240899439e+01    0.2606259    0.1987198  64.30 0.0009649944    1.336    0.252
       231  -8.8274    215.0141     42.0369   7.1663910010e+01   2.5973109136e+01    0.2290259    0.1712546  28.75  0.001058623    1.729    0.422
       232 -11.2077     55.2931    131.5996   1.3266915792e+02   4.2668937061e+01    0.9568254    0.2482419 -55.85  0.003467776    3.256    0.693
       233  -9.0210     77.2373     41.2569   1.0209716283e+02   5.9059000582e+01    0.2435206     0.177405  48.85 0.0008068565    1.590    0.371
       234  -8.6632      4.9186     41.0293   1.3160392532e+02   6.7138677556e+01     0.122148    0.1021816 -35.47 0.0009184074    1.165    0.141
       235  -8.8219    173.3516     38.9192   7.6947531489e+01   3.7260257731e+01    0.2745975    0.2017617 -88.73 0.0008015097    1.540    0.351
       236  -9.4575    168.6018     36.2201   7.6910931689e+01   3.8873535850e+01    0.3165857    0.2707675 -84.05 0.0009571121    1.224    0.183
       237  -8.4359    222.1759     35.7882   6.9117966679e+01   2.4995439721e+01     0.182209    0.1665306  34.34 0.0006882558    1.290    0.225
       238 -10.0745    210.5045     33.0130   6.9780814172e+01   2.8302026478e+01    0.4035468    0.2880239 -19.75  0.001903915    1.601    0.375
       239 -10.2435    246.2311     33.2071   6.5901183563e+01   1.9525162664e+01    0.4015248    0.2365568  60.10 0.0005572932    1.786    0.440
       240 -10.9658    237.2664     32.7346   6.6682342936e+01   2.1696274431e+01    0.4941078    0.3848295 -83.98  0.001956342    1.252    0.201
       241  -9.2553    242.4421     31.4770   6.5853234696e+01   2.0626874576e+01    0.2333914    0.1925048 -41.85 0.0005512203    1.154    0.134
       242  -8.3684    218.6003     33.7729   6.9005706955e+01   2.6149537412e+01    0.2084948    0.1173774 -42.39 0.0009508141    1.666    0.400
       243 -10.6009    226.4919     28.6771   6.6787401169e+01   2.4819812632e+01    0.6404416    0.2908057 -50.61  0.002678002    2.188    0.543
       244 -10.5607    177.4074     29.5739   7.3368947713e+01   3.7395810872e+01    0.5521901    0.4028069 -17.42  0.001826988    1.562    0.360
       245  -9.7316     63.8692    138.1919   1.3145135153e+02   4.0050568961e+01    0.2736467    0.1634353  53.14  0.001134942    1.725    0.420
       246  -9.8031    180.7830     39.1707   7.5789758432e+01   3.5264051337e+01    0.4361659    0.3345891 -59.33  0.001672203    1.378    0.275
       247  -8.5311    120.2165     28.7279   8.4293809474e+01   5.2071246682e+01    0.3255209    0.1418695 -44.67  0.001217244    2.817    0.645
       248  -9.3666    219.7237     25.3320   6.6648091872e+01   2.6911130715e+01     0.347754    0.2105728 -70.35 0.0007341724    1.801    0.445
       249  -8.9823     28.4860    121.5597   1.3840176061e+02   4.7824755749e+01    0.3051779    0.1100345 -63.09   0.00140048    2.164    0.538
       250  -9.8499     18.9852    119.7212   1.4072573105e+02   4.9046800421e+01    0.6343799     0.217432 -59.27  0.002952724    2.321    0.569
       251 -10.2406     27.0708    127.6098   1.3954450531e+02   4.6565431425e+01    0.4514788    0.2634134  43.10  0.002627205    1.839    0.456
       252  -9.5515    241.2136     23.5455   6.4046208198e+01   2.1884647881e+01    0.3346887    0.1696729 -52.34  0.001174564    1.852    0.460
       253 -10.4208      3.5241    135.4235   1.4621694137e+02   4.6675935591e+01    0.4480375    0.2653849  86.20  0.002294149    1.394    0.283
       254  -9.7520      9.2788    134.7806   1.4478111255e+02   4.6403510977e+01    0.2233639    0.2076706 -34.92 0.0007602327    1.477    0.323
       255 -10.5411     20.2131    128.5009   1.4142143026e+02   4.6953805046e+01    0.3513663    0.2864614 -17.63  0.001169782    1.774    0.436
       256 -11.3710     13.8888    130.7036   1.4325587061e+02   4.6963564494e+01    0.6117356    0.3300323  76.15  0.003230505    1.864    0.463
       257 -10.3061     11.9251    125.4730   1.4321690521e+02   4.8286370080e+01    0.2542913    0.1874994  41.28  0.001031757    1.563    0.360
       258  -9.1763    193.0616     24.9013   6.9724001536e+01   3.3828126420e+01    0.3814868     0.209534  20.53  0.001367453    3.453    0.710
       259  -8.6662    201.3801     25.3047   6.8774108710e+01   3.1606411996e+01    0.1900593    0.1259392 -40.84 0.0006160937    1.481    0.325
       260 -10.4752     98.0519     22.4476   8.7658799775e+01   5.7835290731e+01    0.2781066    0.2318398  43.90 0.0004858735    1.177    0.150
       261  -8.7425     98.6548    135.3123   1.2193593233e+02   3.5431627958e+01    0.1510557      0.10575  76.74 0.0007046426    1.709    0.415
       262  -8.6053    196.6266     20.7499   6.8070128984e+01   3.3376833441e+01    0.2088566    0.1770392  25.43  0.001141599    1.418    0.295
       263 -10.7062     65.4400    130.1542   1.2973736615e+02   4.1711078188e+01    0.4585383    0.2595655  50.76  0.002258117    1.865    0.464
       264 -10.0313    177.7951     20.0551   7.0363526816e+01   3.8413075790e+01    0.3366158    0.2627002 -52.95   0.00130651    1.323    0.244
       265  -9.0419    177.8383     15.4009   6.8922182250e+01   3.8909030624e+01    0.3138598     0.213845  34.10  0.001521814    1.732    0.423
       266  -8.6067     78.3579    127.6814   1.2582650699e+02   4.0460845879e+01    0.1955059    0.1327127  57.90 0.0009892385    1.571    0.363
       267 -10.5373     72.2375    129.0561   1.2772524935e+02   4.1031318975e+01    0.4330959    0.3374739 -62.15  0.001674179    1.187    0.158
       268  -8.7770     61.5158     15.7686   9.6889141368e+01   6.5551755328e+01    0.1433738    0.1105215 -32.93 0.0002796717    1.347    0.258
       269  -9.3524     74.6671    125.3819   1.2639659223e+02   4.1540123205e+01    0.3707463    0.1926736  42.14  0.001625389    1.999    0.500
       270  -8.8362     95.7533    130.5520   1.2174808989e+02   3.7019353614e+01    0.2665632    0.1667702 -47.82  0.001253538    1.645    0.392
       271 -10.2944     37.6487    127.9689   1.3681178743e+02   4.5474832378e+01    0.4492455    0.2022437 -48.08  0.002073732    2.508    0.601
       272  -9.8754     47.9107    125.8425   1.3375912331e+02   4.4872561781e+01    0.2827785    0.1449958 -63.78  0.001413746    1.659    0.397
       273 -10.8065     67.8641    122.4986   1.2773026212e+02   4.3171567960e+01    0.7127973    0.3190056 -44.48    0.0028826    2.673    0.626
       274 -10.1058     67.7181    115.4151   1.2642858624e+02   4.4846428536e+01    0.3424357     0.197161  56.32 0.0008174652    2.057    0.514
       275  -9.8703     91.8703    120.4302   1.2069495291e+02   4.0007303896e+01    0.4129851    0.2945001 -37.87  0.002043561    1.629    0.386
       276 -11.1299     85.9622     99.9817   1.1768535516e+02   4.5674921271e+01     3.113062    0.9390445  30.48  0.007418907    7.461    0.866
       277 -11.3115     88.9775     89.5146   1.1406479094e+02   4.7510089652e+01     1.185621    0.7859922  49.38  0.005764721    1.664    0.399
       278  -9.7964     25.3589     66.9138   1.2979720252e+02   6.0422242075e+01    0.4015984    0.1979111 -51.06  0.002156581    1.605    0.377
       279 -11.1784     48.5903     25.4621   1.0659719012e+02   6.6024605754e+01    0.4341347    0.2038415  34.73  0.002043985    2.285    0.562
       280 -10.9521     78.8503     75.5880   1.1330700096e+02   5.2192078990e+01    0.8454829    0.5500367  42.88  0.001557292    1.683    0.406
