#   1 NUMBER                 Running object number                                     
#   2 MAG_AUTO               Kron-like elliptical aperture magnitude                    [mag]
#   3 X_IMAGE                Object position along x                                    [pixel]
#   4 Y_IMAGE                Object position along y                                    [pixel]
#   5 X_WORLD                Barycenter position along world x axis                     [deg]
#   6 Y_WORLD                Barycenter position along world y axis                     [deg]
#   7 A_WORLD                Profile RMS along major axis (world units)                 [deg]
#   8 B_WORLD                Profile RMS along minor axis (world units)                 [deg]
#   9 THETA_WORLD            Position angle (CCW/world-x)                               [deg]
#  10 FWHM_WORLD             FWHM assuming a gaussian core                              [deg]
#  11 ELONGATION             A_IMAGE/B_IMAGE                                           
#  12 ELLIPTICITY            1 - B_IMAGE/A_IMAGE                                       
         1 -15.3477     15.6576    112.7833   1.2662331063e+02   5.0265449350e+01     1.854021     1.648011 -55.25   0.01253166    1.224    0.183
         2 -12.6526     30.4603      2.1519   8.8578318649e+01   7.1422430202e+01     1.165739    0.4059375  38.62  0.005460147    3.153    0.683
         3 -12.6723     14.1374     16.6845   1.0428207249e+02   7.0846645037e+01    0.6958236    0.5244306 -59.79  0.004666699    1.713    0.416
         4 -12.1938      3.1414     29.4418   1.1463927214e+02   6.9227241511e+01    0.6845977    0.3205385 -61.68    0.0035347    1.917    0.478
         5 -13.2790      5.3162      5.7687   1.0423752087e+02   7.3353361199e+01     1.171521    0.5080761 -35.57  0.006668561    1.797    0.444
         6 -12.9523    200.6048     27.3801   5.5015005237e+01   3.1583921382e+01    0.5918438    0.5822762   4.47  0.003638253    1.123    0.110
         7 -13.7635    136.9496     26.3251   6.4906391485e+01   4.7836909606e+01     1.194851    0.6861163  45.09  0.004694229    1.666    0.400
         8 -12.0775    124.7083     23.1696   6.6368706316e+01   5.1180504675e+01    0.7049419    0.2475118 -23.73  0.002509534    3.096    0.677
         9 -12.4841    127.5774     20.2792   6.4640674695e+01   5.0821307372e+01    0.7183108    0.2445501 -30.75  0.002663539    2.859    0.650
        10 -12.0184    207.5018     19.7362   5.2107598177e+01   3.0743413307e+01    0.4007943    0.2881321  26.58  0.001283303    1.814    0.449
        11 -11.8755     34.8347     17.8942   9.4452342969e+01   6.8596688697e+01    0.6074237    0.3045889 -29.08  0.003195873    1.824    0.452
        12 -12.8431    214.8424     10.2648   4.8856322346e+01   2.9960205102e+01    0.6872661     0.560123 -68.76  0.003671256    1.139    0.122
        13 -11.9679     26.7356     13.4899   9.6317301605e+01   7.0200045089e+01    0.4439347    0.2069287  14.94  0.002135918    2.863    0.651
        14 -12.4320    153.8537      7.2197   5.5209059651e+01   4.5585832616e+01    0.7700711    0.5327231 -72.64  0.003887797    1.723    0.420
        15 -12.9418    141.4086      8.2144   5.7541522231e+01   4.8633397880e+01    0.9576309    0.6061713  24.05  0.004645375    1.831    0.454
        16 -13.1575    131.4212      4.8861   5.8074667165e+01   5.1405332843e+01     1.044839    0.6661029  65.61  0.005284403    1.480    0.324
        17 -12.0966    248.8884      6.4160   4.5148365236e+01   2.2522306608e+01    0.6567035     0.280083 -23.30  0.002985731    2.605    0.616
        18 -11.2710     42.6941     10.5845   8.7235008583e+01   6.8677177271e+01    0.3387435    0.2253434  20.18  0.002071735    1.460    0.315
        19 -11.9995     49.5283      1.9870   7.9729110823e+01   6.8756725273e+01     1.027468    0.1793604  45.07  0.003333576    5.469    0.817
        20 -13.0326      3.2681    142.0959   1.3278563075e+02   4.4488673815e+01    0.8114344     0.371418 -79.39  0.003754375    1.725    0.420
        21 -12.3473    100.1298    233.8660   1.2110893662e+02   1.4799682618e+01    0.9860536    0.4878796  23.50  0.003982828    4.333    0.769
        22 -14.2877    130.4961    244.0825   1.1663401771e+02   8.7186858881e+00     1.424825    0.9306878  38.69  0.006744053    1.276    0.217
        23 -11.7651    109.8420    245.1007   1.2045636405e+02   1.1590235026e+01     1.175254    0.7787862  33.77  0.007632411    1.506    0.336
        24 -12.2162    130.9522    208.0520   1.1208099461e+02   1.4548565420e+01    0.9799739    0.5102888  44.41  0.004696436    1.657    0.396
        25 -13.5683    119.8860    225.6190   1.1650113082e+02   1.3263198635e+01     2.052572    0.7040804  34.97  0.008331552    3.085    0.676
        26 -13.2864    111.3200    215.0240   1.1690744181e+02   1.6414588030e+01     1.682085    0.5283611  36.65   0.00659747    3.133    0.681
        27 -14.8210     86.7234    188.6051   1.1874855915e+02   2.5187134281e+01     2.170956     1.467036  18.98   0.01138828    2.191    0.544
        28 -15.2032     60.1796    189.3565   1.2448439652e+02   2.8614480862e+01     2.432309     1.621299 -59.84   0.01480392    1.603    0.376
        29 -14.7252     70.7242    214.1734   1.2476429421e+02   2.2353284036e+01     1.866209     1.210683  24.10   0.01079156    2.173    0.540
        30 -13.6586     49.8616    204.2607   1.2793960323e+02   2.6854924796e+01     1.220297    0.5608582  38.67   0.00624338    2.040    0.510
        31 -14.8043     78.1118    228.3209   1.2465082127e+02   1.8796230572e+01      2.13298    0.9233569  28.05    0.0091447    3.768    0.735
        32 -16.0195     62.3616    243.3800   1.2864866581e+02   1.8221955996e+01     3.017013    0.8020748  41.23   0.01439362    2.810    0.644
        33 -14.8815      3.6662    212.4400   1.3694132583e+02   3.0009577238e+01     1.167028    0.5115154 -64.87   0.00713766    2.399    0.583
        34 -14.4852     30.4721    242.9219   1.3394959981e+02   2.1958324739e+01    0.6254126    0.4617981  47.17   0.00502411    1.359    0.264
        35 -16.4519      6.5294    239.7265   1.3762338165e+02   2.4894995175e+01     2.125746     1.005598 -69.91   0.01300928    2.203    0.546
        36 -14.2915     17.8891    242.2527   1.3593944299e+02   2.3368639862e+01    0.4948167    0.2906342  58.20  0.002155494    1.233    0.189
        37 -13.4290     17.8207    147.8194   1.2985495584e+02   4.2106756955e+01    0.8811803    0.5672915  25.87  0.004615142    1.946    0.486
        38 -14.3484     16.8976    132.9271   1.2861325378e+02   4.5546233341e+01     1.449646    0.9107916  55.17  0.008860431    1.650    0.394
        39 -13.4252      3.3106    169.5999   1.3472252915e+02   3.8544205009e+01    0.9987187    0.3590366 -84.56  0.004163547    2.385    0.581
        40 -14.4850     12.2460    162.0666   1.3231260816e+02   3.9434409474e+01     1.641884    0.8855436  70.92   0.00784698    1.712    0.416
        41 -11.8327     96.3492    201.0650   1.1824798854e+02   2.1284469425e+01    0.8748143    0.5889004 -76.63  0.004909285    1.616    0.381
        42 -14.0376     91.0846    165.5924   1.1460067570e+02   2.9423337100e+01     1.428364     1.088331  47.73  0.008164643    1.266    0.210
        43 -12.5647     80.1866    151.7127   1.1508263076e+02   3.4144536325e+01    0.6753919     0.485914 -71.51  0.002951271    1.337    0.252
        44 -13.1293    152.3793    196.6886   1.0601179997e+02   1.2929596569e+01     0.778241    0.6164711 -76.96  0.003369591    1.657    0.397
        45 -14.0696     92.1651    146.0600   1.1112901502e+02   3.3620184553e+01     1.756716    0.9138047  59.91  0.002642528    2.571    0.611
        46 -13.3909     72.7356    133.6113   1.1398732518e+02   3.9377426474e+01     1.357974    0.6571378  60.80  0.005174872    3.162    0.684
        47 -12.8607     67.5025    143.4284   1.1698384284e+02   3.7803157711e+01    0.8341265    0.4913465  55.98  0.003393366    1.843    0.457
        48 -13.4089     52.7802    138.3549   1.2002873443e+02   4.0810895354e+01     1.226599     1.024932  63.84  0.005741715    1.201    0.168
        49 -12.2748     35.5633    133.4851   1.2385974079e+02   4.3781003498e+01     1.077482    0.7309397 -83.69  0.006362582    1.320    0.242
        50 -11.3471     50.6642    154.0899   1.2267248513e+02   3.7437173523e+01    0.6339434    0.2475008  54.17  0.002613079    3.002    0.667
        51 -11.2950     98.4487    136.7644   1.0777779503e+02   3.4721469830e+01    0.3884813    0.2752856 -61.44  0.001396181    1.385    0.278
        52 -11.8584    100.0623    128.7021   1.0571029729e+02   3.6292231729e+01    0.6271973    0.4206533 -34.96  0.001829191    1.781    0.439
        53 -13.1388     84.1469    124.2218   1.0910293676e+02   3.9903880362e+01     1.174344    0.8238063  55.27  0.005529697    1.565    0.361
        54 -11.1403    110.3947    125.5725   1.0228702008e+02   3.5182244305e+01    0.4215442    0.1378853 -51.04  0.001392186    2.975    0.664
        55 -12.2366     51.9177    114.8905   1.1648068149e+02   4.6416639280e+01    0.4590935    0.3262594 -89.80  0.002510081    1.534    0.348
        56  -9.3374    167.6485    112.3363   8.4967068462e+01   2.6083755405e+01    0.1597042    0.1239053 -80.85 0.0007045455    1.790    0.441
        57 -12.2237     78.6184    103.2704   1.0610828374e+02   4.5606155777e+01    0.4449621    0.3041767 -35.09  0.002195802    1.610    0.379
        58 -10.7644     82.9206     98.5925   1.0366772627e+02   4.6012416709e+01    0.4814577    0.1993503 -50.93  0.001881016    2.197    0.545
        59 -11.7770     58.9403     85.1699   1.0793106647e+02   5.2470372715e+01     0.642392    0.4888442 -69.65  0.003577148    1.383    0.277
        60 -12.1732     43.5218     87.4946   1.1364989165e+02   5.3716158040e+01    0.5293531    0.4114053  13.86  0.003175516    1.554    0.357
        61 -10.5385     79.0083     79.6672   9.9788280233e+01   5.0829990030e+01    0.2731317    0.1890063 -28.10  0.001343071    1.582    0.368
        62 -13.1143      6.5707     94.4352   1.2689514517e+02   5.5064294942e+01     1.270229     0.658238  78.82  0.006418917    2.420    0.587
        63 -11.6339     61.4052     74.9071   1.0434821510e+02   5.4425987161e+01    0.4810787    0.3694513 -75.20  0.002615756    1.604    0.377
        64 -11.8755     68.5452     70.6953   1.0063583146e+02   5.4335348381e+01    0.6384099    0.3531109 -52.05   0.00299203    1.703    0.413
        65 -11.6191      2.6430     69.7659   1.2438702956e+02   6.0814765158e+01    0.5242928    0.2411961 -70.58  0.002328698    1.767    0.434
        66 -12.5584     21.5959     67.5779   1.1694432488e+02   6.0140544796e+01    0.7696377    0.5347412 -13.50  0.004707274    1.714    0.416
        67 -12.4406     30.7632     64.7270   1.1277604942e+02   6.0022932146e+01    0.7444009    0.4638507   0.05  0.004069631    2.097    0.523
        68 -11.8573     46.8612     66.7208   1.0724840999e+02   5.7981045327e+01    0.2857712    0.2666038   3.58  0.001880229    1.196    0.164
        69 -11.9686     73.6787     40.1494   8.8090683030e+01   5.9388976815e+01    0.7480606     0.343469 -28.56  0.003089293    2.406    0.584
        70 -12.5445     71.3347     59.0067   9.5897055706e+01   5.6306297993e+01    0.7562151    0.5188027 -46.30  0.003749074    1.376    0.273
        71 -12.1923     51.1498     58.2488   1.0308197468e+02   5.9258364208e+01    0.7042934    0.4285758 -20.11  0.003453088    2.049    0.512
        72 -12.4935    121.4919     55.2355   7.8966175198e+01   4.7345645939e+01     0.693796    0.6274887  61.72  0.003783695    1.220    0.180
        73 -11.1166      1.7445     55.1566   1.2191997954e+02   6.4032668282e+01    0.6335703    0.1063866 -65.66    0.0021942    4.211    0.763
        74 -10.9992     12.2724     50.4128   1.1648261143e+02   6.4464106014e+01    0.3605674    0.2763503 -42.34  0.001800389    1.087    0.080
        75 -11.7673      3.3972     44.7670   1.1883841299e+02   6.6138477850e+01    0.7875195    0.4248269 -82.85  0.004033179    2.624    0.619
        76 -10.3710     37.5731     52.4905   1.0659640234e+02   6.1960471450e+01    0.2828215    0.1946452 -29.57  0.001657094    1.366    0.268
        77 -12.2348    139.7971     42.5018   7.0041705104e+01   4.5014763651e+01    0.3594815    0.3388433 -21.24  0.002016319    1.078    0.072
        78 -12.0309    191.9538     34.3903   5.8156848019e+01   3.2909371029e+01    0.3670807    0.2824292  46.22   0.00131713    1.363    0.266
        79 -14.2832    178.2907    190.0030   9.9617967107e+01   9.4587327689e+00     1.489343    0.9212251  28.86  0.007489008    1.632    0.387
        80 -14.3738    160.4084    185.7750   1.0251462573e+02   1.3436111205e+01     2.175298    0.8896513 -47.96  0.008858624    2.740    0.635
        81 -12.5067    144.0462    224.8978   1.1178815195e+02   9.5908146423e+00    0.5032916    0.3981779  51.48  0.002098899    1.155    0.134
        82 -14.3181    153.0072    213.8576   1.0851928743e+02   9.9082120361e+00     1.109658     1.058119  22.67  0.006036507    1.135    0.119
        83 -11.4992     42.8266    220.0065   1.3045276457e+02   2.4659519329e+01    0.4818623    0.2013537  42.65  0.002465931    1.997    0.499
        84 -11.2197     43.0288    215.3543   1.3008884107e+02   2.5505870525e+01    0.2702737    0.2188465 -59.07 0.0009378309    1.615    0.381
        85 -11.2611    112.7979    196.0961   1.1417365089e+02   1.9707449606e+01     2.126756    0.9940039  23.37  0.006888133    5.113    0.804
        86 -11.9232    102.0717    200.3869   1.1698024251e+02   2.0553607529e+01    0.5285051    0.4158076  72.38  0.002364981    1.234    0.190
        87 -10.7012    133.6521    197.0272   1.0993671781e+02   1.6094850137e+01    0.3519736    0.2607207  50.41  0.001465604    1.231    0.187
        88  99.0000     31.1368    188.8238   1.3041063792e+02   3.2025022324e+01     0.441757    0.3331211  71.21  0.003131954    1.075    0.070
        89 -10.4651     24.1007    186.9135   1.3167805552e+02   3.3120028303e+01    0.3569764    0.2085951  46.73  0.001628235    1.579    0.367
        90 -10.3266    120.3421    185.1784   1.1097193511e+02   2.0608948590e+01    0.4014925    0.1879106 -46.08  0.001755932    2.477    0.596
        91 -13.4578     30.2729     86.6800   1.1792671680e+02   5.5156068702e+01     1.076477      0.60653 -62.66  0.005813753    1.458    0.314
        92 -13.3221     15.8745     85.5547   1.2253898909e+02   5.6509006126e+01     1.098969    0.7292442 -25.28  0.006626644    1.816    0.449
        93 -13.9725     37.2431    108.2212   1.1965610119e+02   4.9525548621e+01     1.356906    0.8840717 -87.18  0.006741607    1.637    0.389
        94 -11.6906      2.5457    183.5038   1.3569456849e+02   3.5734989040e+01    0.6049545    0.2461681  88.54  0.003289884    2.139    0.533
        95 -12.1617    143.7011    187.0587   1.0624669518e+02   1.6205854475e+01    0.6226614    0.5156482 -65.90  0.002598305    1.385    0.278
        96 -11.3327      6.7903     20.4357   1.0966269994e+02   7.0709935966e+01    0.3271939    0.2829522 -61.13  0.002007638    1.447    0.309
