#   1 NUMBER                 Running object number                                     
#   2 MAG_AUTO               Kron-like elliptical aperture magnitude                    [mag]
#   3 X_IMAGE                Object position along x                                    [pixel]
#   4 Y_IMAGE                Object position along y                                    [pixel]
#   5 X_WORLD                Barycenter position along world x axis                     [deg]
#   6 Y_WORLD                Barycenter position along world y axis                     [deg]
#   7 A_WORLD                Profile RMS along major axis (world units)                 [deg]
#   8 B_WORLD                Profile RMS along minor axis (world units)                 [deg]
#   9 THETA_WORLD            Position angle (CCW/world-x)                               [deg]
#  10 FWHM_WORLD             FWHM assuming a gaussian core                              [deg]
#  11 ELONGATION             A_IMAGE/B_IMAGE                                           
#  12 ELLIPTICITY            1 - B_IMAGE/A_IMAGE                                       
         1 -14.9652      6.3050     71.5774   1.0317018178e+02   6.1510663022e+01     1.138031      0.71073 -48.33  0.004297148    1.273    0.214
         2 -13.3073    120.0160     26.4568   4.6942381991e+01   5.1009452384e+01     1.155523    0.6296561  26.91  0.004987248    2.741    0.635
         3 -14.8182    147.3272     29.2501   4.2724137947e+01   4.4297797105e+01     1.550478    0.8838283  55.48  0.007859323    1.586    0.369
         4 -13.3128    138.0056     21.9489   4.2144070623e+01   4.7301556429e+01    0.8202677    0.3024754  65.73  0.002414479    2.451    0.592
         5 -13.3018    132.2500     32.8781   4.6514214004e+01   4.7424422382e+01    0.5464483    0.5139542   5.81  0.001836936    1.210    0.173
         6 -14.1578    121.9619     37.2503   5.0032246938e+01   4.9280374598e+01     1.315057    0.4992793  41.83   0.00479927    3.072    0.674
         7 -11.8279    232.4506      2.2396   2.7423667023e+01   2.8376809042e+01    0.3634771    0.2067918  67.01  0.001725299    1.798    0.444
         8 -15.5438    218.3924     17.1059   3.1371761506e+01   2.9619385885e+01     2.771196     1.543572 -28.71   0.01545399    2.196    0.545
         9 -13.0723      8.0101      2.7547   7.7896218874e+01   7.3713557365e+01     0.589964    0.3972576  37.23  0.002623021    2.009    0.502
        10 -13.5446      2.8292     10.4909   8.4934479937e+01   7.3132632159e+01    0.7870213    0.4132931 -44.88  0.004806226    1.932    0.482
        11 -16.0210     12.9850     21.3180   8.3874485992e+01   7.0605174118e+01      1.90432      1.03572 -23.25  0.009606546    1.697    0.411
        12 -13.2557     44.4555     32.1549   7.2871344914e+01   6.5172311312e+01    0.6128992    0.5207521  18.33  0.002020939    1.162    0.139
        13 -12.4502     59.9608     16.9567   6.0030985766e+01   6.4604119669e+01    0.5694429    0.4767902 -82.40  0.003156957    2.084    0.520
        14 -13.2435     55.3375     27.2048   6.6223977114e+01   6.4161656971e+01    0.6507955    0.3820353  39.74  0.003575619    1.574    0.365
        15 -14.5528    166.6379     28.9904   3.9723007549e+01   3.9780779111e+01     1.053766    0.8361139  73.36  0.004050242    1.125    0.111
        16 -11.9274     46.3345     20.8656   6.7173776327e+01   6.6438299501e+01    0.3464266    0.2480904  13.99  0.001131283    1.246    0.197
        17 -15.2927     99.0680     11.5706   4.6390328734e+01   5.7227185497e+01     1.511725    0.7610225  56.99  0.004685759    1.656    0.396
        18 -12.4008     70.1170     16.0179   5.6111292604e+01   6.2812243278e+01    0.4149491    0.3249773  56.46  0.002025973    1.395    0.283
        19 -11.1474     75.3091     10.1985   5.2062213741e+01   6.2362484412e+01    0.3460584    0.2619109 -48.78  0.002120015    1.802    0.445
        20 -11.8958     46.7797     13.1327   6.3451764894e+01   6.7289600977e+01    0.2680956    0.2320379  37.64  0.001334473    1.344    0.256
        21 -11.1015    123.3231     11.7347   4.1537769771e+01   5.1727356476e+01    0.1974421    0.1724843 -89.64 0.0003890753    1.184    0.156
        22 -13.9718     41.6287      4.7310   6.1588562862e+01   6.9015218143e+01    0.7093416     0.480058  15.56  0.003369694    1.304    0.233
        23 -11.9086    152.7889      8.6754   3.6148358137e+01   4.5142547182e+01    0.3632386    0.2206346  78.33  0.001302516    1.473    0.321
        24 -14.2731    188.1008     12.7926   3.3172093348e+01   3.6641617947e+01       1.4613    0.6204264 -53.97  0.006932896    2.384    0.581
        25 -10.5815    133.8838      8.5347   3.8789699104e+01   4.9562901602e+01    0.1968608    0.1062635  66.36  0.001018497    1.556    0.357
        26 -14.0113    189.1744     26.2459   3.6213473581e+01   3.4915684847e+01     1.949469    0.6573161 -60.62  0.005751779    5.888    0.830
        27 -12.7430     85.2683     14.3484   5.0900642294e+01   5.9930983041e+01    0.4661642    0.3473352  17.70  0.002684636    1.392    0.282
        28 -11.8504    120.1954      3.7925   3.9534680592e+01   5.3124973240e+01    0.3260097    0.1892164  77.39  0.001616108    1.702    0.412
        29 -11.1369    117.0688      1.4961   3.9322870522e+01   5.4019594482e+01    0.2964832    0.1588124  65.18    0.0010835    1.543    0.352
        30 -11.6695     81.4287      1.5488   4.6830244387e+01   6.1841637762e+01    0.4758515   0.09126876  55.59  0.001732395    3.459    0.711
        31 -11.7174     61.0648      1.6796   5.2819310539e+01   6.5882227170e+01    0.3671286    0.1371569  53.99  0.001631672    2.376    0.579
        32 -14.0495     24.9450     14.0164   7.4065887407e+01   7.0338028275e+01    0.7325645    0.2955036  30.86  0.003419501    2.297    0.565
        33 -12.5470    211.9874     44.4901   3.7832585244e+01   2.7590391733e+01    0.3715953    0.3106678 -31.98   0.00236199    1.420    0.296
        34 -12.6995    107.8369    246.6512   1.0081872167e+02   7.7842348376e+00    0.6784914    0.5122812  87.88  0.003967978    1.656    0.396
        35 -13.5451     97.5218    238.7967   1.0214490201e+02   1.0816692935e+01    0.7554472    0.5824844  44.02  0.004511642    1.131    0.116
        36 -13.8305     91.0212    231.6261   1.0275130209e+02   1.3226207263e+01    0.6144501    0.5094162 -86.71    0.0037206    1.295    0.228
        37 -12.0473     59.9759    246.5173   1.1101233408e+02   1.4352280036e+01    0.2905396    0.2010318  -1.40  0.001512875    2.572    0.611
        38 -12.0495     51.6710    248.9830   1.1292790596e+02   1.4888285009e+01    0.4158213    0.3091934 -75.26  0.002700141    1.415    0.293
        39 -13.2523     28.1992    246.0982   1.1743475445e+02   1.8187947257e+01    0.4862124    0.3264266  69.14  0.002934664    1.255    0.203
        40 -12.5290      2.8602    248.8394   1.2241193630e+02   2.0224275711e+01    0.4364817    0.2501587  81.86  0.002697683    1.479    0.324
        41 -13.5944      9.5569    246.0249   1.2102919061e+02   2.0138171555e+01    0.7580148    0.3843554  60.43  0.003378689    1.611    0.379
        42 -11.0058    102.4705    161.4823   8.9150720670e+01   2.7789834770e+01    0.3280063    0.1503978  35.60  0.001221282    2.203    0.546
        43 -11.8227    248.3596    195.4719   6.3898087459e+01  -3.8787909214e+00    0.4044196    0.1816951 -36.74  0.002016891    1.871    0.465
        44 -11.3359     27.5978    158.7979   1.0995117759e+02   3.8606976736e+01    0.2688379    0.1109508 -66.35  0.001136841    2.045    0.511
        45 -14.0756     74.4408    154.3400   9.5766773285e+01   3.4091554712e+01     0.989347    0.6897408  48.80  0.004479673    1.508    0.337
        46 -12.3306    209.2732    154.5459   6.2696157755e+01   9.2991033596e+00    0.5732748    0.3954929  31.27  0.002932491    1.642    0.391
        47 -11.7495     55.6832    155.9961   1.0151953516e+02   3.6230318130e+01    0.3561035    0.2288672 -17.67  0.001532192    2.384    0.580
        48 -12.0995     85.9755    152.8815   9.2144249994e+01   3.2692409163e+01    0.5818307     0.276363 -44.35  0.002185928    2.265    0.559
        49 -11.8749     12.9522    149.5664   1.1302257621e+02   4.2204342763e+01    0.4800778    0.1960609 -83.59  0.001931962    2.574    0.611
        50 -11.6205    103.1114    150.1296   8.6690914588e+01   3.0499221754e+01    0.4158255    0.2879949 -27.37  0.001794833    1.824    0.452
        51 -12.2670      7.7293    146.3013   1.1415727332e+02   4.3409382795e+01    0.6902581    0.3228857 -59.46  0.003341198    1.790    0.441
        52 -13.0251     59.3832    148.6234   9.9218116741e+01   3.7658204607e+01    0.4337898    0.3050705 -34.89  0.002092405    1.635    0.388
        53 -13.0553     43.6788    135.2834   1.0178200928e+02   4.2997262369e+01    0.8019534    0.5054196 -40.50  0.003794544    1.672    0.402
        54 -12.5283    246.4802    133.7460   5.2293831197e+01   6.6990170433e+00    0.3951125    0.3117163 -62.74   0.00240218    1.427    0.299
        55 -13.8879    233.3963    130.0797   5.3485974815e+01   9.5391972547e+00    0.8937666    0.6834941 -42.09  0.005229657    1.113    0.102
        56 -10.3225     10.9721    134.0299   1.1180854409e+02   4.6265734823e+01    0.1553315    0.1369213 -71.90 0.0005147722    1.050    0.047
        57 -12.1655    135.7623    132.8020   7.3896905901e+01   2.8387732298e+01    0.4414861    0.2334407  45.69  0.001721913    1.947    0.486
        58  -9.8591     64.3109    132.6560   9.4744696819e+01   4.1097917978e+01    0.1529191     0.112629  74.30 0.0001346517    1.702    0.413
        59 -12.6592    120.8872    112.1111   7.2676712291e+01   3.6148577747e+01    0.6069553    0.4809014 -79.32  0.002092479    1.603    0.376
        60 -14.5446    107.5442    121.3342   7.8836384946e+01   3.6695871569e+01     1.715027     1.181994  30.76  0.007674939    1.564    0.361
        61 -13.9233     85.9569    114.1614   8.3643394198e+01   4.2336253630e+01     1.380812     1.010007  28.70   0.00447912    1.448    0.310
        62 -13.3800     95.4579    110.8348   7.9803165298e+01   4.1432732118e+01     1.034171     0.698283 -62.05  0.004181762    1.683    0.406
        63 -12.9300     28.2452    122.3441   1.0461617011e+02   4.7842103514e+01    0.5057414    0.3356672 -56.60  0.002116367    1.296    0.228
        64 -14.8522    106.1230    105.9324   7.5261995003e+01   4.0517983886e+01      1.44641     1.164443 -33.14  0.007136564    1.275    0.216
        65 -10.2303     58.7990    125.3836   9.5051507169e+01   4.3689035727e+01    0.1858435    0.1416393   9.51 0.0004149736    1.537    0.349
        66 -11.6888    181.3411    120.7584   6.0537600852e+01   2.1378777690e+01    0.2738486    0.1861573  61.52  0.001038198    1.724    0.420
        67 -12.8503      4.8608    118.9495   1.1182661513e+02   5.0422250590e+01     0.843954    0.5346984 -52.32  0.003733174    1.366    0.268
        68 -13.2562     49.4994     96.3539   9.1755119557e+01   5.1972008038e+01     1.050401    0.7903821  23.80  0.005650795    1.416    0.294
        69 -12.2229     42.4768     90.8223   9.3022814970e+01   5.4088297337e+01    0.4285466    0.3225243 -16.87  0.001817404    1.400    0.286
        70 -11.8316     34.4810     86.8390   9.5141036968e+01   5.5859453293e+01    0.3726419    0.2885633 -14.79  0.001202589    1.323    0.244
        71 -14.2806     18.2452    111.0658   1.0614429846e+02   5.1477816127e+01     1.020249    0.6675724 -41.46  0.004700743    1.446    0.308
        72 -14.1575     11.4021    103.3378   1.0727853897e+02   5.3843106684e+01    0.8121641    0.7706642 -51.07  0.004897765    1.132    0.117
        73 -13.7073      2.3341     97.2738   1.0958372565e+02   5.5824654868e+01      1.08762    0.3904888 -72.06  0.003766917    2.540    0.606
        74 -14.7255     22.8697     95.2043   1.0152569645e+02   5.4962130740e+01     1.448125     1.008816  15.19  0.008130552    1.609    0.378
        75 -13.3007     29.5773     89.4582   9.7688940595e+01   5.5729919135e+01     1.043294    0.5879661  65.32   0.00406253    3.681    0.728
        76 -12.9103     32.2483    111.8467   1.0138497302e+02   5.0098624249e+01    0.6375513    0.2030377 -51.89    0.0024033    2.527    0.604
        77 -11.9066     63.1863    111.4526   9.0525824557e+01   4.6553024819e+01    0.5790425    0.2937236  49.88  0.002248658    2.596    0.615
        78 -10.9050     46.0170    110.4842   9.6269238157e+01   4.8989931962e+01    0.2989786    0.1687209 -44.23  0.001367319    1.664    0.399
        79 -11.1234    177.4169    109.7910   5.8684042529e+01   2.4384541494e+01    0.2164523    0.1391274 -32.07 0.0009563856    1.684    0.406
        80 -11.7318     33.1648    105.2865   9.9768796407e+01   5.1623126386e+01    0.2992098    0.2469542 -10.91  0.001624214    1.310    0.237
        81 -12.6096    136.1429    103.4531   6.6336156602e+01   3.4762102585e+01     1.077648    0.3707909  50.81  0.003365967    3.179    0.685
        82 -13.6386    120.7686    102.2738   7.0070935564e+01   3.8323733466e+01     1.017483    0.3878595  41.08  0.003410758    2.729    0.634
        83 -12.4216     61.3066     98.1824   8.7918306775e+01   4.9981151100e+01    0.5291591    0.3624823 -82.73  0.002344701    2.233    0.552
        84 -11.9468    249.2478     98.9841   4.4946108414e+01   1.2028664335e+01    0.2965796    0.1391092 -49.17  0.001437495    1.839    0.456
        85 -12.1956    163.3803     98.1665   5.8641589431e+01   2.9745400288e+01     0.385041    0.3108043 -56.25  0.001956536    1.247    0.198
        86 -13.2105    136.4104     95.3908   6.4077060832e+01   3.6351641664e+01    0.5138087    0.3996266  55.32  0.001784216    1.316    0.240
        87 -11.0894    119.0729     96.6607   6.8982539104e+01   3.9869111569e+01    0.2156483    0.1971485  31.02  0.000732307    1.106    0.096
        88 -11.4163     90.0969     87.4944   7.5029012496e+01   4.7606922541e+01    0.4445911    0.2573842  53.75  0.001836311    2.158    0.537
        89 -13.3094    237.9117     80.7543   4.2600276331e+01   1.7002740193e+01    0.4631727    0.3000853  89.41   0.00250992    1.903    0.475
        90 -12.7958    159.8760     68.0865   5.1362015922e+01   3.5914409781e+01    0.8376608    0.3019848 -48.28  0.002286545    3.144    0.682
        91 -13.9116    164.1788     71.7850   5.1540203341e+01   3.4303522483e+01     1.419799    0.5182468  46.70   0.00495594    3.034    0.670
        92 -13.6627    161.8573     79.9802   5.4178406380e+01   3.3443015186e+01     0.812273     0.554688  20.32  0.003490356    2.352    0.575
        93 -14.5968    169.2840     77.2914   5.2035867811e+01   3.2194926548e+01     1.603948    0.5593044  54.00  0.005051394    2.807    0.644
        94 -12.4401     40.2600     68.3774   8.7727629128e+01   5.9255454130e+01    0.8084087    0.3152405  28.31   0.00338028    2.649    0.622
        95 -12.4096     31.5787     62.8815   8.9778139760e+01   6.1337274149e+01    0.6388866    0.3364242 -60.01  0.003021038    2.197    0.545
        96 -12.1419     47.1699     81.7250   8.8803283527e+01   5.5582089198e+01    0.5180848    0.3953591 -46.15  0.002686318    1.208    0.172
        97 -12.2325     42.1617     76.5414   8.9341462021e+01   5.7312577495e+01    0.6783238    0.2547217 -58.12  0.002551196    2.932    0.659
        98 -13.4695     65.8638     49.2660   7.0876528095e+01   5.9120169061e+01    0.8088884    0.6214946 -45.68  0.003154391    1.502    0.334
        99 -14.0332     55.0236     67.0517   8.1278859979e+01   5.7599864610e+01     1.607268    0.9346296 -19.40  0.007136563    2.239    0.553
       100 -13.3898     91.7088     58.0355   6.5105576423e+01   5.2856414450e+01    0.5577138    0.5109048  -4.79  0.002220351    1.078    0.072
       101 -13.2275     54.2174     81.3516   8.5961315803e+01   5.4748785390e+01    0.5651579    0.4190785 -52.83  0.003025949    1.354    0.262
       102 -14.0108     61.0407     75.7680   8.1692740898e+01   5.4958194550e+01     0.768523    0.5152823 -24.58  0.001481018    1.607    0.378
       103 -13.0711     71.3114     75.1335   7.7690318673e+01   5.3467792662e+01    0.6399884    0.4456739   1.50  0.002519255    1.788    0.441
       104 -12.4501     77.2051     73.4568   7.5061362084e+01   5.2795082126e+01    0.5720072    0.3279274 -28.00  0.001991064    2.065    0.516
       105 -13.6021    213.5436     78.8655   4.5306427403e+01   2.2155272424e+01     1.004458    0.5858424  86.03  0.004534816    2.421    0.587
       106 -13.1542    216.6648     73.2431   4.3634079676e+01   2.2401895299e+01    0.7086053    0.4097936 -76.94    0.0032278    2.366    0.577
       107 -14.0702    199.2216     69.9947   4.5287733138e+01   2.6635398546e+01    0.9877096     0.648559  41.12  0.003651467    1.986    0.497
       108 -12.7494    199.9670     62.4939   4.3419019231e+01   2.7629591548e+01    0.4254466    0.3566501 -56.51  0.001735773    1.097    0.088
       109 -12.8281    135.5854     79.8039   5.9888390088e+01   3.9526191598e+01    0.7176902    0.3961046  50.35  0.002246548    1.771    0.435
       110 -11.8503    114.2030     80.1745   6.5543215957e+01   4.4205627867e+01    0.4017539    0.3452663 -60.39  0.001327174    1.294    0.227
       111 -13.1242    188.3018     84.2983   5.0432264109e+01   2.6686319570e+01    0.7699009    0.3634318  43.90  0.002542062    2.613    0.617
       112 -13.8290    170.7505    242.7348   8.6844557692e+01  -7.7270563107e-01    0.9694753    0.6818741  11.31  0.005443587    1.400    0.286
       113 -14.2286      4.9038     63.7517   1.0197652453e+02   6.3283128786e+01     0.636485    0.5538427 -33.57  0.004312065    1.104    0.094
       114 -11.4876     26.9270     74.8088   9.5161779630e+01   5.9274847117e+01     0.617507    0.3224867 -69.08  0.002756837    2.462    0.594
       115 -12.1522    240.7866     70.7385   4.0220680400e+01   1.7993503772e+01    0.3713478    0.2122572 -85.02  0.001842822    2.345    0.574
       116 -13.1204    133.9315     66.2919   5.6324483547e+01   4.2260794888e+01    0.8089197    0.6454868  21.28  0.003393631    1.506    0.336
       117 -12.1124     99.8999     64.1193   6.4631798175e+01   5.0150681624e+01    0.4305241    0.3800397 -17.36  0.002424091    1.163    0.140
       118 -13.2093     78.6128     59.8241   7.0041540436e+01   5.5073873548e+01    0.7347354     0.596503 -52.02  0.004069197    1.458    0.314
       119 -12.9783     82.3829     54.5137   6.6906104771e+01   5.5268629543e+01    0.6521655    0.4620526 -11.89  0.002944993    1.643    0.391
       120 -13.7681    177.8871     57.0366   4.5321396687e+01   3.3433581579e+01    0.9301056    0.6006283 -52.40  0.003321619    1.537    0.349
       121 -14.7103    120.0697     54.6592   5.6063135842e+01   4.7287229568e+01      1.09079    0.6497838  45.05  0.003567708    1.605    0.377
       122 -12.2323    136.2214     49.9468   5.0917730208e+01   4.4250599717e+01    0.3985112    0.2955197  36.85  0.001073942    1.468    0.319
       123 -11.5995     39.0488     60.3828   8.5732365652e+01   6.1004968904e+01    0.2916951    0.2400498  56.72  0.001704951    1.749    0.428
       124 -12.2397     24.9105     59.1929   9.1630004600e+01   6.2739199654e+01    0.5240242    0.2655832 -40.35  0.002137572    1.701    0.412
       125 -11.5491     17.6980     55.6535   9.3886519318e+01   6.4079350210e+01     0.348214    0.1737963 -51.09  0.001804575    1.730    0.422
       126 -12.7033    247.0964     52.4286   3.5938806936e+01   1.9440334626e+01    0.5601434    0.2889457 -58.68  0.003048184    1.750    0.428
       127 -12.1166    248.9938     48.7663   3.5057898399e+01   1.9585998686e+01     0.271543     0.203422 -77.97  0.001282464    1.201    0.167
       128 -11.6967    231.2274     55.5284   3.8121682477e+01   2.2080871233e+01    0.2766528    0.1984197  77.54  0.001700325    1.415    0.293
       129 -14.2885    100.8114     49.5953   5.9491369415e+01   5.2300652760e+01    0.9888018    0.8633479  -7.47  0.005715809    1.205    0.170
       130 -13.4884    158.4162     43.6080   4.4916295550e+01   3.9886377231e+01     1.090327    0.5602075  45.58  0.004845621    2.168    0.539
       131 -12.6411     14.1531    221.9197   1.1874930243e+02   2.4761109141e+01    0.4462654    0.3628554  87.13  0.001684284    1.112    0.101
       132 -13.9112     26.0043    227.0363   1.1660793443e+02   2.2435535622e+01     0.877635    0.3846623 -54.78  0.004176043    2.716    0.632
       133 -13.2597     20.6323    224.6098   1.1756940859e+02   2.3524843118e+01    0.5734794    0.4147282 -54.87  0.002598008    1.672    0.402
       134 -13.8430     65.4681    223.5359   1.0764000313e+02   1.8505570915e+01     1.089324    0.7104969  47.32  0.005981027    1.367    0.268
       135 -13.9953     64.2541    214.8320   1.0699139733e+02   2.0621246506e+01    0.8243899    0.4988951  43.88  0.004269138    1.501    0.334
       136 -12.6873    113.5987     38.1788   5.2263666322e+01   5.1071687042e+01    0.4059195    0.3300987  37.41  0.001337141    1.189    0.159
       137 -13.6211     87.1693     65.3285   6.9021550068e+01   5.2488225326e+01    0.9910561    0.6093023  16.09  0.004197673    2.329    0.571
       138 -11.7039     37.7496     52.3757   8.3608772263e+01   6.2685911194e+01    0.4939344    0.2759138 -10.38  0.002258299    2.413    0.586
       139 -11.0694      5.8709     51.0647   9.8201737119e+01   6.5843583899e+01    0.2426057    0.1722213 -21.42  0.001234115    1.239    0.193
       140 -10.4440     23.5760     50.1890   8.9384238666e+01   6.4625845226e+01    0.2030676     0.148933 -12.57 0.0003887275    1.239    0.193
       141 -10.8405     17.5353     40.8821   8.9139339342e+01   6.6906724410e+01    0.1803147    0.1513303   3.53 0.0004380145    1.201    0.168
       142 -12.8220      3.7685     43.4883   9.7014977160e+01   6.7454222634e+01     0.517261    0.3441467 -18.49  0.003308084    1.332    0.249
       143 -12.4533     11.5871     43.7621   9.3125254531e+01   6.6866329103e+01    0.4946698     0.270133 -28.44  0.001934661    1.643    0.391
       144 -12.4768    147.6445    239.1069   9.1187787235e+01   3.2802617505e+00    0.2844408    0.2122076 -66.72  0.001145461    1.811    0.448
       145 -12.8114     59.4797    212.9831   1.0791066758e+02   2.1667083221e+01    0.3935835    0.2351687 -54.68  0.001107099    1.807    0.447
       146 -12.6576     75.6092     37.3059   6.2854745757e+01   5.9172140193e+01    0.4759018    0.3144637  56.19  0.001138722    1.767    0.434
       147 -11.7242     70.4794     36.4913   6.4319237630e+01   6.0244565122e+01    0.2675202    0.2222049 -32.32 0.0008957097    1.324    0.245
       148 -10.7005     34.9688     34.9992   7.8359143647e+01   6.6027629322e+01    0.2089798    0.1593326 -36.97 0.0007449496    1.367    0.268
       149 -12.9601     94.9898    218.5014   1.0020801479e+02   1.5461863868e+01    0.5506226    0.2606538  32.91  0.002390619    2.013    0.503
       150 -11.1958     85.7642    215.5925   1.0201006712e+02   1.7465044888e+01    0.2037638    0.1126024  44.35  0.000952334    1.659    0.397
       151 -11.6108    185.4956    213.5045   7.8962922261e+01   2.1308676392e+00    0.2296897    0.1295644 -54.56  0.001037314    2.343    0.573
       152 -13.4632    241.6709     36.0086   3.3218708576e+01   2.2659514041e+01    0.6634839    0.3619089  81.96  0.002428085    1.866    0.464
       153 -12.5144     24.8017    217.2420   1.1615811836e+02   2.4729494686e+01    0.6589445    0.2904951  49.74  0.003253547    2.002    0.501
       154 -12.0620      4.3557    211.0958   1.2014362000e+02   2.8075778582e+01    0.4402982    0.2196345 -79.44  0.002396692    1.736    0.424
       155 -10.6480    136.5145    211.0668   8.9356248189e+01   1.0512478495e+01    0.2054217    0.1407921 -52.36  0.001002485    1.569    0.363
       156 -12.0738     63.8059     25.0837   6.2103415263e+01   6.2960496077e+01    0.4793049    0.2587919  25.76  0.002045559    2.034    0.508
       157 -12.0313    245.5695     30.7306   3.1891677032e+01   2.2577001185e+01    0.3208836     0.190592 -43.53  0.001995701    1.488    0.328
       158 -11.9439     72.5021    207.3030   1.0415585129e+02   2.1244106314e+01    0.3860728    0.2993242  86.30  0.002143516    1.316    0.240
       159 -10.9437     98.4659     27.1451   5.2203064721e+01   5.5769427256e+01    0.2658391    0.1751123  59.64  0.001178969    1.463    0.316
       160 -11.1534     88.7215     25.9193   5.4396482569e+01   5.7987814202e+01    0.2836576    0.1745015 -23.64  0.001304226    1.809    0.447
       161 -11.4648     30.8310     25.7768   7.6477515311e+01   6.7964089099e+01    0.3487611    0.1666327  21.12  0.001552958    2.212    0.548
       162 -10.9283     36.0971     23.5742   7.2980031089e+01   6.7586206238e+01    0.2773408    0.1845112 -26.10  0.001704272    1.420    0.296
       163 -12.2157     41.2408    206.9489   1.1157798630e+02   2.5294745968e+01    0.3103176    0.1891204  87.26  0.001523281    1.654    0.396
       164 -11.0025     51.5112     20.5613   6.4882822966e+01   6.5642206673e+01    0.2724818    0.1490583  37.60   0.00123182    1.620    0.383
       165 -11.2757    202.5295     21.5725   3.3745172062e+01   3.2493063037e+01     0.221962    0.1842264 -75.19  0.001205822    1.036    0.035
       166 -10.6098    150.5061    207.1804   8.5483807955e+01   9.0038110633e+00     0.264242    0.1748554  20.00  0.001259156    1.647    0.393
       167 -13.4954     15.2418    197.8647   1.1684134532e+02   3.0137839944e+01     0.907672    0.3954751 -65.18  0.004397681    2.062    0.515
       168 -12.7498     57.5794    202.8772   1.0725721530e+02   2.4272991275e+01    0.7122873      0.31232 -74.99  0.002929816    2.495    0.599
       169 -13.1700     40.2115    195.1254   1.1066169310e+02   2.8225969680e+01    0.4959704    0.2760231  84.23    0.0021596    1.978    0.494
       170 -12.6220     36.6679    195.1574   1.1152944608e+02   2.8613572655e+01    0.3644139    0.2176759 -87.87  0.001850179    1.647    0.393
       171 -13.8799     30.2969    168.9900   1.1039562957e+02   3.5759667961e+01    0.9895597    0.7004924 -26.95  0.003472262    1.892    0.472
       172 -13.5765    218.9250     41.7004   3.6487546230e+01   2.6496096388e+01    0.5588328    0.3731003  67.19  0.002050959    1.515    0.340
       173 -13.8214     22.3126    181.2338   1.1373306408e+02   3.3481995062e+01     1.045633    0.4439787 -57.48  0.004502814    2.218    0.549
       174 -15.1674      8.3158    183.5220   1.1736663656e+02   3.4167178934e+01     1.484783      1.02355 -77.91   0.00891659    1.237    0.192
       175 -12.4322    164.3771    196.1088   8.0364836359e+01   8.9272196084e+00    0.4060981    0.2857822 -86.75  0.001708513    2.773    0.639
       176 -11.8481    200.9713    191.8398   7.1813415622e+01   3.6623570985e+00    0.3682869    0.2615182 -21.58  0.001371534    1.398    0.285
       177 -11.1539     79.7262    192.8632   1.0046013071e+02   2.3649987994e+01    0.4013914    0.1201003  41.08  0.001359463    3.038    0.671
       178 -15.1919     15.9045    175.7359   1.1483919503e+02   3.5419659957e+01      2.48537     1.195335  71.37   0.01105853    2.375    0.579
       179 -12.1198     49.0291    181.9749   1.0696134283e+02   3.0432948295e+01    0.4239522    0.2783173 -48.46   0.00213995    1.659    0.397
       180 -11.4739    104.4848     37.3897   5.4272173106e+01   5.3206066656e+01    0.2623564    0.1335611 -31.76   0.00120214    2.139    0.533
       181 -12.3321    197.9539    180.8333   7.0268212259e+01   6.2273545306e+00    0.5196174    0.3753879 -72.08  0.002428314    2.332    0.571
       182 -12.1400     90.7986    182.6032   9.6039757103e+01   2.4478068794e+01    0.2206506    0.1273005  44.78 0.0009584037    1.713    0.416
       183 -12.9607    124.2462    166.8345   8.4385619371e+01   2.2613421185e+01     0.659995    0.4352087 -70.92  0.002784889    1.958    0.489
