#   1 NUMBER                 Running object number                                     
#   2 MAG_AUTO               Kron-like elliptical aperture magnitude                    [mag]
#   3 X_IMAGE                Object position along x                                    [pixel]
#   4 Y_IMAGE                Object position along y                                    [pixel]
#   5 X_WORLD                Barycenter position along world x axis                     [deg]
#   6 Y_WORLD                Barycenter position along world y axis                     [deg]
#   7 A_WORLD                Profile RMS along major axis (world units)                 [deg]
#   8 B_WORLD                Profile RMS along minor axis (world units)                 [deg]
#   9 THETA_WORLD            Position angle (CCW/world-x)                               [deg]
#  10 FWHM_WORLD             FWHM assuming a gaussian core                              [deg]
#  11 ELONGATION             A_IMAGE/B_IMAGE                                           
#  12 ELLIPTICITY            1 - B_IMAGE/A_IMAGE                                       
         1 -13.7924    195.9279     41.4886   4.7386635446e+01   3.0884276741e+01     1.432807     1.144975   7.89  0.004082264    1.647    0.393
         2 -14.1018    204.8267     35.3075   4.4564686783e+01   2.9501494176e+01     1.548337     1.218274  -9.24  0.005954257    1.609    0.379
         3 -14.1782    219.8172     19.8536   3.9039710581e+01   2.7784525236e+01     1.519786     1.114224  40.93  0.008562291    1.756    0.430
         4  -9.1669    134.1985     11.8300   4.8121476023e+01   4.9835731388e+01    0.1911919    0.1718819 -85.85 0.0004097557    1.216    0.177
         5 -11.4100      2.3342      5.3511   9.3839422292e+01   7.3734012728e+01    0.5040079    0.1241779 -49.84  0.002065762    3.959    0.747
         6 -11.4187    242.7458      1.8484   3.3120299341e+01   2.4590217509e+01    0.5331377    0.1733165  75.27  0.002091764    2.900    0.655
         7 -10.1516     57.0096      1.7518   6.4389339269e+01   6.7400042073e+01    0.1698299    0.1548284  16.18 0.0007475968    1.296    0.229
         8 -10.4367     47.9196      2.2197   6.8288537794e+01   6.8861648410e+01    0.1698379    0.1449573  11.94 0.0004347429    1.203    0.169
         9 -10.1842     63.1382    201.2125   1.1487465394e+02   2.4878375145e+01    0.2276506    0.1692724 -79.65 0.0004497839    1.273    0.214
        10 -11.2164    139.6664    249.7824   1.0481250004e+02   4.3314022294e+00    0.2389231    0.1970321  37.19  0.001628427    1.061    0.058
        11 -14.5480     49.4186    220.4347   1.1945364728e+02   2.2612841368e+01     2.167867     1.550658  69.86   0.01440987    1.148    0.129
        12 -14.4349     85.9567    228.6505   1.1297838847e+02   1.6147862957e+01     2.649838     1.336401  43.27  0.009278559    1.664    0.399
        13 -13.6947     24.7505    225.1632   1.2444002972e+02   2.4469661792e+01      1.04434    0.4662783  50.15  0.006105111    1.794    0.443
        14 -15.5016      5.3051    156.4785   1.2367943752e+02   4.0988122004e+01     4.826463       1.3109 -76.11   0.01980674    2.942    0.660
        15 -15.1261     46.7130    196.3066   1.1791561672e+02   2.7988952838e+01     2.294544     1.276148  61.72   0.01034094    1.698    0.411
        16  -9.8475    111.9933    197.3047   1.0354797008e+02   1.8421249209e+01    0.1965713    0.1659609  50.11  0.000608117    1.075    0.070
        17 -10.0908     63.8294    197.6085   1.1434363842e+02   2.5567354042e+01    0.2450916    0.1775703  80.16  0.000810202    1.285    0.222
        18 -10.1949    146.8058    183.0139   9.3231905756e+01   1.5221611473e+01     0.265543    0.2009501  41.61  0.001097534    1.237    0.192
        19  -9.8509     99.6046    180.8291   1.0393762417e+02   2.4041093706e+01     0.223776    0.1859105  33.22 0.0005800819    1.281    0.219
        20 -12.1685     64.6853    178.3899   1.1192094652e+02   2.9765066111e+01    0.4082127    0.3043491 -40.83  0.001337258    1.722    0.419
        21 -12.0121     69.4020    173.0266   1.1009274306e+02   3.0374000631e+01    0.3123778    0.2663864 -40.41 0.0007458805    1.434    0.303
        22 -11.6216     42.0596    177.4221   1.1709347649e+02   3.2751700352e+01    0.4547693    0.3486097  -2.58  0.001470763    2.077    0.518
        23 -11.0389    140.2046    172.6848   9.2820679231e+01   1.8631442107e+01    0.5420014    0.3086126  59.50  0.002146769    2.359    0.576
        24 -13.4713     57.6907    130.3161   1.0661725396e+02   4.2231998766e+01     2.686171    0.8644904 -72.42  0.006769809    6.146    0.837
        25 -12.7298     85.5269    156.8219   1.0355757831e+02   3.1869737281e+01     1.133408    0.7109352 -55.69  0.001466003    1.541    0.351
        26 -14.5351     68.3917    144.3245   1.0601735440e+02   3.7399213752e+01     5.061601     2.180583  61.91   0.01476068    5.135    0.805
        27 -10.5908    209.8510    199.6167   8.3018845334e+01   6.9444669651e-01    0.2644719    0.2092715 -49.46 0.0005550203    1.647    0.393
        28 -14.0582     32.4186    247.1460   1.2437306657e+02   1.9514512790e+01     1.040537    0.9087276  26.62  0.006373202    1.713    0.416
        29 -11.4180    193.3555    195.1235   8.5449222092e+01   4.3176996616e+00    0.8347086    0.4561492 -63.47  0.002599484    5.644    0.823
        30 -10.9839     33.2974    156.1683   1.1689751590e+02   3.8648142254e+01    0.2872782    0.2363182  78.83 0.0008504035    1.107    0.097
        31 -12.1934     78.6708    163.4252   1.0639669001e+02   3.1324437651e+01    0.5867896    0.4058963  67.95 0.0003332827    1.576    0.366
        32  -9.8921    174.9151    149.1358   7.9798778443e+01   1.6572047448e+01    0.2324707    0.2143541  81.55 0.0006205345    1.280    0.219
        33 -10.9844    133.4503    142.1098   8.8098655957e+01   2.6737116162e+01    0.8106101    0.2416869 -54.61  0.002105268    4.609    0.783
        34 -11.4686     54.8680    146.5064   1.1003765010e+02   3.8607385255e+01    0.5744139    0.1656485 -61.80  0.002068506    2.899    0.655
        35 -10.3118     99.4806    142.5155   9.7165076642e+01   3.3033120111e+01    0.2996687    0.2654927  67.12 0.0009283473    1.163    0.140
        36 -10.0384    102.2031    139.2219   9.5741343149e+01   3.3349745631e+01    0.3806871    0.2696747 -12.67  0.001248742    2.186    0.543
        37 -12.3018     87.6550    141.3121   1.0016596748e+02   3.5284375796e+01    0.2917318    0.2480457 -51.01 0.0003476588    1.164    0.141
        38 -10.4489     81.5817    141.5028   1.0188084557e+02   3.6184148357e+01    0.2998638    0.2258723  65.59 0.0006236279    1.472    0.321
        39  -9.9879     29.6634    136.9764   1.1553243820e+02   4.3599616702e+01    0.2011168    0.1647933  66.03 0.0006702072    1.255    0.203
        40 -10.1762    110.1333    131.2949   9.1820315466e+01   3.3801293331e+01    0.3441358    0.2645155 -19.87 0.0009511478    1.644    0.392
        41 -10.1840    105.9947    131.0041   9.2900742986e+01   3.4634631557e+01    0.3493831    0.3172295  76.12  0.001135278    1.170    0.146
        42 -11.1767     33.9609    130.6493   1.1348293646e+02   4.4734782535e+01    0.4295537    0.2393978 -78.27  0.001780231    1.693    0.409
        43 -10.8620    136.0000    128.5663   8.4247699758e+01   2.9277336619e+01    0.5609565    0.1097219 -49.41  0.001225588    5.964    0.832
        44  -9.9805    160.5275    128.5022   7.8166607863e+01   2.3975649044e+01    0.1570749    0.1524911  -6.44 0.0008099956    1.015    0.015
        45 -10.6658     97.5291    127.3513   9.4463194339e+01   3.7018715196e+01     0.321997    0.2626504 -18.60   0.00128964    1.479    0.324
        46 -13.6017     66.2237    159.3018   1.0895269180e+02   3.4058211861e+01    0.6017866    0.4807554 -49.59  0.002127679    1.350    0.259
        47 -15.6753     66.8181    247.6342   1.1833426339e+02   1.5263528198e+01     9.925863     3.074776  29.09  0.009548918   10.992    0.909
        48  -9.9627    107.0483    119.8615   8.9979439879e+01   3.7078574110e+01    0.2183129    0.2124171 -38.52 0.0003193467    1.023    0.023
        49 -10.3299    116.4977    125.3068   8.8656267015e+01   3.3992044816e+01    0.3070766    0.2566608 -29.25  0.001474774    1.287    0.223
        50  -9.7420    168.2972    113.1577   7.2421282270e+01   2.5403018306e+01    0.2916932    0.2131641  84.31   0.00120964    2.033    0.508
        51 -15.0005      9.5839    207.9177   1.2623574259e+02   2.9419434299e+01     1.870618     1.091437 -57.09   0.01168409    2.096    0.523
        52 -10.0116    205.5474    110.1641   6.4001969025e+01   1.7427271984e+01    0.3120354     0.218263  41.13 0.0009930794    1.532    0.347
        53  -9.0847    113.6885    110.3514   8.5658021021e+01   3.8000210501e+01    0.1593071    0.1246542 -89.10 0.0007045172    1.723    0.419
        54 -10.6542     33.3813    109.2984   1.1028337694e+02   4.9971630395e+01    0.2858728    0.1812534  85.86 0.0009805404    1.932    0.482
        55 -10.2291    134.5901    105.2389   7.8517451850e+01   3.4740525636e+01    0.4097187     0.151975 -41.15  0.001311347    2.713    0.631
        56 -10.6004     40.5552    102.6611   1.0672811257e+02   5.0886059049e+01    0.5437723    0.1821602  47.44   0.00176012    4.885    0.795
        57 -11.2970    242.4852    102.3182   5.6004018303e+01   1.0859999260e+01    0.2989595    0.1817538 -66.61  0.001270863    2.554    0.608
        58  -9.0501    130.4673     96.5096   7.7141709596e+01   3.7512219209e+01    0.2891625    0.1443938 -52.82  0.001023932    2.361    0.577
        59  -9.2290     33.0162     96.9704   1.0811162426e+02   5.2954135640e+01    0.1976719    0.1480426  81.36  0.000711819    1.614    0.380
        60  -9.7918     11.2932     92.8010   1.1468206051e+02   5.5548751019e+01    0.1831686    0.1597062  45.56 0.0006803705    1.406    0.289
        61 -10.5624     53.0543     90.7866   9.9846394191e+01   5.2329473644e+01    0.3159532     0.173592 -51.09  0.001356839    1.559    0.359
        62 -10.3173     41.7818     91.9922   1.0405483002e+02   5.3292312367e+01    0.2010856    0.1896798 -18.57 0.0004505018    1.160    0.138
        63 -10.0438    250.0262     88.0062   5.1655074153e+01   1.1616007363e+01    0.1670586    0.1433076 -41.70 0.0004989182    1.011    0.011
        64  -9.0037    156.5397     88.5145   6.8273345962e+01   3.3068712364e+01    0.1577606    0.1510836 -71.16 0.0008073155    1.098    0.089
        65 -11.7053      2.2399     78.2759   1.1540003501e+02   5.9362556999e+01    0.7188042   0.08410879 -67.81  0.002087109    5.540    0.820
        66  -9.8578    112.2842     81.8590   7.7845856446e+01   4.4474336079e+01    0.3578788    0.2483567  72.34  0.001479074    2.254    0.556
        67  -9.4474    159.5194     81.4935   6.5535015803e+01   3.3664377902e+01    0.1537136    0.1529501  -3.02 0.0002022809    1.002    0.002
        68  -9.1003     98.0065     70.5134   7.8542779590e+01   4.9631497395e+01    0.1964489     0.133087  68.27 0.0008085694    2.407    0.585
        69  -9.1824     49.9585     63.4474   9.3347158240e+01   5.8735843313e+01    0.1672186    0.1110012  54.77 0.0006211281    2.352    0.575
        70 -10.4282     13.5283     59.8171   1.0717409590e+02   6.2828312563e+01    0.2136842    0.1794308 -45.96 0.0003987418    1.084    0.078
        71  -8.7881     98.5306     57.4922   7.3874427256e+01   5.1947715557e+01    0.1448971    0.1356833  -1.61 0.0008095283    1.039    0.038
        72 -15.8412      9.2605    239.6397   1.2789262486e+02   2.3304925117e+01     2.752181     1.304114 -71.71   0.01763486    2.058    0.514
        73 -10.8199    170.9107    233.1790   9.6446375260e+01   1.9375329554e+00    0.2505947    0.1830041 -57.92  0.000718367    1.881    0.468
        74 -12.7132    213.3066     26.8637   4.1422715975e+01   2.8500340431e+01    0.6169718    0.4013933  55.13  0.001095901    1.622    0.384
        75 -13.4124      5.3776    189.1801   1.2595093772e+02   3.3714393160e+01     1.545111     0.720422 -50.84  0.007986238    2.924    0.658
        76 -10.9295    139.0541     44.7698   5.8503909518e+01   4.4756334593e+01    0.3537377    0.2764939 -78.08 0.0005438068    1.637    0.389
        77 -10.2992    143.0280     40.2550   5.6123948738e+01   4.4399366708e+01    0.2459171     0.210305 -43.62  0.000405492    1.251    0.201
        78  -9.3203      8.1650     39.3479   1.0388421956e+02   6.7352945534e+01    0.1395888    0.1023937  21.49 0.0004650229    1.649    0.394
        79 -13.1858     37.9286    205.9506   1.2057529182e+02   2.6933578650e+01    0.3955756    0.3648129 -70.26  0.001282832    1.378    0.274
        80  -9.9875    189.6500     15.0798   4.1019915158e+01   3.5602951762e+01    0.1795665    0.1699762 -56.82  0.000654579    1.134    0.119
        81  -8.9997    130.5411    213.0783   1.0178154436e+02   1.2157563980e+01    0.1732443    0.1336697 -58.59  0.000381789    1.470    0.320
        82  -9.4167    113.1910    207.7776   1.0477717248e+02   1.6074122495e+01    0.2006525    0.1620853  67.11 0.0007168358    1.228    0.186
        83  -9.0123    115.6896    203.3616   1.0360500265e+02   1.6556467039e+01    0.1427722     0.097784  70.95 0.0007040839    1.746    0.427
        84 -10.2578     66.6157    195.8080   1.1353445008e+02   2.5590220629e+01    0.3068545    0.2235008  78.42   0.00135683    1.291    0.225
