#   1 NUMBER                 Running object number                                     
#   2 MAG_AUTO               Kron-like elliptical aperture magnitude                    [mag]
#   3 X_IMAGE                Object position along x                                    [pixel]
#   4 Y_IMAGE                Object position along y                                    [pixel]
#   5 X_WORLD                Barycenter position along world x axis                     [deg]
#   6 Y_WORLD                Barycenter position along world y axis                     [deg]
#   7 A_WORLD                Profile RMS along major axis (world units)                 [deg]
#   8 B_WORLD                Profile RMS along minor axis (world units)                 [deg]
#   9 THETA_WORLD            Position angle (CCW/world-x)                               [deg]
#  10 FWHM_WORLD             FWHM assuming a gaussian core                              [deg]
#  11 ELONGATION             A_IMAGE/B_IMAGE                                           
#  12 ELLIPTICITY            1 - B_IMAGE/A_IMAGE                                       
         1 -11.4778     80.5232     23.3611   9.7144183091e+01   6.1550388533e+01    0.6233654    0.3154056  32.48 0.0005416691    2.310    0.567
         2  -9.1209     27.7059     22.5947   1.2200005429e+02   6.9852121968e+01    0.7336211    0.2635293 -33.69  0.002602537    3.592    0.722
         3 -10.2749    145.7280     21.8684   7.9181273122e+01   4.6215824359e+01    0.3704442    0.2556137  -2.46  0.000226627    1.571    0.363
         4  -8.9542     46.1713     20.9248   1.1103377620e+02   6.7961891825e+01    0.4197219    0.1830178 -34.50  0.001246797    2.227    0.551
         5  -9.1829    120.9403     15.7741   8.1707525434e+01   5.3253354817e+01    0.5755869    0.2679421  22.11   0.00184054    3.574    0.720
         6  -8.8228    125.1934     10.3562   7.8412213763e+01   5.2761043315e+01    0.2707369    0.1991355  25.76 0.0002970499    1.375    0.272
         7 -10.0602    134.1101     13.3456   7.7934112811e+01   5.0156998022e+01    0.5759179    0.2546628  44.55  0.002214467    2.234    0.552
         8  -9.4459     79.3856     12.8408   9.2125360242e+01   6.3345501690e+01    0.3863556    0.2816801  53.19  0.001147317    1.528    0.345
         9  -9.4355     64.0163     14.5456   9.9123301907e+01   6.6144987815e+01    0.4042357    0.2453683  15.28  0.001789516    2.094    0.522
        10  -8.7787     96.9565     12.4901   8.6282833215e+01   5.9474746078e+01     0.379185    0.2363646  12.73 0.0007445057    1.877    0.467
        11  -8.0458    112.6657     11.8123   8.1829563758e+01   5.5766023155e+01     0.300101    0.1359443 -10.74  0.001083725    2.667    0.625
        12  -9.0552     70.1917      9.2485   9.3582889258e+01   6.5732349760e+01    0.5618414    0.2649229  49.83  0.002274071    2.230    0.552
        13  -9.3157     74.4011     13.7413   9.4456504380e+01   6.4251385056e+01    0.4750808    0.2795914   0.24  0.001799404    2.263    0.558
        14  -8.0005     34.0019      9.6867   1.1171822327e+02   7.1700745789e+01    0.2717135    0.1903528 -29.66  0.001565989    1.195    0.163
        15  -9.5730     32.2166      6.0299   1.1062902077e+02   7.2587567062e+01    0.2992963    0.2017335 -16.17 0.0002714611    1.436    0.303
        16  -8.9838    155.8978      7.4045   7.2001953113e+01   4.5043302524e+01    0.3391191    0.1879948 -16.11  0.001433379    1.831    0.454
        17  -9.2006     40.5525      6.6667   1.0609366171e+02   7.1326521682e+01    0.4268267    0.2628159  -1.17  0.001650473    2.030    0.507
        18  -9.6620     46.7041      6.3118   1.0252672737e+02   7.0435178504e+01    0.2700445    0.2136963 -27.45 0.0004663242    1.164    0.141
        19 -10.7293      7.5742      5.2300   1.2720041649e+02   7.5150392215e+01    0.7210565    0.3190255   2.33   0.00070883    3.005    0.667
        20  -8.2694      3.1900      1.5353   1.2876447139e+02   7.6184461904e+01    0.2090348    0.1531475 -17.86 0.0008205977    1.325    0.245
        21  -8.4667    100.8223      6.1618   8.2039270189e+01   5.9274371876e+01    0.3079401    0.2081807 -16.80  0.001270246    1.442    0.307
        22  -9.4218     76.6805      6.0054   8.9300117256e+01   6.4808211970e+01    0.4315029    0.2843539 -30.84  0.002189361    1.497    0.332
        23  -8.3858    130.6120      6.1898   7.5564239020e+01   5.1770290293e+01    0.1990949    0.1332581   2.15 0.0004002651    1.601    0.375
        24  -8.9768    105.5164      1.8378   7.8718625043e+01   5.8554947603e+01    0.3898666    0.1491499  52.48   0.00150455    2.283    0.562
        25  -9.2851    111.2446      4.5888   7.8750844391e+01   5.6868596201e+01    0.2718574    0.2078854  23.62 0.0007859411    1.269    0.212
        26  -8.0039     91.0191      5.0375   8.4151465431e+01   6.1717095111e+01    0.2407771    0.1479496  27.34 0.0005468499    1.683    0.406
        27  -8.7639    119.1744      6.8520   7.8089243812e+01   5.4647699750e+01     0.281548    0.2147842   8.80 0.0003646801    1.323    0.244
        28  -7.7638    134.5346      3.2113   7.3615929260e+01   5.1015839509e+01    0.1936109    0.1338924   6.73 0.0009245935    1.541    0.351
        29  -8.5612     85.0783      2.9207   8.4778084380e+01   6.3311242180e+01    0.2423777    0.1474243  23.07 0.0008737718    1.743    0.426
        30  -7.9465     56.6077      3.2059   9.5708630302e+01   6.9179117195e+01    0.2441029    0.1716706   4.05  0.001307529    1.418    0.295
        31  -8.4711    143.1414      2.1875   7.1832797180e+01   4.8846580284e+01    0.2305616    0.1975367  -5.95 0.0003043026    1.173    0.147
        32  -7.5869    130.2025     97.1780   1.0854748862e+02   3.7271059339e+01     0.323488    0.1076346  37.91 0.0009865096    3.460    0.711
        33  -9.3046    205.6938    249.1853   1.2081631984e+02   1.7740681957e+00     0.171492    0.1466555  29.79  0.001454041    1.562    0.360
        34 -10.1306    189.9408    249.3182   1.2340227678e+02   3.6857488368e+00    0.3365869    0.1596081  36.88  0.002164052    1.648    0.393
        35  -9.4404     16.0068     94.9956   1.4416671660e+02   5.3485525761e+01    0.2764216     0.187384 -78.96 0.0004441934    1.232    0.189
        36 -10.1970     12.4926     93.4970   1.4517505118e+02   5.4062779776e+01    0.4643094    0.2481388 -32.00  0.001813792    2.433    0.589
        37  -8.6660    239.0159     93.5189   8.6072489893e+01   1.5200398511e+01    0.1662757    0.1219596 -82.28 0.0008103108    2.574    0.611
        38  -8.3884     44.5723     91.9615   1.3396137827e+02   5.1893086645e+01    0.2748927     0.169514  -9.89  0.001275534    2.480    0.597
        39  -7.5308     83.2641     93.5903   1.2133258779e+02   4.6532769532e+01     0.192338    0.1405681  20.33 0.0008038003    1.597    0.374
        40  -7.9008    109.7915     91.0285   1.1251410140e+02   4.2539770801e+01    0.2879196    0.1980132   6.51  0.001229441    2.102    0.524
        41  -7.9971     96.4367     90.4554   1.1637517439e+02   4.5082346973e+01    0.3631928    0.2171119   3.56  0.001234436    3.638    0.725
        42 -10.1488     37.0953     81.4890   1.3467946640e+02   5.5177091457e+01    0.7523991    0.3769139 -27.42  0.003079807    3.079    0.675
        43  -8.0256     66.0364     84.9716   1.2498493092e+02   5.1058056844e+01    0.2303588    0.1613748 -27.19  0.001130656    1.699    0.411
        44  -8.9280      2.2451     84.1713   1.4773077080e+02   5.6845550906e+01    0.3836427    0.1137964 -66.85  0.001660326    2.421    0.587
        45  -9.6863      7.7963     77.7119   1.4502807283e+02   5.8155505598e+01    0.5053294    0.1838405 -47.43  0.002020316    2.627    0.619
        46  -8.0389    238.6705     84.6603   8.3924652706e+01   1.6386903928e+01    0.1432127   0.09327815  10.67 0.0007051714    1.739    0.425
        47  -7.1221    127.3290     83.3432   1.0534991208e+02   4.0638060276e+01    0.1615463    0.1180642   0.31 0.0005288156    1.747    0.427
        48  -8.7323     88.7857     78.8234   1.1556974221e+02   4.9004112096e+01    0.5038635    0.2813309  15.09  0.001793816    3.248    0.692
        49  -8.0523    184.3005     78.0447   9.0811117013e+01   2.8856239136e+01    0.2156572    0.1824679 -25.34 0.0005059176    1.110    0.099
        50  -8.7624     48.7761     77.2060   1.2940227152e+02   5.5044419762e+01    0.2896135    0.1937451 -11.55  0.001417697    2.041    0.510
        51  -9.6194     28.3693     69.3156   1.3566878432e+02   5.8907185088e+01    0.4768471    0.1872736 -40.55  0.001913059    2.841    0.648
        52  -8.9951     24.3229     73.0001   1.3798417234e+02   5.8309957596e+01    0.4555826    0.1255224 -50.83  0.001715134    2.969    0.663
        53  -8.0928     23.4912     69.4849   1.3767362362e+02   5.9232610289e+01    0.2382917    0.1648346 -80.96  7.32407e-06    1.369    0.270
        54  -8.2125     74.9665     74.0680   1.1892985448e+02   5.2327531759e+01    0.2128024    0.1964745 -36.71 0.0003495284    1.025    0.024
        55  -7.9824    105.7498     67.5672   1.0657164250e+02   4.8261539840e+01    0.2397381    0.1772565   3.90  0.001091638    1.706    0.414
        56  -8.5783     83.6476     64.3522   1.1281590384e+02   5.3084396410e+01    0.4595605     0.288952 -11.16   0.00182089    2.574    0.611
        57  -8.7623     17.8161     62.4286   1.3870477951e+02   6.1340429840e+01    0.4614737    0.1769601 -38.14  0.001888943    2.973    0.664
        58  -9.8240     61.5372     61.5608   1.2020933504e+02   5.7167675492e+01    0.7465364     0.318775  23.63  0.002683964    3.298    0.697
        59  -7.4640    123.1945     61.2257   9.9287401700e+01   4.5785976281e+01    0.2675018     0.163212  10.48 0.0009517752    2.793    0.642
        60  -9.8717     36.8844     59.3686   1.2981496542e+02   6.0579640235e+01     0.442495    0.2833216 -39.48  0.002325121    1.502    0.334
        61  -8.4217     98.1550     55.7933   1.0484714260e+02   5.2147806069e+01    0.7581549    0.3031466 -31.12  0.002431944    3.158    0.683
        62  -7.9168    111.3130     58.1283   1.0158627710e+02   4.8965177008e+01    0.2502031    0.1985244  28.57 0.0005810615    1.316    0.240
        63  -7.4159     49.5485     58.5557   1.2418635530e+02   5.9411543265e+01    0.1394616    0.1208451 -45.76 0.0001719512    1.004    0.004
        64  -8.6607    197.0791     54.9906   8.1811955304e+01   2.9206417439e+01     0.213611    0.1914452 -14.94  0.001185457    1.019    0.019
        65  -9.8039     75.1983     50.1010   1.1087385979e+02   5.7575100153e+01    0.3243405    0.2912622  -4.17 0.0002839873    1.112    0.100
        66  -9.5234     45.4199     49.1091   1.2301392434e+02   6.2085329276e+01    0.4196628    0.2699245 -27.04  0.001355331    1.716    0.417
        67  -7.9496    106.3443     48.8429   9.9608833669e+01   5.1758610961e+01     0.306598    0.1898168  19.94  0.001224651    2.230    0.552
        68  -7.8987    118.3533     51.1560   9.6972794531e+01   4.8685794737e+01    0.2501414    0.1934298  34.82 0.0005886484    1.322    0.243
        69  -9.2798     57.1547     41.7759   1.1509442714e+02   6.2176490117e+01    0.4755183     0.251787 -22.31  0.001686442    2.922    0.658
        70  -9.6485     11.4351     46.6324   1.3841154688e+02   6.5538223521e+01    0.6623755    0.2709274 -33.92  0.002903688    2.731    0.634
        71  -9.4630      6.7810     47.6551   1.4086553802e+02   6.5518554469e+01    0.7305775     0.304645  52.92  0.002700935    3.719    0.731
        72  -8.2238    113.7169     42.0491   9.4738172579e+01   5.1296821821e+01    0.3862821    0.2262037  13.75  0.001389646    2.800    0.643
        73  -8.0159    250.7075     40.4802   7.1355790156e+01   1.9138397721e+01    0.2166024   0.09926804 -24.11 0.0001625751    1.827    0.453
        74  -7.1362    123.7091     39.6900   9.1089541012e+01   4.9333378845e+01    0.1570034     0.113565  14.75 0.0006998132    1.583    0.368
        75  -9.6426     92.5575     38.4555   9.9821801126e+01   5.6540841154e+01    0.3768748    0.3041739  29.13  0.001047782    1.262    0.208
        76  -8.9327     87.7630     37.9960   1.0128539165e+02   5.7600515185e+01    0.3179994    0.2408914 -31.65 0.0006655608    1.227    0.185
        77  -9.4022      6.5690     33.9801   1.3797562395e+02   6.8785109635e+01    0.3830221    0.2353309 -48.10   0.00201265    1.320    0.242
        78  -9.5459     69.6687     36.0951   1.0736838693e+02   6.1343091645e+01     0.736972     0.402294  15.10  0.002688421    3.274    0.695
        79  -9.2541     38.2719     35.6838   1.2164334685e+02   6.5914948402e+01     0.475273    0.2746233  -2.06  0.001682799    2.518    0.603
        80  -9.6021     21.9275     33.1019   1.2930090003e+02   6.8041422885e+01    0.4784344    0.2986406 -76.51  0.001056682    1.909    0.476
        81  -8.6068     18.9834     35.9852   1.3180861912e+02   6.7596088869e+01    0.1972505    0.1562247 -50.57  0.001228327    1.012    0.012
        82  -8.7734     56.1886     35.3282   1.1287771304e+02   6.3662822802e+01    0.3910975    0.2506209   1.82 0.0009019731    2.156    0.536
        83  -9.2849      1.9397     28.5106   1.3921253245e+02   7.0258330029e+01    0.5128881    0.1515488 -69.10  0.002105278    2.653    0.623
        84  -7.7787    192.4855     28.5353   7.4326738521e+01   3.3540282550e+01    0.1419896    0.1340379  -8.57 1.515091e-05    1.027    0.027
        85  -9.1094     61.6792     27.1022   1.0665605502e+02   6.4403274902e+01    0.2796037    0.1890552  -2.53 0.0005657976    1.815    0.449
        86  -9.8003     70.3239     25.9893   1.0241644809e+02   6.3086775222e+01    0.3712468    0.3075404  32.88  0.001474828    1.273    0.214
        87  -9.7267    170.2524    248.7211   1.2662085274e+02   6.1875581392e+00    0.2706643    0.1657123  11.63  0.001845261    1.738    0.425
        88  -9.2325     70.9335    244.2702   1.4347976336e+02   1.8531983510e+01    0.1542647    0.1298019  53.66 0.0001955959    1.150    0.130
        89  -8.4477     32.5591     20.4770   1.1823213373e+02   6.9781836257e+01    0.2202757    0.1293774  21.16 0.0005922955    1.936    0.483
        90  -7.8978    102.2993     25.3146   9.0868311739e+01   5.6524628973e+01     0.154813    0.1080278  15.49  0.000345184    1.610    0.379
        91  -8.8317    180.0255    239.0002   1.2381600689e+02   6.0204095095e+00    0.1666036    0.1028117  12.28 0.0005283066    1.610    0.379
        92  -9.3524     42.1349     27.3332   1.1618789436e+02   6.7234808509e+01    0.3451944    0.2150725 -43.64 0.0008755587    1.371    0.270
        93  -8.4468    151.7539    249.9958   1.2990420139e+02   8.3388460374e+00    0.1062935   0.08872696 -35.04  0.000883525    1.587    0.370
        94  -8.3619    140.4616     20.0124   7.9438660678e+01   4.7787715301e+01    0.2668848    0.1869883  42.90 0.0003102201    1.401    0.286
        95  -8.5342     93.1045     19.9910   9.1167393537e+01   5.9369332900e+01    0.2761818     0.190501 -17.28  0.001341419    1.414    0.293
        96  -8.6929      9.8011     19.4134   1.3165619549e+02   7.1958331389e+01    0.3142444    0.1774876 -31.05  0.001169131    1.686    0.407
        97  -8.6806      4.8107     19.0306   1.3472124042e+02   7.2310048441e+01    0.2496631    0.1188544 -49.69 0.0006611607    1.558    0.358
        98  -7.9802    112.0323     19.3025   8.5432820254e+01   5.5033808135e+01    0.2009286    0.1811996  32.37 0.0002522128    1.075    0.070
        99  -9.4587    188.0612    234.2812   1.2184708000e+02   5.5047294331e+00    0.1736391    0.1545328 -11.57  0.001134258    1.430    0.301
       100  -8.1258      5.7893    234.1329   1.5413416644e+02   2.6120342870e+01    0.1407093    0.1099277  42.33 0.0003613562    1.289    0.224
       101  -8.1879    127.6268     16.8874   8.0729750270e+01   5.1434482782e+01    0.2402882    0.1877311  40.97 0.0003795441    1.234    0.189
       102  -7.5757    137.4412    229.5320   1.3026269656e+02   1.2697634134e+01    0.1097445   0.08496267  31.54  8.97825e-05    1.012    0.012
       103  -7.1172     62.7177    228.7261   1.4397433772e+02   2.1720770674e+01   0.08541682   0.07571824   9.87            0    1.501    0.334
       104  -8.5575     48.4578    223.4485   1.4626925189e+02   2.4015868643e+01    0.1651994    0.1530652  33.84 0.0004998111    1.344    0.256
       105  -7.8501    128.9037     22.6842   8.2899285391e+01   5.0423923282e+01     0.266049    0.1347067  26.52 0.0008924672    2.733    0.634
       106  -8.2542    105.0065     14.0338   8.4808553876e+01   5.7380859770e+01    0.2481863    0.1605392  21.08  0.001100204    1.703    0.413
       107  -7.3046     45.5036    210.5330   1.4608764967e+02   2.6454423222e+01    0.1029968    0.0840319  55.16 0.0001483933    1.063    0.059
       108  -7.9880     11.3513    207.3354   1.5238557544e+02   3.0058475240e+01   0.08780611   0.07315247 -43.82 0.0007045948    1.787    0.440
       109  -9.8014    190.5658    189.4970   1.1480808181e+02   1.0580782714e+01    0.2204376    0.1842856  10.19 0.0003398419    1.086    0.079
       110  -9.1785     67.3588    144.9449   1.3532004728e+02   3.6929795676e+01     0.422275    0.2671584  65.17  0.002231959    1.759    0.431
       111  -8.9043    134.9757    137.1304   1.1682456867e+02   2.8375634647e+01    0.2294167     0.196826 -28.01  0.001299062    1.194    0.163
       112  -7.4698     55.6077    135.1762   1.3717670755e+02   4.0470444795e+01    0.1810895    0.1053212 -57.90 0.0007788011    1.661    0.398
       113  -7.7123     41.0514    129.2921   1.4047280590e+02   4.3320442957e+01    0.1820102   0.09747891  -8.60 0.0007027809    4.151    0.759
       114  -7.2918    199.4223    125.4615   1.0034678656e+02   1.8322145013e+01    0.1417186    0.1197251  -0.24 8.925443e-05    1.025    0.025
       115  -7.6280    132.0087    122.2366   1.1433313327e+02   3.1853787378e+01    0.1936958    0.1795725  30.37            0    1.067    0.063
       116 -10.6010    245.1268    116.4378   9.0625471084e+01   1.1201686289e+01    0.2998856    0.2425236  27.09 0.0004639663    1.285    0.222
       117  -7.3401    100.3547    118.3026   1.2184585089e+02   3.8204420068e+01    0.1447095    0.1098759 -12.34 0.0005673347    1.708    0.415
       118  -7.1828     38.7566    109.9879   1.3873272532e+02   4.8084588399e+01     0.169529   0.09715655 -70.49 0.0008659782    1.539    0.350
       119  -8.8196      2.3977    109.4812   1.4974910067e+02   5.0811980277e+01    0.2896716    0.1212749 -47.13   0.00138485    2.722    0.633
       120  -8.0883    133.6867    106.5163   1.1011173149e+02   3.4695836011e+01    0.3023267    0.2170623 -12.57  0.001101324    1.729    0.422
       121  -7.7170    124.0097    107.1702   1.1280169162e+02   3.6432162752e+01    0.2430662    0.1666804  11.21 0.0007050427    1.991    0.498
       122  -7.5176    108.8081    106.7545   1.1686514481e+02   3.9309608656e+01    0.2423584    0.1552601 -10.30 0.0009415087    2.703    0.630
       123  -7.1295     75.7474    107.6173   1.2682955938e+02   4.4364229795e+01    0.1440285    0.0988135 -35.55 0.0006959275    1.662    0.398
       124  -8.7688     14.0441    105.5184   1.4589795581e+02   5.1078267364e+01    0.2432785    0.1353364 -59.40  0.001341945    1.617    0.381
       125  -7.9165    190.7063    103.8193   9.6673271338e+01   2.3416034982e+01    0.2399795    0.1692413  -8.44  0.001005571    1.481    0.325
       126 -10.0500    248.1165     97.3868   8.5751341605e+01   1.3032161080e+01     0.316276    0.1925705 -23.60  0.001295335    1.367    0.268
       127  -7.7428     95.0542    103.0000   1.1995708289e+02   4.2493263855e+01    0.2361375   0.08225583  36.84 0.0008074063    2.977    0.664
