#   1 NUMBER                 Running object number                                     
#   2 MAG_AUTO               Kron-like elliptical aperture magnitude                    [mag]
#   3 X_IMAGE                Object position along x                                    [pixel]
#   4 Y_IMAGE                Object position along y                                    [pixel]
#   5 X_WORLD                Barycenter position along world x axis                     [deg]
#   6 Y_WORLD                Barycenter position along world y axis                     [deg]
#   7 A_WORLD                Profile RMS along major axis (world units)                 [deg]
#   8 B_WORLD                Profile RMS along minor axis (world units)                 [deg]
#   9 THETA_WORLD            Position angle (CCW/world-x)                               [deg]
#  10 FWHM_WORLD             FWHM assuming a gaussian core                              [deg]
#  11 ELONGATION             A_IMAGE/B_IMAGE                                           
#  12 ELLIPTICITY            1 - B_IMAGE/A_IMAGE                                       
         1  -8.6691     19.5374     19.7431   8.5717209628e+01   7.0410412850e+01    0.3185913    0.1324682 -41.24  0.001642225    2.112    0.526
         2  -9.4673    246.6285     15.8638   3.2681315012e+01   2.3200560026e+01    0.2279661    0.2039081  13.16  0.001587183    1.775    0.437
         3  -8.7744    146.1124     14.2198   4.2905452031e+01   4.6578594624e+01    0.1901863    0.1872214  45.39 0.0003606408    1.145    0.126
         4 -10.2847    244.4044     10.7481   3.1815815210e+01   2.4237377273e+01    0.3749298    0.2622386  21.37  0.002031857    3.085    0.676
         5  -8.8948     80.3748     12.7432   5.6771624278e+01   6.1783492147e+01    0.2823336    0.1674349 -44.31  0.001107199    2.277    0.561
         6  -8.1751     49.3722     11.6736   6.7378428544e+01   6.7580929140e+01    0.1631315    0.1549746 -74.60  0.001118594    1.737    0.424
         7  -9.1706    250.1310     10.6266   3.1408976596e+01   2.3094617086e+01    0.2120844    0.1551137 -38.08  0.001049358    1.451    0.311
         8  -8.1017     15.8354     10.7891   8.3504665009e+01   7.2117381841e+01    0.1350148    0.1144432  -7.76  0.000214052    1.265    0.209
         9  -7.9661     96.1287      9.8012   5.1219087787e+01   5.8725978112e+01     0.179031    0.1291646  31.25  0.000447841    1.303    0.232
        10  -8.1223    227.4872      9.4500   3.2765081664e+01   2.7931191778e+01    0.1211493   0.09798627 -75.32 0.0001012589    1.032    0.031
        11  -8.3949     72.6560      8.3446   5.7225024641e+01   6.3751487794e+01    0.2524217    0.1336006   7.55 0.0008288177    2.547    0.607
        12  -8.0495     40.9810      7.9543   6.9172496323e+01   6.9314225052e+01    0.1415858    0.1104834   8.64 0.0003228673    1.004    0.004
        13  -7.7375     36.3196      8.2802   7.1504571866e+01   6.9957078638e+01    0.1213601   0.07497022   8.13  0.000191597    1.582    0.368
        14  -9.1635    236.6554      6.6669   3.1525064399e+01   2.6287996305e+01    0.1673412    0.1348554  47.14   0.00111269    1.754    0.430
        15  -9.5505     14.3080      3.3011   8.0497051450e+01   7.3300849212e+01    0.4200219     0.195257 -21.93  0.002275976    2.149    0.535
        16  -7.9624     18.0138      2.7350   7.8059071383e+01   7.2970458052e+01    0.1951893    0.1148682  21.29 0.0003629032    1.533    0.347
        17  -8.7926     77.5874      4.4404   5.3963656379e+01   6.3120021206e+01    0.2474366    0.1725297  58.66  0.001465123    1.457    0.314
        18  -8.6718    105.7414      3.7350   4.6644043713e+01   5.7089535799e+01    0.2106002    0.1656782  -4.16  0.001297297    1.428    0.300
        19  -7.4143     34.6624      4.7162   7.0429839462e+01   7.0606719266e+01    0.1219915   0.07328632  10.17 0.0004253352    1.627    0.385
        20  -8.2845     59.9822      2.7486   5.8869320316e+01   6.6669734614e+01    0.1688621    0.1275217  32.86  0.001096938    1.103    0.093
        21  -7.6480     51.8166      3.1438   6.2125164392e+01   6.8077594214e+01    0.1631552    0.1107928  19.89 0.0002983953    1.275    0.215
        22  -8.0663     56.1290      5.0997   6.1439202614e+01   6.7139568460e+01    0.2226242    0.1604728 -54.39  0.001252402    2.477    0.596
        23  -8.8695    250.1130      3.8189   3.0093402720e+01   2.3850581417e+01    0.2923044    0.1324442 -37.89  0.001624728    1.986    0.496
        24  -7.9583     67.9791      1.7542   5.5685233260e+01   6.5253181067e+01    0.1747992    0.1333971  37.43 0.0004589774    1.095    0.087
        25  -8.7114     40.3003      1.6932   6.6203325275e+01   7.0096819389e+01    0.3848373    0.1392483  41.38  0.001850939    2.449    0.592
        26  -7.7015    116.4522      1.4528   4.3691064946e+01   5.4797402147e+01    0.1280742    0.1087076  56.95 0.0001043313    1.007    0.007
        27  -7.5229     27.7035      1.7343   7.2274797602e+01   7.1901160446e+01     0.114725   0.07050619   6.67 0.0001699448    1.513    0.339
        28  -8.2271    204.8761    234.4590   8.4918592939e+01  -4.3997841675e+00    0.1843463    0.1066125  29.75 0.0005176796    1.524    0.344
        29  -8.5177    248.8612    233.1582   7.6676255866e+01  -1.0206484835e+01    0.2315775    0.1177852 -22.41 0.0006689517    1.869    0.465
        30  -8.8182    250.0034    229.0491   7.5775805697e+01  -9.8117194911e+00    0.2379187    0.1276378   7.77   0.00124901    2.141    0.533
        31  -9.3193    248.3021    237.7855   7.7555014678e+01  -1.0732456359e+01    0.3875454    0.1980053 -17.34  0.002120282    2.008    0.502
        32  -9.9200    243.8952    235.0719   7.7860779983e+01  -9.8309616120e+00    0.2775894    0.1446817  -0.21 0.0008582995    2.485    0.598
        33  -8.7643    245.3540    242.9669   7.8926424888e+01  -1.1024259846e+01    0.2910539    0.1386623  24.95  0.001607147    1.924    0.480
        34  -8.3467    250.8050    243.0441   7.8002049490e+01  -1.1696155670e+01    0.2751911   0.09240681 -33.08  0.001311829    2.816    0.645
        35 -11.0566    246.5065    248.2423   7.9590423805e+01  -1.1816417863e+01    0.8871849    0.3551348  31.58  0.004703222    2.255    0.557
        36 -10.6594    237.8784    245.0404   8.0573495962e+01  -1.0355050941e+01    0.6229936    0.2233271 -33.54  0.003010455    2.750    0.636
        37  -9.2871    226.4355    250.4848   8.3492298719e+01  -9.5863014474e+00    0.4295814    0.1118635  33.90  0.001743363    3.409    0.707
        38  -7.9684    197.4735    250.5282   8.8880838255e+01  -5.6530439877e+00    0.1226138   0.09741141  15.70 8.390417e-05    1.002    0.002
        39  -9.1186    202.3956    249.3239   8.7760574438e+01  -6.1801257834e+00    0.3416814    0.1801857  21.83  0.001221355    1.827    0.453
        40  -8.6621    206.6800    245.0373   8.6280513314e+01  -6.1846343695e+00    0.2932001    0.1641135  18.66 0.0009152071    1.761    0.432
        41  -8.0274    210.4814    242.0278   8.5083318103e+01  -6.2969682193e+00    0.2240791    0.1330473 -19.83 0.0007881629    1.813    0.448
        42 -10.1983    217.3455    249.2227   8.4950256903e+01  -8.2223248330e+00    0.6091463    0.2470182  22.64  0.002672655    2.869    0.651
        43  -9.6002    212.8520    245.9109   8.5259389558e+01  -7.1650741672e+00    0.4593554    0.2210553  14.61  0.002056957    2.813    0.644
        44  -8.8646    201.5357    240.2572   8.6501589412e+01  -4.7661322217e+00    0.3823841    0.2102277 -10.71  0.001772369    2.657    0.624
        45  -9.1119    169.6995    250.4591   9.4277034576e+01  -1.5810377396e+00    0.4911253    0.1211695  37.34  0.001792858    3.351    0.702
        46  -8.8886    175.8352    249.5744   9.2937894674e+01  -2.3631187065e+00    0.3619692    0.1995531  15.25  0.001743185    2.308    0.567
        47  -9.1841    186.8564    239.6259   8.9263035808e+01  -2.5006177818e+00    0.2889896    0.1968634 -26.94   0.00079881    1.586    0.370
        48 -10.3638    193.9804    246.7935   8.8981157381e+01  -4.6202502486e+00     1.309976    0.4211186 -35.27  0.005218184    3.853    0.740
        49 -10.4871    183.6762    248.5477   9.1248048222e+01  -3.3712146986e+00    0.7816519    0.4077158  15.58  0.003553802    2.544    0.607
        50  -9.8574    183.3721    236.5238   8.9469015940e+01  -1.4897575380e+00    0.7014256     0.302837 -28.69  0.002800567    3.512    0.715
        51  -9.4571    171.7760    245.5287   9.3153185052e+01  -1.1325322362e+00    0.3265902    0.2190578  -7.83   0.00124412    1.906    0.475
        52  -9.8632    176.6463    244.1013   9.1971550840e+01  -1.6485614840e+00    0.3910921    0.2650217   6.01  0.001757458    1.675    0.403
        53  -9.8217    189.8341    235.2082   8.7975556252e+01  -2.2694036177e+00    0.5938103    0.3169172   7.28  0.002415567    3.270    0.694
        54  -9.8071    188.6116    230.9913   8.7537290003e+01  -1.4201906588e+00    0.7745326    0.4048235  14.23  0.003279284    2.813    0.645
        55 -10.1353    163.3584    247.5925   9.5134340066e+01  -1.7738655143e-01    0.6699935    0.3728734  10.80  0.002943449    2.923    0.658
        56  -9.5339    152.6145    250.3375   9.7669633429e+01   1.0201364286e+00    0.5702662    0.1247262  36.34  0.001904139    3.897    0.743
        57  -9.9494    157.1023    245.5250   9.6104194722e+01   1.1120815375e+00    0.4543539    0.2997881 -18.91  0.001901777    2.074    0.518
        58  -9.9116    162.5031    240.7791   9.4328602939e+01   1.0521374437e+00    0.4016931     0.200184 -37.89  0.001945083    2.405    0.584
        59 -10.2963    170.8208    233.4115   9.1520942899e+01   9.6535375396e-01    0.5209303    0.3423193   8.77  0.002714452    1.839    0.456
        60  -9.6060    172.2939    238.4150   9.1988604699e+01  -8.3687717536e-02    0.3193369    0.1983684  12.12  0.001622863    1.950    0.487
        61  -9.2131    144.1568    248.9760   9.9194666978e+01   2.5329137418e+00    0.3427548    0.2319435 -13.20  0.001824803    2.225    0.551
        62  -7.3679    132.6913    250.7127   1.0173614337e+02   3.9899849115e+00    0.1188576   0.09116905   9.31  0.000402953    1.574    0.365
        63  -8.9583     25.9896    250.0000   1.2244512434e+02   1.8523323765e+01    0.1931836    0.1344078  42.85 0.0007382518    1.385    0.278
        64  -9.6961     22.6509    248.3065   1.2295122148e+02   1.9208284749e+01    0.2161133   0.09552936  48.29 0.0009390693    1.733    0.423
        65 -10.0896      4.4667    249.3230   1.2618240476e+02   2.0882354643e+01    0.3375069    0.1736827  65.68  0.002197573    1.477    0.323
        66  -7.7173    130.8051    234.4110   1.0002399769e+02   7.1581796126e+00    0.1862939    0.1132278  27.51 0.0006451963    1.676    0.403
        67  -8.2875    153.6494    232.6597   9.4963024685e+01   3.8269709099e+00     0.241374    0.1411413  26.80  0.001132647    1.695    0.410
        68  -7.7470    140.2631    233.3527   9.7878646256e+01   5.8469183413e+00    0.1256744   0.09807541  -6.36 0.0004192112    1.618    0.382
        69  -7.9597    229.5145    232.4977   7.9982519367e+01  -7.5975681559e+00    0.1236637   0.09603195   2.49 0.0005733058    1.023    0.023
        70  -8.3081    166.4952    231.9693   9.2187162207e+01   1.8926510418e+00    0.1742402    0.1279491 -38.64 0.0006857913    1.517    0.341
        71  -7.9961    218.0314    230.7295   8.1798950014e+01  -5.7522254567e+00    0.1730174    0.1352746  11.44  0.000474831    1.061    0.058
        72  -8.1405    213.7958    231.1960   8.2674311567e+01  -5.2141110294e+00    0.1736401    0.1234266   2.06 0.0005350135    1.318    0.241
        73  -7.5927    134.6404    231.7016   9.8839933063e+01   7.0472935625e+00    0.1318618    0.0988622   5.04 0.0003087413    1.710    0.415
        74  -8.2568    202.9025    229.2367   8.4432132281e+01  -3.3203956034e+00    0.2373688    0.1449755 -10.57  0.001211022    1.986    0.496
        75  -9.1542      5.1713    229.3861   1.2515095165e+02   2.4705642733e+01    0.2830255   0.08640622  55.43  0.001352284    2.624    0.619
        76  -9.5034    168.8340    241.8271   9.3199000495e+01  -9.7746397604e-02    0.3074967    0.1919163  18.99  0.001545218    1.683    0.406
        77  -8.3477    152.0507    227.9282   9.4592155282e+01   4.9241772117e+00    0.2040504    0.1752586  20.15 0.0006044832    1.104    0.094
        78  -8.3566    184.7919    226.1346   8.7508031461e+01  -3.8675842233e-02    0.2186377    0.1650573 -25.85  0.000631761    1.380    0.275
        79  -9.0902    244.7570    225.7689   7.6113130093e+01  -8.7007129405e+00    0.2304545    0.1820507 -16.39  0.001582297    1.174    0.148
        80  -9.2359    248.9983    223.9209   7.5056809426e+01  -8.9986721393e+00    0.3293167    0.2106824   5.00  0.002009912    1.467    0.319
        81  -8.0255    211.9966    225.2233   8.1998803448e+01  -4.0624597922e+00    0.2663568    0.1392387 -15.19  0.001170417    2.722    0.633
        82  -8.4730    190.7228    223.9877   8.5953801961e+01  -6.2155735198e-01    0.3396073    0.1416456 -35.27  0.001447064    2.692    0.628
        83  -8.3382    167.9559    224.8471   9.0762654281e+01   2.8808306856e+00    0.2063947    0.1612342  10.26 0.0004857087    1.302    0.232
        84  -8.0000    127.1386    224.8551   9.9499853715e+01   9.5485693538e+00    0.1778244    0.1523115  13.53 0.0005375627    1.295    0.228
        85  -8.0479    200.5127    223.4331   8.3915105403e+01  -2.0542578152e+00    0.2341777    0.1103433 -29.28  0.001040003    2.470    0.595
        86  -7.6898    138.9879    227.5247   9.7318978314e+01   7.1213976045e+00    0.1742269    0.1105631  13.03 0.0004773728    2.208    0.547
        87  -7.6087    162.2618    224.3458   9.1877955932e+01   3.8979597068e+00    0.1313258   0.09787285  -5.34  0.000327628    1.601    0.375
        88  -8.0362    206.9521    222.1148   8.2431445592e+01  -2.8299794053e+00    0.2036399    0.1346921   3.11 0.0006473967    1.636    0.389
        89  -7.9875    175.0102    221.8923   8.8811677424e+01   2.2457110159e+00     0.208438    0.1488344  -2.42 0.0006951498    1.646    0.392
        90  -8.1089    147.6064    221.6529   9.4586039018e+01   6.8043155616e+00    0.1999388    0.1528804  -3.16 0.0006487375    1.622    0.383
        91  -7.4161    229.6571    221.6840   7.8086704735e+01  -6.0836044725e+00    0.1319437   0.08222906   0.26 0.0007048324    1.712    0.416
        92  -8.9785    223.0866    220.5837   7.9101408503e+01  -4.9859995296e+00    0.3652464    0.1856755  14.65  0.001131031    2.623    0.619
        93  -7.6130    115.6469    221.6549   1.0157594112e+02   1.2026887711e+01    0.1345048    0.1045093  -6.55 0.0007038779    1.820    0.451
        94  -8.7800      8.4434    220.6930   1.2408977308e+02   2.6182063208e+01    0.2210193   0.09277257 -85.88  0.001150432    2.108    0.526
        95  -8.2944    242.3803    220.1848   7.5547010565e+01  -7.6152601255e+00    0.2037028     0.135715  13.32 0.0006935466    1.377    0.274
        96  -8.2235    194.9762    218.3044   8.4127980971e+01  -3.6121449498e-01    0.2343862    0.1630538  -8.88 0.0008221071    1.580    0.367
        97  -7.9938    164.0292    218.3486   9.0535640257e+01   4.6822769495e+00    0.3048611    0.1721202 -10.91  0.001076539    3.996    0.750
        98  -7.8507    185.1760    218.6232   8.6166041715e+01   1.1555822271e+00    0.1915681    0.1124369  25.86 0.0005920579    1.672    0.402
        99  -8.4845    204.5186    216.0410   8.1840569778e+01  -1.4922716117e+00    0.2794472    0.1758426   0.06  0.001257077    1.947    0.486
       100  -7.7623    170.8332    217.3609   8.8930690662e+01   3.7282932267e+00    0.1847626    0.1152286  27.42 0.0004793754    1.542    0.352
       101  -7.7324    211.4026    215.7698   8.0455945935e+01  -2.5110311700e+00    0.1785885    0.1103406 -24.60 0.0009408272    1.635    0.388
       102  -7.9477    151.0114    216.3359   9.3012271763e+01   7.2373447785e+00    0.1934675    0.1584847  29.12 0.0004651617    1.116    0.104
       103  -8.0509    179.8598    215.4244   8.6712614490e+01   2.5759205721e+00     0.190799    0.1161386  23.81 0.0005677142    1.677    0.404
       104  -7.9657    136.8583    215.3707   9.5971857922e+01   9.8039974738e+00    0.2021756    0.1208939  27.27 0.0007027733    1.767    0.434
       105  -7.5549    219.5441    214.4803   7.8676062860e+01  -3.5391138429e+00    0.1299416    0.1065647   0.12 7.072611e-05    1.018    0.017
       106  -8.6469    234.0235    213.4565   7.5826141081e+01  -5.4926053675e+00    0.1698948    0.1106028  27.14 0.0003793849    1.462    0.316
       107  -8.8153    246.8558    211.4154   7.3194340594e+01  -6.9731058373e+00    0.3015593    0.1520263  -6.99  0.001274995    3.142    0.682
       108  -8.0420    143.8696    215.1674   9.4390759742e+01   8.6650185141e+00    0.1838394     0.152723  11.90 0.0003793572    1.292    0.226
       109  -7.8982    176.6401    212.1614   8.6820889095e+01   3.6894118494e+00    0.1871679     0.120747 -30.85 0.0006559489    1.692    0.409
       110  -8.4173    248.8340    214.8975   7.3483477583e+01  -7.7323435386e+00    0.1840668    0.1313862  -4.63 0.0005363869    1.197    0.165
       111  -8.3257    170.1730    210.8626   8.7964955153e+01   5.0159399177e+00    0.2141407    0.1558171  -5.07 0.0008051741    1.650    0.394
       112  -7.2865    213.3274    210.2932   7.9098683803e+01  -1.9346751830e+00    0.1351514   0.09048039   1.28 0.0003564442    1.624    0.384
       113  -7.6212    199.4617    209.5061   8.1669549572e+01   3.8758035362e-01    0.1369316    0.1139608   3.06 0.0001598166    1.081    0.075
       114  -7.4908    188.5507    208.9596   8.3780075441e+01   2.2685145459e+00    0.1858815    0.1083116 -17.74 0.0005743633    2.354    0.575
       115  -7.9256    146.9975    208.6929   9.2653981436e+01   9.4010763383e+00    0.2003712    0.1664289  33.36 0.0006332814    1.104    0.094
       116  -7.5979    236.6749    208.6982   7.4483311841e+01  -5.1608524423e+00    0.1308144   0.08397909  -1.51 0.0007030176    1.637    0.389
       117  -7.9556    203.8609    208.1675   8.0552965373e+01  -9.5755804138e-02    0.1869615    0.1414577  -0.76 0.0004498463    1.302    0.232
       118  -8.3895    163.0991    207.3495   8.8881002261e+01   6.8835006264e+00    0.2748071    0.1790955 -21.19  0.001286732    2.001    0.500
       119  -7.8220    177.1540    207.6301   8.5916555029e+01   4.4213879029e+00    0.1950455    0.1192226  26.85 0.0008014365    1.636    0.389
       120  -8.6923    248.0906    205.7142   7.1938361356e+01  -6.3161889743e+00    0.2378365    0.1502602 -21.77 0.0008787602    1.389    0.280
       121  -8.1746     12.3197    206.3134   1.2247978143e+02   2.8894146853e+01    0.1089214   0.08363488 -54.19 0.0007038056    1.651    0.394
       122  -7.8900    139.8193    205.1547   9.3683602815e+01   1.1350677501e+01    0.1895922    0.1618029   2.48 0.0005563371    1.321    0.243
       123  -7.9659    175.4901    202.4606   8.5341968101e+01   5.6604886777e+00    0.1410415    0.1249614  10.27 5.031153e-05    1.048    0.046
       124  -8.8507    250.1082    199.4719   7.0434592272e+01  -5.6756953343e+00     0.370166    0.1488182 -29.82  0.001660451    2.377    0.579
       125  -8.9127    243.7427    197.9845   7.1244561452e+01  -4.5541986141e+00    0.3746085    0.1480742 -33.38  0.001672605    2.313    0.568
       126  -7.7633    199.3716    200.2275   7.9975900457e+01   1.9936698358e+00    0.1740987    0.1253505 -45.58 0.0004201735    1.546    0.353
       127  -8.0892    193.5058    200.0406   8.1129251414e+01   3.0118635189e+00    0.2004136    0.1289822 -34.90 0.0007112277    1.557    0.358
       128  -7.9605    238.2416    198.7946   7.2359756678e+01  -3.8809030672e+00    0.1819259       0.1278  -8.00  0.000987399    1.351    0.260
       129  -9.0461    230.2845    198.2126   7.3675625428e+01  -2.6038120948e+00    0.3149108    0.1835776  11.92 0.0009928107    2.137    0.532
       130  -7.9748    210.4429    198.7453   7.7508091994e+01   4.2620476255e-01    0.1948301    0.1163195 -26.11  0.000953184    1.718    0.418
       131  -8.2391    151.1032    198.2091   8.9943434581e+01   1.0785720750e+01    0.2184269    0.1833638  13.92 0.0004842385    1.244    0.196
       132  -8.1229    224.9068    196.0132   7.4242610217e+01  -1.4232980772e+00    0.2132148    0.1401359  -6.09 0.0007724474    1.687    0.407
       133  -7.7233    190.6884    196.6689   8.1073024545e+01   4.0990769689e+00    0.1447853    0.1019384  -2.64 0.0007043302    1.673    0.402
       134  -8.5346    202.8671    195.0504   7.8293390623e+01   2.3148154792e+00    0.2585647    0.1633459   8.93 0.0008443579    2.010    0.502
       135  -7.9613    180.9543    195.0059   8.2797181588e+01   6.1036901199e+00    0.2238417    0.1615484  -5.37 0.0006792065    1.649    0.393
       136  -8.6167    237.2770    192.7141   7.1371285968e+01  -2.7877505210e+00    0.3163943    0.1286403 -30.24  0.001331073    2.489    0.598
       137  -7.7048    195.5214    194.4759   7.9663559744e+01   3.6649314318e+00    0.1408992    0.1226058   0.91 0.0001032858    1.049    0.047
       138  -7.4435    145.2849    194.3316   9.0584672763e+01   1.2624555099e+01    0.1440032    0.1116743  -9.06 0.0003054153    1.616    0.381
       139  -8.0959    162.0000    191.5316   8.6277657403e+01   1.0179253728e+01     0.305355   0.08220724 -47.44 0.0009283124    3.883    0.742
       140  -8.1223    214.8144    190.9165   7.5158173860e+01   1.0441701056e+00    0.2231778    0.1371937 -14.16 0.0009714889    1.953    0.488
       141  -8.1127    232.5471    190.0336   7.1695743628e+01  -1.6385078600e+00    0.1974645    0.1146043 -33.19 0.0006491902    1.560    0.359
       142  -8.0038    224.4576    189.6904   7.3103288025e+01  -3.1159963334e-01    0.2237608    0.1464945  11.05 0.0009804907    1.737    0.424
       143  -8.0791    191.7513    189.2394   7.9424483503e+01   5.2779192190e+00    0.1952959    0.1527913  -3.04 0.0004933674    1.342    0.255
       144  -7.6045    199.5200    188.5213   7.7696794947e+01   4.0512883769e+00    0.1425946    0.1228312  -2.08 0.0008088576    1.075    0.070
       145  -8.1098    173.0164    187.9708   8.3163584329e+01   8.8844512069e+00    0.2281586    0.1682616  -1.83 0.0006791908    1.648    0.393
       146  -8.6540    238.0582    185.6929   6.9871647415e+01  -1.7857856025e+00      0.34248     0.175188 -23.05  0.001562421    2.153    0.535
       147  -7.6596    210.5316    187.4792   7.5310346853e+01   2.3528753623e+00    0.1384782    0.1207618  -5.95 0.0001339041    1.011    0.011
       148  -8.8688    230.3216    184.7820   7.1068055953e+01  -4.3013198280e-01    0.2359173    0.1958271   8.00 0.0004855941    1.139    0.122
       149  -8.8053    243.4115    188.0968   6.9410732488e+01  -2.9762035060e+00    0.3893779     0.193309 -23.08   0.00165621    2.204    0.546
       150  -9.0107    249.7880    182.7798   6.7298392842e+01  -3.0850056335e+00    0.3099855    0.1738623 -15.81 0.0007878806    2.064    0.516
       151  -7.2534    177.3398    183.3197   8.1312122243e+01   9.0101677517e+00    0.1519554    0.1100172  -1.10 0.0007049844    1.714    0.417
       152  -8.2030    211.7867    181.7300   7.3921975586e+01   3.1538312725e+00    0.2161402    0.1597725  10.66 0.0006644173    1.437    0.304
       153  -8.9828    182.5275    180.4953   7.9630820690e+01   8.6086028793e+00    0.3883248    0.1267767 -36.84  0.001204466    3.679    0.728
       154  -9.4105    242.3074    177.4671   6.7513425719e+01  -1.1096874807e+00    0.5601936    0.2004539 -33.06  0.002216373    2.684    0.627
       155  -7.6036    204.7808    179.9978   7.4943635366e+01   4.6823330637e+00    0.1817616    0.1082816 -38.63 0.0005166429    1.612    0.380
       156  -8.0389    199.5517    180.2750   7.6046037969e+01   5.5577823161e+00    0.1985293    0.1266991 -27.98 0.0009410631    1.608    0.378
       157  -8.0233    235.7305    178.3992   6.8837440361e+01  -2.3168363411e-01    0.2432086    0.1417439 -20.16  0.001135453    1.850    0.459
       158  -8.4123    226.3634    177.7774   7.0388011216e+01   1.3891510921e+00     0.196867    0.1125345 -28.24 0.0009393712    1.693    0.409
       159  -7.4811    231.6718    177.6844   6.9412300259e+01   5.3763400980e-01    0.1393496   0.09473044  -3.73 0.0004902868    1.675    0.403
       160  -8.5589    177.0015    176.5235   8.0019923220e+01   1.0426892480e+01    0.2741843    0.1980158 -23.13 0.0006762499    1.529    0.346
       161  -7.6584    189.8388    176.1612   7.7203239701e+01   8.1007203403e+00    0.2012813    0.1608561  -3.63 0.0004312085    1.336    0.252
       162  -7.8593    229.3267    174.3121   6.9150600480e+01   1.4918382046e+00    0.1400531   0.09646603  -3.56 0.0003799291    1.664    0.399
       163  -8.7226    246.9129    167.0907   6.4660405769e+01  -1.3492705202e-01    0.3593316    0.2202007   2.23  0.001694172    2.347    0.574
       164  -8.1918    237.1259    167.4929   6.6389038329e+01   1.3673751570e+00    0.2252405    0.1661028 -14.79   0.00116615    1.320    0.242
       165  -7.4942    191.6674    164.6918   7.4416943180e+01   9.9930043353e+00    0.1519347    0.1116632  -0.77 0.0007041144    1.669    0.401
       166  -8.0166    244.7657    162.8155   6.4145301678e+01   9.1148114945e-01    0.2271394    0.1310654  -6.23 0.0009502794    2.810    0.644
       167  -7.7606    249.2770    161.3627   6.3113998212e+01   4.3176988796e-01    0.1357519   0.09047103 -11.81 0.0006323686    1.668    0.401
       168  -9.0301    250.7411    155.6029   6.1704378913e+01   1.1466171417e+00    0.4603342   0.09455636 -39.96  0.001430851    4.109    0.757
       169  -7.5777    228.3360    152.6524   6.4808252424e+01   5.4410236695e+00    0.1373616     0.107924 -68.04 0.0007047965    1.778    0.437
       170  -7.7661    208.6692    152.6558   6.8406430418e+01   9.0657289296e+00       0.1521    0.1091998  -3.42 0.0005142217    1.754    0.430
       171  -8.8802    233.8567    146.0083   6.2439590947e+01   5.6326131736e+00    0.2366735    0.1496986 -14.08  0.001089027    2.037    0.509
       172  -7.8686    226.3387    146.3353   6.3794922547e+01   6.9298929600e+00    0.1458214    0.1043455  -3.48 0.0002567256    1.751    0.429
       173  -8.9005    249.0463    141.7751   5.9101562749e+01   3.7291098611e+00    0.3615832    0.2179271   6.17  0.001504311    3.159    0.683
       174  -7.5565     64.7137    141.3015   1.0204787073e+02   3.8758549222e+01    0.1450642    0.1066521  75.36 0.0002217294    1.558    0.358
       175  -8.1168    235.1866    137.3765   6.0356451888e+01   6.9095216542e+00    0.2728639   0.09565894 -36.69  0.001004124    2.581    0.613
       176  -7.6608    131.2998    137.6587   8.2440531800e+01   2.8107199450e+01    0.1612512    0.1260691  88.63 0.0007036111    1.670    0.401
       177  -8.5738    248.4659    134.3950   5.7634790317e+01   5.0713147304e+00    0.2790896    0.1390924 -39.33  0.001176994    1.691    0.409
       178  -7.9293    250.7515    130.9641   5.6568404797e+01   5.2539556083e+00    0.2121904    0.1231489 -36.09  0.001073619    1.458    0.314
       179  -8.6929    242.0835    132.7071   5.8250257641e+01   6.4797308252e+00    0.3702953    0.2012829 -31.02  0.001735381    1.747    0.427
       180  -7.7463    224.3219    133.3566   6.1283545103e+01   9.6518929841e+00    0.1467821    0.1070739  -4.69 0.0007045452    1.764    0.433
       181  -8.6505    232.0149    129.0363   5.9044590618e+01   8.9660058506e+00    0.3192188    0.2117154 -10.58  0.001474938    2.102    0.524
       182  -8.6427    246.8552    128.1464   5.6546308205e+01   6.4101979900e+00    0.3075427    0.1644781 -33.47  0.001073351    1.677    0.404
       183  -9.0599    239.5805    124.3653   5.6827059697e+01   8.3729749339e+00    0.5075428    0.2338789 -25.77  0.001898212    2.966    0.663
       184  -8.7105    248.9753    122.9967   5.5134038594e+01   6.9036747644e+00    0.2116114    0.1789321 -29.46  0.001090226    1.090    0.082
       185  -8.3364    224.4808    120.9146   5.8453122477e+01   1.1869197863e+01    0.3908691    0.1268297 -39.11  0.001363972    2.736    0.634
       186  -9.3368    248.0205    117.0211   5.3989461891e+01   8.0795764815e+00    0.4015166    0.2410929 -27.96  0.001465122    1.693    0.409
       187  -8.4483    239.9154    116.8961   5.5139955862e+01   9.5972914027e+00    0.2946098    0.1650018 -34.36  0.001065398    1.618    0.382
       188  -8.6403    220.4575    113.1704   5.7336667358e+01   1.4071461571e+01    0.4595586    0.2350907  31.14  0.001652011    3.494    0.714
       189  -8.2722    248.1174    111.5923   5.2806318421e+01   8.9709491565e+00    0.2344247    0.1650449  34.65  0.001265677    1.834    0.455
       190  -8.2548    230.5261    110.9555   5.5232857377e+01   1.2437784166e+01    0.2206371     0.123773 -38.65  0.001024782    1.570    0.363
       191  -8.5364    134.7686    109.4351   7.4395308180e+01   3.3814539693e+01    0.4964006    0.1813743 -50.48  0.001518666    3.048    0.672
       192  -9.0130    241.4106    107.0588   5.2758545054e+01   1.0988727413e+01    0.3805413     0.234856 -16.26  0.001701898    2.393    0.582
       193  -8.1727    249.8533    106.8883   5.1555742933e+01   9.4327428173e+00    0.2020519    0.1677329 -18.18  0.001206188    1.334    0.250
       194  -7.7182    235.6224    107.1673   5.3616357757e+01   1.2089629198e+01    0.1981721    0.1192763 -30.19 0.0009404425    1.671    0.402
       195  -9.4369      5.2473    106.5970   1.1500158296e+02   5.3181050104e+01    0.1964204    0.1653579  88.36 0.0003770695    1.212    0.175
       196  -8.4850    219.4817    102.4719   5.4998604050e+01   1.6180668093e+01    0.2665129    0.1324652 -28.39  0.001040837    2.398    0.583
       197  -8.4127    247.3471    101.9053   5.0815680485e+01   1.0721922135e+01    0.1970763    0.1508425 -38.31 0.0007915091    1.137    0.121
       198  -7.6547    212.3332    102.3180   5.6118251430e+01   1.7726174204e+01    0.1435477    0.1142353   6.08 0.0004298337    1.693    0.409
       199  -8.6830    242.5036     97.7695   5.0561768969e+01   1.2330614426e+01    0.3654123    0.1682189 -39.18   0.00163456    1.852    0.460
       200  -7.9358    230.0000     98.9230   5.2576033835e+01   1.4621889026e+01    0.2339254   0.07127356 -38.02  0.000796528    2.902    0.655
       201  -8.2467    249.1520     96.8646   4.9488176240e+01   1.1206791271e+01    0.1783948    0.1503133 -20.37 0.0005699762    1.333    0.250
       202  -7.7471    225.6963     97.6073   5.2909346419e+01   1.5731067516e+01    0.1413164    0.1088608  -2.18 0.0002795083    1.813    0.449
       203  -7.8342    234.5068     94.5016   5.0929078686e+01   1.4455556881e+01    0.1372669    0.1211038 -43.78 -3.660185e-05    1.055    0.052
       204  -9.2043      7.3750     94.6093   1.1248458038e+02   5.5927974261e+01    0.2227638   0.07844683  36.24 0.0009459338    3.362    0.703
       205  -9.0902    242.7121     91.6099   4.9178094238e+01   1.3301162287e+01    0.2393753    0.1518646 -29.70 0.0007210035    1.622    0.383
       206  -7.9991    236.2595     89.9609   4.9666862225e+01   1.4854630751e+01    0.2020513     0.155248 -42.81  0.000743712    1.137    0.120
       207  -7.7309     95.9006     89.3915   7.9917546299e+01   4.6272678252e+01    0.1962446    0.1416992  24.24 0.0003600345    1.555    0.357
       208  -9.4770    249.7464     85.0698   4.6871954774e+01   1.2984076453e+01     0.465698    0.1575375 -29.92  0.001491708    4.285    0.767
       209  -7.5283     54.2183     87.0387   9.3636643883e+01   5.3475165315e+01    0.1864461    0.1038215 -52.54 0.0006020408    1.613    0.380
       210  -8.9885     22.7233     91.8817   1.0645804834e+02   5.5552741353e+01    0.1973942    0.1897795  22.52 0.0003334169    1.236    0.191
       211  -7.9763    212.5808     84.7419   5.1843813056e+01   2.0740951429e+01    0.2050814    0.1206658 -47.66 0.0007832177    1.575    0.365
       212  -9.0145      2.7533     81.0329   1.1187210214e+02   5.9335580404e+01    0.1784499    0.1337305 -58.78 0.0003406703    1.052    0.050
       213  -7.8375    184.2213     77.5690   5.4700234295e+01   2.8498890788e+01     0.196676     0.136987  46.80 0.0005856195    1.543    0.352
       214  -7.6935    102.3841     70.1218   7.1829376320e+01   4.8902534843e+01    0.1928616    0.1367978 -51.23 0.0003449235    1.568    0.362
       215  -8.8930      1.4997     58.2674   1.0774355938e+02   6.4436514997e+01    0.3273884   0.08764793 -61.83  0.001113914    2.781    0.640
       216 -10.8505    247.7291     53.7389   4.0396524843e+01   1.8088911865e+01    0.3933049    0.2662284 -47.19  0.002325186    1.239    0.193
       217  -8.6881     94.8296     52.6684   6.8138151058e+01   5.3542077779e+01    0.2441817    0.1954743 -42.11  0.000618363    1.346    0.257
       218  -8.0294     33.9897     57.0103   9.2942327375e+01   6.2281737140e+01    0.2811668    0.1195847 -23.98 0.0009605394    4.146    0.759
       219  -7.6785     44.4886     51.5476   8.6525605852e+01   6.2152096004e+01    0.1329826    0.1100283 -18.07 7.597421e-05    1.036    0.034
       220 -10.1861    249.2804     45.2500   3.8466612593e+01   1.8955292644e+01    0.3375934    0.2132986 -82.05  0.001919544    1.644    0.392
       221  -7.5152     74.2870     45.6731   7.2443625489e+01   5.8631804527e+01    0.1242714     0.110825 -74.78 0.0003484274    1.610    0.379
       222  -7.9500     54.4831     43.9758   7.9460960638e+01   6.2153574789e+01    0.1935104    0.1183673 -36.51 0.0006004744    1.534    0.348
       223  -7.8437      9.7771     42.9600   9.9692770084e+01   6.7106163546e+01    0.1615541   0.08046342 -52.81  0.000871507    1.663    0.399
       224  -9.1225     95.4946     45.6514   6.5359813716e+01   5.4516460187e+01    0.2831277    0.1629012  43.93  0.001321863    1.641    0.391
       225  -7.9560     77.2325     39.8468   6.9113913292e+01   5.9004539691e+01    0.1863227    0.1429213  11.03 0.0003971008    1.301    0.231
       226  -8.1824     21.4714     40.0482   9.2954923946e+01   6.6761044609e+01    0.1747723    0.1003475 -44.40 0.0003368102    1.471    0.320
       227  -8.0495      3.3182     44.3396   1.0327945614e+02   6.7217560302e+01    0.1309661   0.06366807 -35.19 0.0005045421    1.710    0.415
       228  -7.7575    242.4890     37.4852   3.7457247638e+01   2.1376576661e+01    0.1250949    0.1030349 -64.88 -5.978444e-05    1.030    0.029
       229  -7.5859     73.5251     37.4804   6.9481279197e+01   6.0041738131e+01    0.1339215    0.1182641   8.80 0.0002700486    1.026    0.025
       230  -8.5302     94.9601     33.6333   6.0960953543e+01   5.6336425914e+01    0.2072099     0.172978   8.41 0.0003620809    1.193    0.162
       231  -8.7949      5.2423     35.7529   9.9651183581e+01   6.8773666718e+01    0.3206758   0.04708496 -41.94  0.001099771    4.340    0.770
       232  -7.3919    124.6917     34.6904   5.3678066266e+01   4.9484553421e+01    0.1442823    0.1002395  29.18 0.0004569693    1.618    0.382
       233  -9.4465     15.1709     33.8691   9.3853121960e+01   6.8423135064e+01    0.2039482    0.1836437 -85.18   0.00141052    1.758    0.431
       234  -7.7384    239.3511     33.3170   3.6855889341e+01   2.2569404194e+01    0.1137982   0.09579195  36.54 0.0003650876    1.736    0.424
       235  -9.7659    246.4119     31.5965   3.5890091423e+01   2.1332049061e+01    0.2815118    0.2165119  20.46  0.001625599    2.346    0.574
       236  -9.0297    244.9780     26.9278   3.5047246806e+01   2.2210205086e+01    0.2221702    0.1396186 -43.36   0.00132716    1.407    0.289
       237  -8.8797     21.7831     31.9804   8.9744960922e+01   6.8179722457e+01    0.1616517    0.1268199 -23.23 0.0002095192    1.033    0.032
       238  -7.8215    236.3194     29.3224   3.6273303288e+01   2.3712877221e+01    0.1114451   0.09632025  36.45 0.0005659116    1.671    0.402
       239  -7.7082    240.6356     27.7004   3.5562768566e+01   2.3010422101e+01    0.1120565   0.09274904  42.61 0.0007033991    1.725    0.420
       240  -8.0587     10.0042     27.4632   9.4141068155e+01   6.9961171273e+01    0.1558301     0.101929   6.47 0.0004079124    1.509    0.337
       241  -8.2360     91.0466     24.9362   5.8679356340e+01   5.8248949083e+01    0.2122708    0.1374521  26.79 0.0003352597    1.597    0.374
       242  -8.6427    237.8645     23.4541   3.4902442971e+01   2.4109879500e+01    0.2140519    0.1647849 -15.17  0.001123767    1.881    0.468
       243  -8.5432      3.6313     23.6149   9.6160529008e+01   7.1075508341e+01    0.1926853    0.1623156  57.48 0.0007011325    2.056    0.514
       244  -9.4663    247.5803     22.2140   3.3885707164e+01   2.2256113245e+01    0.1811155    0.1504921 -26.82 0.0007118467    1.553    0.356
       245  -9.0548     84.8780     21.5619   5.9140294053e+01   5.9922129819e+01    0.2196403    0.1821374 -26.63  0.000550186    1.320    0.242
       246  -7.8623     59.4994     22.5763   6.8390766150e+01   6.4575554710e+01    0.1264772    0.1067407  11.87 0.0001725221    1.039    0.038
       247  -8.6075    243.1070     20.9560   3.3970463458e+01   2.3320522193e+01    0.1628363    0.1458936  31.93  0.001045302    1.681    0.405
       248  -8.8337     64.3821     20.4555   6.5571210546e+01   6.3991675639e+01    0.2280371    0.1536753 -28.22 0.0006852216    1.523    0.343
       249  -8.7893    128.4663    249.4703   1.0243920070e+02   4.8428599822e+00    0.1845039    0.1079288  27.65 0.0004709166    1.721    0.419
       250  -8.4923    234.2041     19.1889   3.4301689602e+01   2.5390748071e+01    0.1854174    0.1194551  35.60 0.0009456056    2.812    0.644
       251  -7.9738    161.4451     18.7209   4.1968358771e+01   4.2364346435e+01    0.1600072    0.1329995  -2.90 0.0006490941    1.515    0.340
       252 -10.0275      9.5777    248.0439   1.2524557919e+02   2.0617975322e+01    0.2438907    0.1145551  60.63  0.001488234    1.638    0.390
       253  -9.4041     74.7389     16.4519   6.0164703961e+01   6.2518468104e+01    0.2299121    0.2044335 -76.92 0.0006937259    1.662    0.398
       254  -7.9570     28.0260     17.7677   8.0336908610e+01   6.9783494709e+01    0.1397872   0.08766922  24.67 0.0002045732    1.527    0.345
       255  -9.3016    150.0241    245.4583   9.7532483064e+01   2.2144765389e+00    0.3263887    0.2229251  -5.71  0.001733384    2.103    0.525
       256 -10.2645    229.7640    246.7877   8.2301773113e+01  -9.5420308134e+00    0.3439445    0.1817359  27.80  0.001989172    1.642    0.391
       257  -8.2062    136.3851    246.0154   1.0039152139e+02   4.2250863526e+00    0.1866507    0.1515551 -15.47  0.001151666    1.545    0.353
       258  -8.7479    219.7582    244.0813   8.3685832130e+01  -7.8596368512e+00    0.1683663    0.1311743   3.58 0.0004595849    1.043    0.041
       259  -8.1298    146.5305    242.4858   9.7840587926e+01   3.2560226872e+00    0.1911371    0.1173205 -36.00  0.000729584    2.029    0.507
       260  -8.4026     43.0135     11.5161   7.0057748332e+01   6.8591336072e+01    0.1776498     0.106212  38.49  0.001031491    1.622    0.384
       261  -8.8344    208.9825    249.5122   8.6548867493e+01  -7.1230456561e+00    0.3480401    0.1354044  35.57  0.001670361    2.233    0.552
       262  -7.8141    113.5330    242.5454   1.0466718376e+02   8.3400031068e+00    0.1271222    0.1077053  43.79 0.0001987694    1.035    0.033
       263  -8.5932    154.0281    240.6891   9.6049144218e+01   2.3892010260e+00    0.1851467    0.1462957  31.23 0.0006211983    1.074    0.069
       264  -8.2909    214.6340    239.4736   8.3889661324e+01  -6.5201635363e+00    0.2067741    0.1363713 -26.52 0.0006486046    1.506    0.336
       265  -7.7167    206.5047    240.5133   8.5592488934e+01  -5.5185462473e+00    0.1252521     0.099477  10.21 0.0008104094    1.024    0.023
       266  -7.3705     84.3234    240.3415   1.1044399698e+02   1.3048288997e+01    0.1145803   0.09787302 -12.87 0.0007050806    1.728    0.421
       267  -9.5634    233.8043    239.4573   8.0377943733e+01  -9.1093671865e+00    0.2137719    0.1007282  36.17 0.0006473406    2.059    0.514
       268  -7.4650    128.6844    244.6901   1.0180266951e+02   5.6401924229e+00    0.1220878   0.09490281   4.75 0.0007031233    1.634    0.388
       269  -7.6457     36.2306    238.9932   1.1987855672e+02   1.9510269867e+01    0.1382572   0.08484636 -82.79 0.0001958441    1.539    0.350
       270  -8.9476    194.7267    237.1406   8.7322754094e+01  -3.3015544974e+00    0.2619305    0.1663621  -9.58  0.001380811    1.882    0.469
       271  -8.1788    209.6380    235.9351   8.4251598055e+01  -5.3070256971e+00    0.1948771    0.1308874 -10.86 0.0008431454    1.520    0.342
       272  -8.2895    187.9951    250.5052   9.0699273407e+01  -4.2891365384e+00    0.1921258    0.1300609  37.69 0.0005477525    1.371    0.271
       273  -9.2189    179.0152    235.1172   9.0122281925e+01  -5.9487228585e-01    0.3051933    0.1854302  18.06  0.001188078    1.765    0.434
       274  -9.5913    160.4230    235.2514   9.3939678166e+01   2.3009749211e+00     0.361746     0.230336  12.10 0.0009307237    1.975    0.494
       275  -7.5953    146.6266    236.6677   9.7010724000e+01   4.2447225679e+00     0.134769   0.09577569   3.35  0.000702552    1.843    0.457
       276  -7.7423    135.4965    236.4794   9.9314443828e+01   6.0400299813e+00    0.1306008    0.1124478  32.35 0.0001401601    1.056    0.053
       277  -9.4235      8.0046    236.1150   1.2496189917e+02   2.3086174128e+01    0.2817577    0.0614138  50.52   0.00123639    3.147    0.682
       278  -8.1552    232.5293    234.9801   7.9857719697e+01  -8.3423167029e+00    0.1640879   0.08625682 -12.61 0.0007764043    2.305    0.566
       279  -8.4433    241.1619    230.7308   7.7599886775e+01  -8.9040682596e+00    0.2211599    0.1247399  -8.63 0.0008763907    1.930    0.482
