#   1 NUMBER                 Running object number                                     
#   2 MAG_AUTO               Kron-like elliptical aperture magnitude                    [mag]
#   3 X_IMAGE                Object position along x                                    [pixel]
#   4 Y_IMAGE                Object position along y                                    [pixel]
#   5 X_WORLD                Barycenter position along world x axis                     [deg]
#   6 Y_WORLD                Barycenter position along world y axis                     [deg]
#   7 A_WORLD                Profile RMS along major axis (world units)                 [deg]
#   8 B_WORLD                Profile RMS along minor axis (world units)                 [deg]
#   9 THETA_WORLD            Position angle (CCW/world-x)                               [deg]
#  10 FWHM_WORLD             FWHM assuming a gaussian core                              [deg]
#  11 ELONGATION             A_IMAGE/B_IMAGE                                           
#  12 ELLIPTICITY            1 - B_IMAGE/A_IMAGE                                       
         1  -8.3937     55.8839      9.9082   5.5887460993e+01   6.6313970230e+01    0.1602094    0.1495919  81.43 0.0005855479    1.630    0.386
         2  -7.9021     28.2700      9.6407   6.8243471509e+01   7.0778817036e+01   0.09738875   0.09286344  -9.09 0.0005406502    1.646    0.392
         3  -9.3676      6.3042      8.4167   8.0508274645e+01   7.3458388242e+01    0.2146185    0.1500602  34.13  0.001419344    1.955    0.488
         4  -7.8234     91.2854      8.6644   4.4417889988e+01   5.9274149534e+01    0.1156445   0.09456724 -75.09 0.0003175797    1.626    0.385
         5  -8.6237     33.0674      4.5928   6.3199438105e+01   7.0653024125e+01    0.2147878    0.1408128 -43.98  0.001250141    2.493    0.599
         6  -8.4058     79.0838      3.6416   4.5607422941e+01   6.2289172643e+01    0.2270225    0.1327467 -43.64  0.001111188    2.375    0.579
         7  -7.6765     44.6847      3.2918   5.7220594429e+01   6.8914996065e+01    0.1000021   0.09304371  56.58 0.0002269767    1.596    0.373
         8  -8.1777     16.1290      3.1309   7.1627228056e+01   7.3106562625e+01    0.1441805    0.1198303   9.11 0.0006578838    1.333    0.250
         9  -7.8847     62.5098      1.3967   4.9624933591e+01   6.5816695168e+01    0.1198964   0.09601026  39.54 0.0002010181    1.083    0.077
        10  -8.9166     67.7026    245.2538   1.0776675667e+02   1.2977645248e+01    0.2867772    0.1557204  87.14  0.001339451    2.482    0.597
        11 -10.0871    248.7277    242.7435   6.9004615207e+01  -1.0853291367e+01    0.4848249    0.1918738 -44.33  0.002283789    3.079    0.675
        12  -8.8454    233.0927    248.1082   7.2686641299e+01  -9.9104353792e+00     0.332505    0.1884912 -48.87  0.001663743    2.733    0.634
        13  -9.3433     27.5070    250.3220   1.1668284292e+02   1.6653821379e+01    0.3876017    0.1413156  25.84  0.001685121    3.146    0.682
        14 -10.0695     52.8877    249.3383   1.1134212285e+02   1.3975335340e+01    0.4332941    0.1504298  30.32  0.001832644    2.702    0.630
        15  -9.3127     40.5452    247.7209   1.1382764779e+02   1.5753621085e+01    0.3145177    0.1167748 -77.75  0.001372413    2.999    0.667
        16  -9.0109    243.0976    246.1268   7.0554564171e+01  -1.0725321706e+01    0.4108246    0.1369209 -30.67  0.001844046    2.837    0.648
        17  -8.8693    218.6988    246.4520   7.5113539855e+01  -8.0088580283e+00    0.3524548    0.1210741 -37.04  0.001573813    2.735    0.634
        18  -8.9097    175.6320    247.4617   8.3990593465e+01  -2.6107726304e+00    0.2745079    0.2076728  59.35   0.00119954    2.204    0.546
        19  -9.3247     21.5126    247.9832   1.1774819288e+02   1.7760679555e+01    0.2265328    0.1233607  49.13  0.000560862    1.496    0.332
        20  -9.9886    223.8467    243.8013   7.3697851351e+01  -8.2272178388e+00      0.45057    0.2149914 -45.62   0.00224238    2.568    0.611
        21  -9.2208    210.9720    246.4969   7.6616708218e+01  -7.0781013144e+00    0.2076675    0.1649455 -42.88 0.0008637154    1.664    0.399
        22  -9.8782    145.7653    246.4007   9.0329768299e+01   1.7991901374e+00    0.4477056    0.2753052   8.74   0.00177463    1.927    0.481
        23  -8.8865     76.5457    247.2938   1.0600493972e+02   1.1407138252e+01    0.2318711    0.1022011  32.65 0.0009705851    1.997    0.499
        24  -9.2916     34.9369    247.5109   1.1498137009e+02   1.6425875008e+01    0.2368835     0.138074  35.15 0.0009749782    1.568    0.362
        25  -9.1608     34.6032    243.8257   1.1479709830e+02   1.7231519969e+01    0.2288797    0.1144782  56.98  0.001188866    1.807    0.446
        26  -8.6095     50.1427    244.5006   1.1153965401e+02   1.5307769446e+01    0.2545849     0.143911  80.52  0.001308309    2.001    0.500
        27  -8.6720    139.5140    244.0347   9.1388449695e+01   3.1425629224e+00    0.1671958    0.1204625  86.86 0.0008093741    2.481    0.597
        28  -9.3492     78.0214    242.9727   1.0523702792e+02   1.2102116828e+01    0.3511095     0.168675  62.66  0.001428293    2.901    0.655
        29  -8.9885     46.1686    244.1908   1.1237002747e+02   1.5841642791e+01    0.1797046     0.118208  55.96 0.0004453063    1.322    0.243
        30  -9.0657      9.4337    243.6735   1.1991534916e+02   1.9848101054e+01    0.2272996   0.08173428  81.66 0.0009587576    3.221    0.690
        31  -9.4891    201.3269    241.0079   7.7631306160e+01  -5.0018274574e+00    0.3439727    0.2024881 -50.95  0.001158793    2.365    0.577
        32  -8.5349    169.0061    242.8373   8.4690862898e+01  -8.9929869862e-01    0.1998558    0.1755696 -62.53 0.0005863743    1.612    0.380
        33  -9.1455    194.0428    239.3103   7.8834210037e+01  -3.7636217750e+00    0.2070313    0.1692272 -37.23  0.000593918    1.415    0.293
        34  -9.6019    182.4749    240.2818   8.1404474365e+01  -2.3479893080e+00    0.4156913     0.323057  29.17  0.001388898    1.281    0.219
        35  -9.3599    160.1209    240.0984   8.6206545993e+01   8.5918779086e-01    0.3150916    0.2345998 -72.37  0.001456921    2.221    0.550
        36  -9.0475    120.2658    245.4048   9.5927232566e+01   5.6862498342e+00    0.3429213    0.2353202  78.93  0.001691381    2.330    0.571
        37  -8.1171     88.3218    242.1805   1.0281648825e+02   1.0869444359e+01    0.1762115    0.1204975 -82.01 0.0007874793    1.776    0.437
        38  -9.1094     29.6667    241.4293   1.1566800382e+02   1.8273610339e+01    0.2176965     0.192685  60.84 0.0006906117    1.127    0.113
        39  -8.5691    146.8500    239.7812   8.9117150713e+01   2.8598024298e+00    0.3162757     0.207186  71.30  0.001326707    3.313    0.698
        40  -9.0329    241.2399    238.5143   6.9618945409e+01  -9.4463926158e+00    0.4149696    0.1506943 -25.60  0.001707785    3.277    0.695
        41  -8.4910     37.4914    240.5293   1.1395016194e+02   1.7608901951e+01    0.1260958    0.1009912  62.03 0.0001144924    1.040    0.038
        42  -9.0795      3.2172    240.0036   1.2095755512e+02   2.1191208229e+01    0.1869595    0.1385947  54.63 0.0005162776    1.147    0.128
        43  -8.8043    125.7802    239.3466   9.3852686063e+01   6.0599569338e+00    0.2428538      0.11102  32.08  0.000387537    1.927    0.481
        44  -9.2806     71.7131    238.2791   1.0618552266e+02   1.3925803607e+01    0.2447776    0.1935895  35.11 0.0007009741    1.183    0.155
        45  -8.9405     52.7713    238.5768   1.1046927829e+02   1.6250361051e+01    0.2619784     0.146586  55.38 0.0008014247    1.666    0.400
        46  -8.3247     41.3096    239.6364   1.1306301020e+02   1.7368741173e+01    0.1377725   0.07589903  62.19 0.0007039422    1.749    0.428
        47  -8.8984    230.6656    236.4160   7.1185893730e+01  -7.9309776999e+00     0.257165    0.2092149 -59.63  0.001337572    2.318    0.569
        48  -7.7628    209.2781    238.6037   7.5645223104e+01  -5.6451434488e+00    0.1069128     0.103454 -75.27 0.0006992577    1.752    0.429
        49  -8.6024    135.2141    238.2469   9.1533023732e+01   4.8752405584e+00    0.1799713    0.1497273  52.28 0.0005705383    1.357    0.263
        50  -7.9409     83.5538    238.4897   1.0349854335e+02   1.2294470701e+01    0.1324286    0.1163884  47.96 6.463855e-05    1.008    0.007
        51  -8.6438     57.6708    236.7924   1.0921820647e+02   1.6036174935e+01    0.3119975    0.1177962  37.84  0.001363305    2.196    0.545
        52  -8.5395     19.1710    237.2014   1.1758463456e+02   2.0262463190e+01    0.1725004    0.1560389  86.80  0.001232228    1.204    0.169
        53  -8.8111    217.3091    235.6724   7.3583198815e+01  -6.1989718896e+00    0.1992423    0.1763136   3.18 0.0007141521    1.301    0.232
        54  -9.2577    213.8050    231.6776   7.3581753160e+01  -5.1237928417e+00    0.2906976     0.257989 -79.26  0.001421599    2.152    0.535
        55  -9.0078    203.3334    234.9454   7.6214836974e+01  -4.2869263885e+00    0.2681435    0.2123147 -62.54  0.001117331    2.179    0.541
        56  -9.7637    175.7262    233.1606   8.1684277149e+01  -1.5850858208e-01    0.4838154    0.2812274 -57.20  0.002246342    2.553    0.608
        57  -8.4714    170.7670    230.6273   8.2346669389e+01   1.0203882779e+00    0.2627284    0.1917858  21.20 0.0007315482    1.225    0.184
        58  -9.1535    247.8823    234.5141   6.7772572012e+01  -9.6010599364e+00    0.1833489    0.1255939 -22.14 0.0006872102    1.156    0.135
        59  -8.3909    169.8126    235.2357   8.3308574489e+01   3.2658653835e-01    0.1923992    0.1680176  27.20 0.0007056576    1.210    0.173
        60  -7.8461    153.2791    235.5928   8.7032522785e+01   2.6914280813e+00    0.1294291    0.1059425  68.45 0.0006980361    1.783    0.439
        61  -9.1967    108.6903    234.2373   9.7133361218e+01   9.6149780201e+00    0.3470455    0.2193647  61.33  0.001066138    2.021    0.505
        62  -9.0218     78.7421    234.2437   1.0414336438e+02   1.3855620502e+01    0.2900143    0.1719054  88.36  0.001281923    2.272    0.560
        63  -8.1621     44.4663    235.5238   1.1204889239e+02   1.7893918032e+01    0.1289454    0.1052626  62.10 0.0002303835    1.045    0.043
        64  -8.9695    132.4345    233.1813   9.1435211843e+01   6.2855347277e+00    0.2674005    0.2142113 -22.31   0.00132299    1.368    0.269
        65  -8.1600    122.9693    233.9791   9.3754181770e+01   7.5486753753e+00    0.2185371     0.155774  60.64 0.0009586803    1.754    0.430
        66  -8.1459     99.4946    233.9884   9.9260537582e+01   1.1005242829e+01    0.1887543     0.115396  82.03 0.0008106268    2.638    0.621
        67  -8.8258     94.7966    234.0071   1.0036560232e+02   1.1674378415e+01    0.3049625    0.1706611  63.12  0.001319486    2.445    0.591
        68 -10.1556     68.7239    232.5078   1.0628190350e+02   1.5564929661e+01    0.5500956    0.2443991  59.13  0.002181141    2.886    0.654
        69  -8.4221      7.4892    234.5313   1.1982909908e+02   2.1958801383e+01    0.1180154   0.09488149  70.95 7.824742e-05    1.027    0.027
        70  -8.3549    194.4632    232.4796   7.7606401667e+01  -2.6823616609e+00    0.1953285    0.1243196 -51.38 0.0005613519    2.073    0.517
        71  -8.0823    144.9569    233.2831   8.8563926530e+01   4.3760705111e+00    0.2216168   0.08234516  47.63  0.000700291    4.018    0.751
        72  -9.4815    186.4532    230.4503   7.8936922814e+01  -1.2158704082e+00    0.3291984    0.2325016 -62.99  0.001269471    2.382    0.580
        73  -8.9878    236.0320    230.5752   6.9205958025e+01  -7.6828388420e+00    0.2503548    0.1686695 -37.91 0.0008898633    1.534    0.348
        74  -8.5607      1.6642    230.6438   1.2081001447e+02   2.3319500575e+01     0.246563   0.09935485  73.57  0.001154625    2.471    0.595
        75  -9.3042    246.5231    228.7894   6.7032790818e+01  -8.6180818483e+00     0.353311    0.1633814 -37.37  0.001435059    1.890    0.471
        76  -8.9027    151.4758    228.9776   8.6400282640e+01   4.2215710810e+00    0.3048581    0.2323309  85.73  0.001359928    2.276    0.561
        77  -9.5230    148.5601    224.3483   8.6326703752e+01   5.5766286970e+00    0.3683323     0.327734 -22.39  0.001607949    1.146    0.127
        78  -8.3919    140.0083    229.9883   8.9198071914e+01   5.7709041036e+00    0.2083065    0.1605084  58.56 0.0005051151    1.642    0.391
        79  -9.1918     59.4999    227.4991   1.0791837966e+02   1.7856309440e+01    0.1337347    0.1146504  60.28 -0.0005317762    1.033    0.032
        80  -8.7412    127.9837    227.3674   9.1617150488e+01   8.1398629181e+00    0.3068421    0.2532649 -80.75  0.001577235    1.567    0.362
        81  -8.1892     32.5606    229.5019   1.1420269428e+02   2.0551595528e+01    0.1257913     0.105168  68.37 4.195199e-05    1.007    0.007
        82  -7.8219    229.5149    228.5182   7.0045608863e+01  -6.5910502975e+00    0.1245897   0.09872556  -9.66 8.532565e-05    1.060    0.056
        83  -8.6516    162.0520    227.5938   8.3780574923e+01   2.8830871559e+00    0.2508745    0.2171198  79.57  0.001096357    1.734    0.423
        84  -9.3511     49.0754    227.3907   1.1031672439e+02   1.9153206314e+01     0.324683    0.2343448  37.48  0.001624926    1.306    0.234
        85  -8.2353    223.2228    226.9782   7.0956945555e+01  -5.5717972354e+00     0.163182   0.09033082 -36.38 0.0004001819    1.652    0.395
        86  -8.5539    206.0637    225.8623   7.4106414206e+01  -3.1501702041e+00     0.214712    0.1622681 -47.97 0.0008038349    1.680    0.405
        87  -7.9792    200.3195    226.2113   7.5328427889e+01  -2.4248297712e+00    0.1706232    0.1142364 -44.15 0.0004582264    1.656    0.396
        88  -8.7398    180.4780    224.2881   7.9162018464e+01   7.4551832899e-01    0.2361932    0.2028725  38.87 0.0007178772    1.383    0.277
        89  -8.9888     94.2443    224.2279   9.9270072160e+01   1.3874360309e+01    0.3786615     0.212138  62.38  0.001314265    2.423    0.587
        90  -7.5733      5.5665    225.4874   1.1973876081e+02   2.4099838396e+01    0.1197262   0.09619785  74.86 0.0001268019    1.021    0.020
        91  -8.7540    216.5515    223.3223   7.1593950987e+01  -4.1255887525e+00    0.2263498    0.1998587 -61.99 0.0008911896    1.847    0.459
        92  -8.9941    138.6697    223.0093   8.8422925970e+01   7.3834343018e+00    0.3588451    0.2286015  22.03 0.0006899459    1.559    0.359
        93  -7.9511    114.1227    224.1297   9.4452748800e+01   1.0938557723e+01    0.1955385    0.1562469  55.67 0.0006137837    1.340    0.254
        94  -8.8261    104.7204    223.4266   9.6626313459e+01   1.2508333413e+01    0.3508782    0.2264842  72.45  0.001575154    2.259    0.557
        95  -7.8938     38.2849    224.6297   1.1254066931e+02   2.1017970999e+01    0.1394326   0.08069605  65.04 0.0007018157    1.704    0.413
        96  -8.4000    173.0383    223.0318   8.0569303470e+01   2.0846646897e+00    0.1943909    0.1721427  75.65 0.0007057844    1.705    0.413
        97  -9.4401    160.5688    221.1279   8.3037069689e+01   4.3514684719e+00    0.5495085     0.266814  53.55  0.001839422    4.158    0.760
        98  -9.1889    239.0506    221.5042   6.7085326356e+01  -6.6546722067e+00    0.2154456    0.1808433 -45.32 0.0009510515    1.678    0.404
        99  -9.4257    225.6163    221.6661   6.9573221050e+01  -5.0259626549e+00    0.2278446    0.2191564  -0.56  0.001134986    1.502    0.334
       100  -8.8380     82.8033    220.4626   1.0157468001e+02   1.6352027388e+01    0.2661309    0.1768166  82.44  0.001282281    1.892    0.472
       101  -8.6675     73.2494    220.6750   1.0392280530e+02   1.7616739710e+01    0.3452201    0.1502399  62.49  0.001140186    3.938    0.746
       102  -8.4970     54.9903    221.2485   1.0835994809e+02   1.9836155735e+01    0.1830172    0.1562235  46.75 0.0005002607    1.101    0.092
       103  -8.1308    202.6478    219.8553   7.3736761981e+01  -1.6564283396e+00    0.1737889    0.1175072 -45.81 0.0004035111    1.673    0.402
       104  -9.4715    133.0611    216.6496   8.8744162259e+01   9.5922623485e+00    0.6062948    0.3818639 -76.89  0.002304101    2.732    0.634
       105  -9.1702    120.3381    218.9867   9.2190023058e+01   1.1091371618e+01    0.4319508    0.2371504  58.72  0.001679146    2.791    0.642
       106  -8.0353     43.5429    220.4696   1.1097512404e+02   2.1374724586e+01    0.1307908    0.1130039  67.99 9.287055e-05    1.006    0.006
       107  -7.5802     27.6794    220.6826   1.1462790313e+02   2.3055550399e+01    0.1198755   0.09331343 -41.77  0.000636738    1.662    0.398
       108  -7.9767     18.2368    220.4452   1.1671437759e+02   2.4053671422e+01    0.1790869   0.09226035  45.24 0.0009408607    1.708    0.415
       109  -9.2530    192.3273    221.1702   7.6097631515e+01  -4.2070426821e-01    0.2890074    0.2490933 -67.64  0.001091687    1.797    0.444
       110  -8.2609    210.0655    219.2327   7.2138791320e+01  -2.5753408273e+00    0.1806686    0.1508873  -7.39 0.0005041742    1.057    0.054
       111  -8.6934     62.4041    217.5691   1.0620418871e+02   1.9758443659e+01    0.3476233     0.190443  71.20  0.001405421    2.335    0.572
       112  -8.5417    249.0658    218.1702   6.4747346359e+01  -7.3179644047e+00    0.2343462    0.1556928  51.08  0.001239286    3.082    0.676
       113  -7.6581     98.6966    218.7096   9.7449899870e+01   1.4451915518e+01    0.1369537    0.1082674 -13.51  0.000201721    1.569    0.363
       114  -8.9302     51.7596    217.3793   1.0874625415e+02   2.1125081730e+01    0.3204404    0.2068756  66.62  0.001243656    1.578    0.366
       115  -8.5493    169.0599    215.8372   8.0206311550e+01   4.0635592462e+00    0.2933878    0.1972513 -65.66  0.001007621    2.375    0.579
       116  -8.5255    142.9425    216.4187   8.6343618377e+01   8.0699648269e+00    0.2535233    0.2052639 -77.98 0.0008463483    1.698    0.411
       117  -8.6039    108.2372    217.3561   9.4909948406e+01   1.3316863070e+01    0.2089398    0.1174532  41.08 0.0008009219    1.655    0.396
       118  -8.7950    232.2290    214.6508   6.7099060088e+01  -4.7341718421e+00    0.2343818    0.1917006 -53.29  0.001209091    1.816    0.449
       119  -8.2359     59.6604    223.3874   1.0746963157e+02   1.8766180707e+01    0.2158801    0.1331615  60.84 0.0007728185    1.648    0.393
       120  -8.3109     87.1140    215.1364   9.9836538741e+01   1.6960792877e+01    0.1991728    0.1536422  58.05 0.0004324134    1.311    0.237
       121  -7.9190     41.6551    215.3368   1.1095635840e+02   2.2782627355e+01    0.1465953   0.08332404  61.68  0.000704902    1.773    0.436
       122  -8.3300     12.5093    215.5114   1.1765356880e+02   2.5718734342e+01    0.1753098    0.1223316   9.14 0.0006356068    1.976    0.494
       123  -8.1822    185.5009    213.9807   7.6264444262e+01   1.8947910624e+00    0.1968445    0.1302666 -43.05 0.0006563365    1.555    0.357
       124  -9.0370     93.2158    213.7207   9.8125511265e+01   1.6398990466e+01     0.370425    0.2083265  58.73  0.001539166    2.229    0.551
       125 -10.1138     72.5344    211.7831   1.0304827084e+02   1.9782485656e+01    0.8126925    0.3392361  48.53  0.003182678    2.473    0.596
       126  -9.3155    213.9551    211.9103   7.0052361242e+01  -1.8582143922e+00    0.3167087     0.276228  58.80  0.001815284    1.839    0.456
       127  -8.3269     33.5404    213.5557   1.1271247671e+02   2.4092075935e+01    0.1281544    0.1130953  75.65 4.767857e-05    1.037    0.036
       128  -8.8628    161.4916    211.7594   8.1207007255e+01   6.0621723607e+00     0.281875    0.2292466  89.20  0.001412737    1.954    0.488
       129  -7.7905    106.4900    212.5272   9.4635898922e+01   1.4670941989e+01    0.1454777    0.1314353  49.01  0.000808451    1.088    0.081
       130  -8.9757    204.4221    210.8017   7.1742407632e+01  -3.1930727155e-01    0.2248749    0.2094747 -57.71 0.0008017499    1.525    0.344
       131  -9.3852    175.2913    209.8233   7.7741558197e+01   4.2588638544e+00    0.3455811    0.2822928  83.30  0.001287951    2.076    0.518
       132  -8.8408    147.8776    210.5312   8.4174385484e+01   8.5060131200e+00    0.2638998    0.2183536 -63.35 0.0009078375    1.479    0.324
       133  -8.7526    116.3673    210.3593   9.1838540011e+01   1.3619275109e+01    0.3170614    0.2008972  65.02 0.0008086363    2.316    0.568
       134  -8.1332      3.7889    211.5800   1.1933152558e+02   2.7386834306e+01    0.1614366   0.09572298  46.03 0.0003340307    1.539    0.350
       135  -9.1614     99.4222    206.0370   9.5458956249e+01   1.7254972114e+01    0.3810132    0.2423559  73.99  0.001151829    2.332    0.571
       136  -8.5674     85.7335    209.5748   9.9444672957e+01   1.8457575815e+01    0.3215184     0.186048  70.31  0.001300331    2.529    0.605
       137  -7.9277    224.6350    211.8504   6.7997882977e+01  -3.2927397515e+00    0.1740708    0.1093901 -44.11 0.0007103124    1.694    0.410
       138  -9.0787    236.6461    208.3192   6.5158315610e+01  -4.2689022026e+00    0.2667134    0.2161849 -53.71  0.001240678    1.804    0.446
       139  -8.2018     46.3746    209.1636   1.0923475758e+02   2.3704665804e+01    0.1949186    0.1159101  89.46 0.0009369369    1.804    0.446
       140  -9.6940    246.3813    207.0760   6.3231956281e+01  -5.2797019905e+00    0.2989196    0.1819612 -32.65 0.0007068738    1.345    0.256
       141  -9.5255    250.0888    201.7763   6.1645894824e+01  -4.8905624449e+00    0.3681799    0.1523056 -39.41  0.001212396    2.024    0.506
       142  -8.9446    138.2145    207.9416   8.6051624548e+01   1.0630996747e+01    0.4271672    0.1671841  36.04  0.001585466    2.372    0.578
       143  -8.3494    126.4324    208.2451   8.8995675387e+01   1.2481209724e+01    0.1904019    0.1446495 -71.16 0.0009344657    1.635    0.388
       144  -7.7989     25.5090    208.0059   1.1414314298e+02   2.6232234757e+01    0.1662188   0.09009217 -50.26 0.0003436708    2.149    0.535
       145  -8.2318    192.1939    210.1469   7.4144495678e+01   1.5982956661e+00    0.1717954    0.1651324 -45.57 0.0005714362    1.372    0.271
       146  -7.6835    156.3536    207.6621   8.1671380438e+01   7.7262811861e+00     0.144159    0.1147145  66.86  0.000704315    1.800    0.445
       147  -9.4727     78.7825    205.8610   1.0071895915e+02   2.0331641557e+01    0.5570457    0.1641935  34.63  0.001783747    2.973    0.664
       148  -8.0443    109.3832    205.1954   9.2789155674e+01   1.5902947799e+01    0.2024812    0.1413636 -75.44  0.000584906    1.789    0.441
       149  -8.5775     56.2411    205.1504   1.0636288525e+02   2.3488473732e+01    0.2624309    0.1457311  56.13  0.000810314    1.886    0.470
       150  -9.2493    194.8044    203.3140   7.2329084909e+01   2.4743694697e+00    0.3142168    0.2374708 -44.62  0.001094738    1.422    0.297
       151  -9.3331    192.5250    197.1763   7.1643363384e+01   3.9916794693e+00    0.3866142    0.3065358 -73.37  0.001498615    2.060    0.515
       152  -8.8801    183.7335    203.6535   7.4751074707e+01   4.1285449472e+00    0.2809714    0.2348321  62.15  0.001121792    1.744    0.427
       153  -9.5166    163.9621    202.9212   7.9043039549e+01   7.4599817197e+00     0.446452    0.2758619  53.11  0.001352394    2.252    0.556
       154  -8.5816    131.2009    204.0434   8.7107940315e+01   1.2637977527e+01    0.2896088    0.1813144  56.55  0.001228436    2.116    0.527
       155  -8.1312    221.8603    201.8315   6.6673749369e+01  -1.2149273826e+00    0.3253432   0.08164762 -44.06  0.001077358    3.868    0.741
       156  -8.9963    140.6374    201.0635   8.4259340251e+01   1.1731485285e+01    0.3965476    0.2813992  82.20  0.001680088    2.481    0.597
       157  -9.1225     12.4844    202.9594   1.1681174277e+02   2.8655227223e+01    0.2370624    0.1439371  50.08 0.0006450716    1.525    0.344
       158  -9.1387    243.0859    200.8280   6.2661577390e+01  -3.8678001148e+00    0.2894078    0.1574373 -40.09 0.0009025552    1.630    0.387
       159  -8.3828    211.0080    201.9720   6.8789583601e+01   3.0321952216e-01    0.1913627    0.1702217 -73.73 0.0007701456    1.766    0.434
       160  -8.5795     73.1596    202.1482   1.0167866061e+02   2.2010732897e+01    0.2056807    0.1583918  71.80 0.0006127295    1.374    0.272
       161  -8.3743     79.8177    201.0006   9.9798159320e+01   2.1360394971e+01    0.2407574    0.1551495  74.43 0.0007826514    1.993    0.498
       162  -9.1935    237.1274    198.6988   6.3306931633e+01  -2.7485068988e+00     0.264787    0.1602278 -47.95 0.0008761939    1.884    0.469
       163  -9.3374    149.5110    198.4232   8.1623560598e+01   1.0817025853e+01    0.4110421    0.3023102  87.39  0.001395907    2.358    0.576
       164  -8.7226    123.9340    199.0609   8.8077960522e+01   1.4965365512e+01     0.291832    0.2152971 -87.35  0.001028614    1.940    0.484
       165  -9.1791    113.0831    198.5811   9.0775113994e+01   1.6854944133e+01    0.4724808    0.2872445  61.85  0.001904385    2.350    0.574
       166  -8.0493    177.0361    198.9711   7.5340877044e+01   6.1227011374e+00    0.2007149    0.1796932  78.05 0.0004959596    1.594    0.372
       167  -9.0500     88.8859    198.4865   9.7069712806e+01   2.0652064191e+01    0.3691829    0.2530753  68.99  0.001284401    1.792    0.442
       168  -8.1519    104.9856    198.4648   9.2854931820e+01   1.8180062041e+01    0.2234585     0.140192  33.54 0.0004598012    1.524    0.344
       169  -9.3239     61.4946    197.0139   1.0405902919e+02   2.4824156657e+01    0.4808239    0.2457159  66.93  0.001844154    2.760    0.638
       170  -8.3613    202.0234    197.3305   6.9706449933e+01   2.4888742610e+00    0.1885497    0.1675753  -1.84  0.000613685    1.092    0.084
       171  -8.1389     12.7872    197.2162   1.1632521712e+02   3.0005669706e+01    0.2275458   0.09264731  61.92 0.0009386083    2.704    0.630
       172  -8.5646    215.9399    195.4999   6.6605015687e+01   7.4385336626e-01    0.2380264    0.1750834 -51.34 0.0008158017    1.659    0.397
       173  -8.0338    133.3618    196.1312   8.5182204715e+01   1.4056759499e+01    0.2025327    0.1437174 -65.77 0.0005930097    1.729    0.422
       174  -8.2219     53.3136    196.6505   1.0614472407e+02   2.5936029620e+01    0.1513747     0.095447  65.39 0.0002201196    1.723    0.420
       175  -8.7863    185.0919    194.5913   7.2733974342e+01   5.6838274506e+00     0.246104      0.19337 -53.67   0.00067634    1.513    0.339
       176  -8.6638    161.0543    194.2854   7.8101314460e+01   9.7494939585e+00    0.2720419    0.2232819  65.39 0.0009065378    1.661    0.398
       177  -9.6326    245.5060    193.2847   6.0858277626e+01  -2.9428949543e+00    0.2299803    0.1819143 -57.03 0.0007951548    1.841    0.457
       178  -8.7826    224.4571    193.4037   6.4599827878e+01  -1.1129131181e-01    0.3133127    0.1157361 -44.10   0.00126601    2.558    0.609
       179  -9.1072     77.1643    193.8149   9.9495866856e+01   2.3505473729e+01    0.2972648    0.2285252  65.14   0.00072658    1.383    0.277
       180  -8.7754     43.6699    193.1214   1.0824951678e+02   2.7945356449e+01    0.4055679    0.2029706  72.81  0.001609379    2.671    0.626
       181  -8.6699      6.1910    193.3312   1.1761702565e+02   3.1494762700e+01    0.1749813     0.158317 -39.72 0.0006811501    1.375    0.273
       182  -8.2769    198.9414    191.6925   6.9248553596e+01   4.0294285979e+00    0.1885469    0.1690885   2.92 0.0004969202    1.102    0.092
       183  -8.3657    172.3448    191.4728   7.4954153008e+01   8.4261567352e+00    0.2293573    0.1779719 -65.25 0.0006102525    1.737    0.424
       184  -9.0319    139.2597    190.1222   8.2600093614e+01   1.4411884267e+01    0.3346054    0.2630138  88.82  0.001006964    1.831    0.454
       185  -8.2620    117.3344    191.6027   8.8483037189e+01   1.7804396585e+01    0.2108842    0.1426239  21.81 0.0009418606    1.587    0.370
       186 -10.4589     92.3617    188.8700   9.4666990492e+01   2.2489919286e+01    0.9802159    0.3330916  45.61  0.003105764    3.278    0.695
       187  -8.5075     17.1859    191.1618   1.1478483216e+02   3.1096949718e+01     0.187265    0.1311506  62.45 0.0007666196    1.345    0.256
       188  -7.9247    148.4060    189.1052   8.0142345719e+01   1.3052067188e+01    0.2043514    0.1454569 -63.29 0.0009273365    1.749    0.428
       189  -8.7753    129.2338    188.5251   8.4845854086e+01   1.6511100180e+01    0.3017436    0.2397644  76.22 0.0008658688    1.678    0.404
       190  -9.5977    120.7550    186.2565   8.6631374593e+01   1.8500037646e+01    0.5524651    0.3229776 -74.87   0.00202378    2.808    0.644
       191  -9.0871     34.2112    187.8945   1.1015616121e+02   3.0279830243e+01    0.3436046    0.1802042  77.47  0.001282489    2.283    0.562
       192  -8.2004    237.3587    188.2502   6.1308447283e+01  -1.0183083686e+00     0.178197      0.10485 -44.06 0.0005274861    1.631    0.387
       193  -8.8679    216.6547    187.6948   6.4965541733e+01   2.0477536650e+00    0.2515585    0.1922264 -49.43 0.0007886566    1.501    0.334
       194  -8.9215    191.3000    187.0869   6.9936563280e+01   6.1517513936e+00    0.3257038    0.2484159 -65.27  0.001154242    1.885    0.469
       195  -9.1241    156.0523    187.2290   7.7926299839e+01   1.2131811275e+01    0.3415924    0.2359833 -61.85 0.0008098061    1.826    0.452
       196  -9.1562     54.5842    186.6274   1.0459886044e+02   2.8304344073e+01    0.4448236    0.2449881  72.39  0.001537972    2.424    0.587
       197  -8.2622    230.6801    187.1315   6.2271092609e+01   1.0348009363e-01    0.2022375    0.1498835 -47.13 0.0008933439    1.488    0.328
       198  -8.5519    164.9989    186.7210   7.5711305677e+01   1.0682663855e+01    0.2530257    0.2117867 -76.96 0.0007606227    1.643    0.392
       199  -8.9191    109.6192    186.0274   8.9542961673e+01   2.0428690754e+01    0.4189416    0.2753188  72.44  0.001177995    2.339    0.572
       200  -8.9934     28.6560    186.8880   1.1149818863e+02   3.1091868900e+01     0.246341    0.1764719  44.12 0.0006116104    1.386    0.279
       201  -9.2815    249.2052    185.1743   5.8734403860e+01  -2.0844013920e+00    0.2677727    0.1691686 -42.67 0.0007769958    1.470    0.320
       202  -8.7909    210.1445    184.3010   6.5554959775e+01   3.6689533771e+00    0.2533878     0.178533 -41.35 0.0005106009    1.346    0.257
       203  -8.4657    202.6866    184.3651   6.7046008842e+01   4.8344051847e+00    0.2439508    0.1607294 -49.27 0.0006666027    1.640    0.390
       204  -8.3892    183.0193    184.9301   7.1286735991e+01   7.9632270696e+00    0.2118726    0.1834313 -85.71 0.0007655576    1.680    0.405
       205  -9.2184     66.7654    184.4401   1.0098719053e+02   2.7303139263e+01    0.3993267    0.2212655  61.43   0.00107877    2.291    0.563
       206  -8.6326    224.0580    183.2699   6.2722842067e+01   1.7446216287e+00    0.2629288    0.1486364 -39.73 0.0009417937    1.552    0.356
       207  -8.9556    174.2935    183.3199   7.2901463338e+01   9.7889666343e+00     0.300421    0.2448695 -61.16 0.0004723636    1.511    0.338
       208  -8.7771     44.3133    182.1156   1.0682828201e+02   3.0662231738e+01    0.3641131    0.1954238  72.91 0.0009750986    2.412    0.585
       209  -7.9009      1.5092    183.4778   1.1805900076e+02   3.4251617138e+01    0.1289209    0.1040599  82.34 0.0001648959    1.053    0.050
       210  -8.2518    235.3513    181.1795   6.0307106494e+01   4.7846154290e-01    0.1864374    0.1056168 -45.94 0.0005827479    1.732    0.422
       211  -9.0479    147.6180    180.5124   7.8656808991e+01   1.5120513276e+01    0.3322713     0.268534  67.96   0.00105896    1.632    0.387
       212  -9.9143     25.5669    179.0272   1.1153308728e+02   3.3376378660e+01    0.6399385    0.2787834  74.30   0.00232017    3.319    0.699
       213  -9.5276    191.6270    178.3917   6.8122633179e+01   7.8247455986e+00    0.2987487    0.2557644  63.46  0.000720032    1.592    0.372
       214  -9.1044     37.0034    178.2365   1.0836659545e+02   3.2449960352e+01    0.3889881    0.1761518  64.25  0.001423138    3.095    0.677
       215  -8.6643    250.5101    172.5191   5.6140859162e+01  -1.4608645839e-01    0.2357695    0.1282372 -40.78 0.0001747909    1.523    0.344
       216  -9.3922    249.0196    177.2389   5.7272682293e+01  -7.3727577488e-01    0.3351205    0.2433764 -40.73  0.001126338    1.268    0.211
       217  -8.9979    247.3108    173.6789   5.6871725752e+01   9.5802112256e-02    0.2029709    0.1490429 -40.60 0.0004869651    1.240    0.194
       218  -9.0545    205.1555    177.7000   6.5219653601e+01   5.7140521507e+00    0.2485849    0.1760903 -47.19 0.0007287047    1.449    0.310
       219  -7.9318    169.4800    178.4980   7.3021960376e+01   1.1653341170e+01    0.1473801    0.1413792 -14.78  5.54833e-05    1.091    0.083
       220  -8.5026    129.1619    177.1705   8.2702820640e+01   1.9202018358e+01    0.2799006    0.2054417 -86.40 0.0007532819    2.014    0.504
       221  -8.4538    231.1683    176.7741   6.0182217707e+01   1.8554475227e+00    0.2298476    0.1551083 -44.53  0.000648435    1.428    0.300
       222  -8.4525    217.5795    176.8955   6.2666635736e+01   3.8886431125e+00    0.2514523    0.1550886 -50.51 0.0008282638    1.789    0.441
       223  -9.0387    183.1024    175.9768   6.9453464516e+01   9.7813791680e+00    0.2957881    0.2330573 -61.60 0.0006942836    1.592    0.372
       224  -7.9544     97.3597    177.3161   9.1353232470e+01   2.4596591127e+01    0.1614239    0.1179683 -18.30  0.000704324    1.756    0.431
       225  -8.6429     89.0315    176.7267   9.3580954918e+01   2.6062246006e+01    0.3182744    0.2183224  76.80 0.0007402658    1.964    0.491
       226  -9.2550     58.7219    175.4622   1.0196384464e+02   3.0665092556e+01    0.5517506    0.2566359  62.58  0.001826843    3.522    0.716
       227  -9.2974     55.8161    170.6461   1.0210768654e+02   3.2284457498e+01    0.5389528    0.2939249  81.67  0.001999466    2.744    0.636
       228  -8.8272     12.9973    176.4405   1.1460332185e+02   3.5122732619e+01    0.3585744    0.1580562  67.70  0.001454421    2.757    0.637
       229  -9.1707    158.9280    174.9522   7.4771311562e+01   1.4323450515e+01    0.4059705    0.2779506  70.80  0.001314498    2.598    0.615
       230  -9.2005    104.1626    174.5783   8.8966911837e+01   2.4169156580e+01    0.4948969    0.2943976  63.98  0.001676886    2.591    0.614
       231 -10.5504     76.0317    170.5733   9.6254288656e+01   2.9595206052e+01     1.244809    0.5152322 -76.25  0.003419052    4.679    0.786
       232  -8.3745    224.4351    173.7841   6.0790169528e+01   3.4015973809e+00    0.2529884    0.1161507 -44.70  0.000884286    2.010    0.503
       233  -8.0390    241.4998    173.5501   5.7795882637e+01   9.2914695983e-01     0.131422    0.1054167 -25.47 6.224216e-05    1.017    0.017
       234  -9.3051    175.8532    172.3283   7.0299572649e+01   1.1827481881e+01    0.3074479    0.2312794 -44.89 0.0005877205    1.310    0.237
       235  -9.3469     44.9798    170.6304   1.0521191328e+02   3.3561842191e+01    0.4132307    0.2452511  79.69  0.001572699    2.069    0.517
       236  -8.3158    134.6802    171.3962   8.0104425854e+01   1.9578501213e+01    0.2327507    0.1871877  72.02 0.0008447021    1.620    0.383
       237  -9.3989    121.3153    170.2396   8.3421019606e+01   2.2275222106e+01    0.3784973    0.2851789 -86.09 0.0009272025    1.826    0.452
       238  -8.9584    230.4679    169.5995   5.8894457206e+01   3.2397450450e+00    0.2565216    0.1633053 -33.17  0.000749681    1.343    0.255
       239  -8.4030    205.7467    169.8108   6.3498117215e+01   7.1382858719e+00    0.2677754    0.1597888 -58.71   0.00078956    2.387    0.581
       240  -8.6828    198.4926    170.0657   6.4995568224e+01   8.3140804100e+00    0.2145335    0.1996278 -70.18 0.0009608422    1.354    0.261
       241  -8.9508    111.4983    168.3814   8.5746070556e+01   2.4467802754e+01     0.487971    0.3325305 -39.95  0.002159633    1.534    0.348
       242  -8.5493    137.8032    179.2629   8.0878260643e+01   1.7165893639e+01    0.2851142    0.2130948 -84.00  0.001247244    1.976    0.494
       243  -8.8629    244.4548    169.1066   5.6455512533e+01   1.2757365429e+00    0.1911573    0.1679366 -48.89 0.0005704938    1.337    0.252
       244  -8.3630    237.2934    169.0863   5.7629825689e+01   2.3133816481e+00    0.1939705    0.1417072 -37.25 0.0009048331    1.164    0.141
       245  -9.0312    167.1996    168.5637   7.1483155045e+01   1.4211584157e+01    0.3450522    0.2561961  65.90  0.001116292    1.945    0.486
       246  -8.1847    149.7556    169.2283   7.5817261791e+01   1.7299908095e+01    0.2347163    0.1971406 -76.35 0.0007315857    1.504    0.335
       247  -8.1706    218.9246    168.2840   6.0689853006e+01   5.2749724910e+00    0.1846703     0.165135 -18.20 0.0004725151    1.068    0.064
       248  -7.9050     88.5360    168.5022   9.2284291178e+01   2.8249082301e+01    0.1527482    0.1471357  79.17 8.202555e-05    1.055    0.052
       249  -8.9783    191.9157    166.4366   6.5589016505e+01   1.0183929693e+01    0.3108048    0.1948899 -45.45 0.0006978243    1.530    0.346
       250  -9.1809    185.0342    166.4140   6.7039453703e+01   1.1414946780e+01    0.2816201    0.1975195 -56.33 0.0006931231    1.658    0.397
       251  -9.7163    137.0547    164.4121   7.8032735170e+01   2.0794059948e+01     0.670379    0.3342378  55.18  0.002014038    3.104    0.678
       252  -9.9443     94.9423    162.4233   8.9297785309e+01   2.8786477791e+01     0.911159    0.5351993  80.58  0.002897853    3.682    0.728
       253  -9.5251     20.4628    165.8422   1.1157461815e+02   3.7212331750e+01    0.3654401    0.1797668  53.85   0.00161594    2.252    0.556
       254  -8.3290    233.9422    164.9338   5.7376167200e+01   3.5483249597e+00    0.1936845    0.1496591 -57.69 0.0005327294    1.592    0.372
       255  -9.9184     33.5734    163.3614   1.0756359337e+02   3.6661001569e+01    0.5572256     0.230853  53.63  0.002043963    3.080    0.675
       256  -8.9462    246.0906    162.8400   5.4982751717e+01   2.1201818636e+00    0.2570394    0.1433712 -42.14 0.0005099361    1.506    0.336
       257  -8.5362    213.0066    163.4240   6.0793762388e+01   7.1545399117e+00    0.2607738    0.1743779 -50.90 0.0004770228    1.581    0.367
       258  -8.4981    159.7870    164.0897   7.2275879241e+01   1.6581183061e+01    0.2310696    0.2123047 -86.16 0.0008649678    1.320    0.243
       259  -8.0845     63.1583    163.8629   9.8933765138e+01   3.3130833211e+01    0.2136934    0.1834038 -68.27 0.0004379545    1.113    0.101
       260  -8.6484     60.2872    159.7928   9.9138983216e+01   3.4578071540e+01    0.3665455    0.2268037  64.98  0.001546675    2.079    0.519
       261  -8.2832    204.8163    162.7862   6.2224808445e+01   8.6620936157e+00    0.1843234    0.1641832 -56.92 0.0005821089    1.299    0.230
       262  -9.3633      3.4320    162.2533   1.1591945778e+02   3.9414459710e+01    0.4399519    0.1967371  56.44  0.001942772    2.504    0.601
       263  -8.8628    177.3674    160.4452   6.7433560324e+01   1.4071660599e+01    0.2948266    0.2415772 -65.70 0.0005886103    1.495    0.331
       264  -8.6962    151.7600    160.8613   7.3530766954e+01   1.8834549466e+01    0.2783009    0.2151722 -69.50 0.0009509295    1.640    0.390
       265 -10.0918    249.5924    157.0889   5.3326132262e+01   2.6016991322e+00    0.4125095    0.2885881 -58.77  0.001385317    1.805    0.446
       266  -9.0950    245.2785    158.3472   5.4236984194e+01   3.0138704827e+00    0.2183948    0.1351027 -29.10 0.0005380868    1.467    0.318
       267  -8.7264    227.3725    158.9666   5.7301916179e+01   5.6458613712e+00    0.2755965    0.1828748 -54.76  0.001020903    1.737    0.424
       268  -8.5315    237.0953    158.8208   5.5640044693e+01   4.1562026044e+00     0.195709    0.1647973 -48.74 0.0006155809    1.264    0.209
       269  -8.0940    128.6071    159.2731   7.9175091062e+01   2.3608728316e+01     0.247537    0.1920448  81.53   0.00108319    1.795    0.443
       270  -9.6065    105.8176    157.7823   8.5222356706e+01   2.8125338150e+01    0.4952043    0.3381033  76.13  0.001246606    2.266    0.559
       271  -8.9137    196.5208    157.6409   6.2779498961e+01   1.1138485382e+01      0.27438    0.1945038 -68.79  0.001195452    2.108    0.526
       272  -9.0791    167.6037    157.0681   6.8904901999e+01   1.6646676576e+01     0.370749     0.274406 -81.35  0.001065164    2.146    0.534
       273  -8.4442    217.9598    156.4050   5.8434863427e+01   7.6570241030e+00    0.2716247    0.1695795 -52.16 0.0008565111    1.720    0.418
       274  -8.2089    187.9989    157.3286   6.4464480173e+01   1.2752113433e+01    0.1993619    0.1902204 -12.26 0.0005150121    1.068    0.064
       275  -8.5675    157.4532    155.9025   7.1047012076e+01   1.8862808671e+01    0.2815806    0.2238899 -63.26  0.001082852    1.465    0.317
       276  -9.0657    119.5046    154.9755   8.0745157220e+01   2.6357702717e+01    0.3782029    0.2698528 -83.61  0.001005065    2.065    0.516
       277  -9.3538     81.8329    154.8224   9.1735408136e+01   3.2844567763e+01    0.4866512    0.3046375  68.24  0.001637179    2.373    0.579
       278  -9.4116     49.8651    155.1051   1.0156205575e+02   3.7095171962e+01    0.4544578    0.2357996  58.64   0.00173857    2.607    0.616
       279  -8.4949     41.9912    156.7962   1.0420363034e+02   3.7526001177e+01    0.1809648    0.1156879  24.72 0.0004869862    1.714    0.417
       280  -9.5912    242.8204    154.8049   5.3928256487e+01   3.9953571326e+00    0.1941882    0.1841675 -21.08 0.0004449309    1.193    0.162
       281  -7.7298    204.7122    155.3431   6.0677337079e+01   1.0136340545e+01    0.1390042    0.1109497 -68.64 0.0006604157    1.647    0.393
       282  -8.3847    144.7232    154.7578   7.3954414005e+01   2.1598509712e+01    0.2118475    0.1886496  85.81  0.001043167    1.362    0.266
       283  -9.4604     68.1582    153.6861   9.5705166672e+01   3.5141471285e+01     0.465431    0.2669739  61.79    0.0015642    2.469    0.595
       284  -9.6059    132.8169    152.7275   7.6611796293e+01   2.4384212046e+01    0.4690315    0.3534058  89.95  0.001093051    1.956    0.489
       285  -9.2390    133.5806    148.2162   7.5390867674e+01   2.5313620084e+01    0.4342811    0.2096741 -40.32  0.001561531    2.179    0.541
       286  -8.4129    151.5858    152.3268   7.1683668467e+01   2.0818272074e+01    0.2945095    0.1503927 -51.52 0.0007740355    2.039    0.510
       287  -9.7897     29.2233    150.2330   1.0717699886e+02   4.0518155921e+01    0.5387169    0.2680157  70.62  0.002037181    2.987    0.665
       288  -8.7595      3.2929    150.9609   1.1494314451e+02   4.2296833318e+01    0.3613117    0.1413219 -84.69  0.001446981    2.557    0.609
       289  -8.8881    189.3511    150.1056   6.2606603095e+01   1.3985078155e+01    0.3084012    0.2290361 -59.34 0.0007602309    1.563    0.360
       290  -8.3370    182.2058    150.9974   6.4306848404e+01   1.5152748768e+01    0.2423822    0.1735418 -70.57 0.0009482674    2.028    0.507
       291  -8.8109     98.3080    150.5688   8.5923025978e+01   3.1263597679e+01     0.334654    0.2332721 -89.61 0.0008977674    2.110    0.526
       292  -9.6259    248.9239    149.0747   5.1870177859e+01   4.0734420252e+00    0.3270324    0.1713174 -38.86 0.0007663278    1.546    0.353
       293  -9.0301    247.0957    143.7129   5.1091796555e+01   5.2726889327e+00    0.2440357    0.1547433 -36.61 0.0004444604    1.300    0.230
       294  -8.5878    243.0386    149.8299   5.2912686917e+01   4.8312582728e+00    0.2405364    0.1411071 -49.49 0.0009552778    1.651    0.394
       295  -8.6440    237.4440    150.4467   5.3914356637e+01   5.5888554204e+00    0.1331407    0.1099682 -34.61 0.0001155816    1.012    0.012
       296  -8.1856    162.4170    150.2795   6.8600395504e+01   1.9148601846e+01    0.2168664    0.1455392 -54.74 0.0008672652    1.611    0.379
       297 -10.1196     89.3775    146.4779   8.7766284546e+01   3.3815566055e+01    0.7207454    0.4453234 -88.86  0.002548303    2.888    0.654
       298  -7.9797    212.8741    149.6129   5.7934950667e+01   9.8135955594e+00    0.1723369    0.1358466  56.63 0.0004080954    1.587    0.370
       299  -8.3087    198.9099    148.8892   6.0417886193e+01   1.2455210513e+01    0.2176228    0.1740241 -72.82 0.0006744837    1.660    0.397
       300 -10.7835     54.8995    144.9891   9.8328832284e+01   3.9174744535e+01    0.9679475     0.598376 -83.91  0.003385957    1.993    0.498
       301 -10.2572     62.1889    135.0709   9.4113095008e+01   4.0855639940e+01    0.6077382    0.4194685  25.82  0.001732163    1.545    0.353
       302 -10.4324     60.2536    125.1008   9.2722437520e+01   4.3703375042e+01    0.7623973    0.4688518  78.25   0.00284732    2.909    0.656
       303 -10.0506     39.7668    147.6602   1.0355296020e+02   4.0175471914e+01    0.5477456    0.2931464  64.92   0.00175657    2.668    0.625
       304 -10.6434    241.0997    144.6733   5.2187286731e+01   6.0350821398e+00    0.4550571    0.2881379 -21.58  0.002346065    1.819    0.450
       305  -8.8567     78.0425    146.9835   9.1378582936e+01   3.5473008499e+01    0.2521382    0.1850505  71.63 0.0007807131    1.745    0.427
       306  -9.5234     13.3846    146.0046   1.1146432330e+02   4.2902257444e+01    0.3212468    0.2137323  63.34  0.001625314    1.656    0.396
       307  -8.0813    223.4429    146.5338   5.5426822170e+01   8.5779253190e+00    0.1381665    0.1178082 -35.68 8.348377e-05    1.016    0.016
       308  -7.8322    206.6920    146.3080   5.8370433366e+01   1.1547194184e+01    0.1375473    0.1107984 -72.00 0.0005503439    1.614    0.380
       309  -8.4293    175.4914    146.1343   6.4677098267e+01   1.7478196866e+01    0.2352957    0.2128205  86.72 0.0007532666    1.340    0.254
       310  -9.8062    139.1992    144.9705   7.3157896492e+01   2.4972381792e+01    0.4439737    0.3046211 -73.13  0.001407926    2.132    0.531
       311  -8.7317    165.8178    144.0507   6.6384520298e+01   1.9844169853e+01    0.3068724    0.2158269 -65.14 0.0008651606    1.828    0.453
       312  -9.5480    125.1298    142.6152   7.6404984983e+01   2.8308481324e+01    0.5183592     0.356574 -88.12  0.001387976    2.514    0.602
       313  -7.6730    194.3375    143.7010   6.0182577608e+01   1.4346083672e+01    0.1431376    0.1163128 -80.69 0.0007033962    1.659    0.397
       314  -9.8440     73.4711    129.3530   8.9172745444e+01   4.0742169347e+01    0.5162217    0.3344751  68.61  0.002043142    2.400    0.583
       315 -10.5622     69.5287    140.7833   9.2849758904e+01   3.8347385955e+01    0.6125575    0.4119701 -88.66  0.002035801    2.022    0.505
       316 -10.1453     71.3018    133.8202   9.0851199240e+01   3.9909141954e+01    0.6332145    0.2440918  28.75    0.0021684    2.784    0.641
       317 -10.1236    148.9830    144.6870   7.0585741043e+01   2.3081239164e+01    0.5813975    0.4033352 -83.98   0.00151124    2.520    0.603
       318  -8.3589    182.2777    141.4613   6.2152139023e+01   1.7129832883e+01    0.2524612     0.176925 -62.19 0.0007462642    1.752    0.429
       319  -9.4156      2.6067    141.4678   1.1421439369e+02   4.4763956112e+01    0.3768731    0.1936868  70.68  0.001520835    2.327    0.570
       320  -8.4955    250.3302    140.4599   4.9981314528e+01   5.3374855359e+00    0.2184673    0.1275845 -52.44 0.0008229724    1.737    0.424
       321  -9.5382    233.6284    147.3466   5.3902748943e+01   6.7488836439e+00    0.3028298    0.1362844 -40.65  0.000966935    1.866    0.464
       322 -10.0703    106.4744    144.1936   8.2116569635e+01   3.1438723251e+01    0.6278728    0.4005816  72.91  0.002104708    2.815    0.645
       323  -9.0946     45.7655    139.9196   1.0040287229e+02   4.1581147005e+01    0.3286919    0.1931779  27.01  0.001331095    1.826    0.452
       324 -10.1562     23.2918    137.8643   1.0736171323e+02   4.4270898840e+01    0.4988169    0.2734352  62.24  0.001944237    2.381    0.580
       325  -9.0932     18.8022    138.6171   1.0889249513e+02   4.4425412366e+01     0.263191    0.1379691  20.41  0.001227877    2.171    0.539
       326  -8.6358    172.1539    138.1861   6.3592179484e+01   1.9836017022e+01     0.282049    0.1954183 -68.38 0.0009560874    1.997    0.499
       327  -8.9326    140.3062    137.4041   7.1086948563e+01   2.6512064603e+01    0.5011494    0.3031418  -4.17  0.001512825    3.910    0.744
       328  -7.4880    218.6980    138.3460   5.4519410489e+01   1.0920434395e+01     0.138773     0.103475 -66.45 0.0007039127    1.686    0.407
       329  -8.1207    207.5683    137.7982   5.6366551724e+01   1.3035037312e+01    0.2018133    0.1227874 -51.24 0.0008122811    1.651    0.394
       330  -8.5913    197.6134    137.4927   5.8163432273e+01   1.4963779623e+01    0.2792495    0.1634938 -46.35 0.0007380111    1.595    0.373
       331  -8.4704    150.3224    136.2336   6.8259240802e+01   2.4727673119e+01    0.3746371    0.2268116  -5.59  0.001138487    3.889    0.743
       332 -10.4301     83.2900    133.0676   8.6784410397e+01   3.8259349227e+01    0.6360152    0.4085529 -59.15  0.001513345    1.572    0.364
       333  -9.2368    248.4284    135.0979   4.9201501747e+01   6.5480396273e+00    0.2913106    0.1769836 -45.61 0.0007406696    1.383    0.277
       334  -8.4840    246.8666    130.1413   4.8443525053e+01   7.6439138705e+00    0.2327698    0.1521177 -41.90 0.0005813698    1.243    0.195
       335  -8.2493    162.6164    136.3602   6.5332826180e+01   2.2171479478e+01    0.2210356     0.183374 -83.57  0.000634848    1.540    0.351
       336  -9.4728     39.1346    135.7561   1.0188045054e+02   4.3381881170e+01    0.2946277    0.2301688  73.99 0.0008611435    1.464    0.317
       337  -8.6836    179.7242    133.9317   6.0963642146e+01   1.9202017619e+01    0.2780418    0.1975074 -58.32 0.0008844103    1.572    0.364
       338  -8.8942    113.1518    133.3523   7.7634596002e+01   3.2877949549e+01    0.3396384    0.2501914  73.32 0.0009061291    1.931    0.482
       339  -8.5700      3.6602    134.7084   1.1317797906e+02   4.6432104464e+01    0.1385761   0.08186939 -44.26  0.000702576    1.648    0.393
       340  -8.0902    237.5072    133.0489   5.0393823143e+01   8.6611383582e+00    0.2036769    0.1103126 -43.33 0.0006694655    1.543    0.352
       341  -9.0325    143.0870    131.5216   6.8945013466e+01   2.7288960713e+01      0.31801    0.2409217 -73.34 0.0007708001    1.728    0.421
       342  -9.8382    132.1461    131.0310   7.1708403832e+01   2.9657224168e+01    0.4175864    0.2728088 -65.11  0.001005374    1.993    0.498
       343 -10.2330     97.9729    130.0076   8.1422335745e+01   3.6525953316e+01    0.6728161    0.2841243 -51.74  0.001730559    2.308    0.567
       344 -10.3642     13.0676    128.8159   1.0945535457e+02   4.7370028516e+01     0.607129    0.3141222  76.58  0.002123053    2.670    0.625
       345  -7.5202    204.6470    130.2963   5.5249750163e+01   1.5027885624e+01    0.1421854    0.1104364 -77.16 0.0004915888    1.689    0.408
       346  -8.8266    168.4491    129.3031   6.2322668724e+01   2.2483508049e+01    0.3064934    0.2287031 -75.99  0.000741612    1.841    0.457
       347  -9.2797    153.0742    128.8713   6.5801591603e+01   2.5795159448e+01    0.4435258    0.2532456 -57.00 0.0007428168    2.081    0.519
       348  -8.1399      1.6558    130.2880   1.1331753741e+02   4.7669205686e+01    0.1308493   0.08942923  63.27 0.0005702339    1.650    0.394
       349  -8.2639    211.5335    129.0333   5.3750689002e+01   1.3969935292e+01      0.20158    0.1101432 -59.34 0.0008086474    2.455    0.593
       350  -7.7111    192.9755    129.7742   5.7321917225e+01   1.7396541086e+01    0.1773952     0.122955  45.58 0.0003106399    1.570    0.363
       351 -10.7508     44.8063    123.1992   9.7700221500e+01   4.6063154810e+01     1.108412     0.601594  74.47   0.00370325    3.887    0.743
       352  -9.7950    117.8970    125.1069   7.4223024340e+01   3.3930886505e+01    0.5390227    0.3817776  83.90  0.001226214    2.346    0.574
       353  -7.7378    228.5312    125.4780   5.0204537810e+01   1.1539460572e+01    0.1363326    0.1151827 -46.59 0.0003258075    1.050    0.048
       354  -8.8890    179.4254    124.7193   5.8866610491e+01   2.1157011467e+01    0.2763362    0.2285331 -83.02 0.0007194154    1.491    0.329
       355 -10.5656     28.5944    122.0460   1.0316600180e+02   4.7943879280e+01    0.7755786    0.3996932  71.32  0.002783095    3.572    0.720
       356  -9.6244    130.7177    118.1853   6.8852951211e+01   3.2897481241e+01    0.5005977    0.3332172 -78.11  0.001247627    2.610    0.617
       357  -7.7831    188.3494    123.7004   5.6826468452e+01   1.9530377870e+01    0.1487668    0.1154074 -80.46 0.0007037093    1.688    0.408
       358  -8.9104    250.7572    129.6123   4.7796306703e+01   7.1177579586e+00    0.4320573   0.09643655 -40.23  0.001440117    3.700    0.730
       359  -8.9125    158.6586    121.3552   6.2619063363e+01   2.6238459329e+01    0.3101618    0.2412948 -80.65 0.0007968034    1.704    0.413
       360  -8.3105    171.9901    121.3265   5.9625611811e+01   2.3406950801e+01     0.204274    0.1981918  83.22 0.0004665877    1.089    0.082
       361  -9.7398     71.2893    119.6567   8.7709592924e+01   4.3536348600e+01    0.3600886    0.2613991 -80.82 0.0009853884    1.807    0.447
       362  -9.8338    141.5461    118.3248   6.6033699806e+01   3.0564782630e+01    0.4660859    0.3082448 -64.38   0.00108786    1.972    0.493
       363  -9.9031      2.8850    117.1155   1.1133337358e+02   5.0943104322e+01    0.5244201    0.2554923  72.66   0.00215126    3.031    0.670
       364  -7.9438    244.0074    124.0388   4.7629734077e+01   9.1539248985e+00    0.1638668    0.1202778 -42.00 0.0004759287    1.117    0.105
       365  -7.7807    231.5535    117.4935   4.8081967990e+01   1.2419645243e+01    0.1351825    0.1121739 -49.77 0.0002844408    1.063    0.059
       366  -9.7231    109.4374    114.0561   7.3875240795e+01   3.8204056794e+01     0.525869    0.3670426 -80.05   0.00137391    2.303    0.566
       367 -11.1812    248.6258    105.7887   4.3382174128e+01   1.1447966789e+01    0.7488979     0.257547 -42.68  0.003205668    2.328    0.570
       368  -7.9364    167.4107    114.2580   5.8883920770e+01   2.5833215503e+01    0.2079735    0.1396671 -51.98 0.0003992536    1.518    0.341
       369 -10.1635     92.6182    111.5611   7.8508211254e+01   4.1984949702e+01    0.7981821    0.3449313 -54.49  0.002772193    2.505    0.601
       370  -9.8002     78.8681    112.2184   8.3288302345e+01   4.4194873161e+01    0.4949011    0.3665099  81.34  0.001554822    2.053    0.513
       371  -8.9372     36.4545    114.3438   9.8956513870e+01   4.9199469396e+01    0.2317255     0.161589  47.55  0.001006183    1.710    0.415
       372  -8.1146    193.1446    115.1660   5.3925245152e+01   2.0216675063e+01    0.2025007    0.1594353 -61.78 0.0004323354    1.339    0.253
       373 -10.4568    133.7726    109.3253   6.5701372486e+01   3.4199267993e+01    0.7401869    0.3150414 -50.54  0.002199707    2.583    0.613
       374  -8.8985     51.1291    112.3441   9.3180769819e+01   4.8106661433e+01     0.262132    0.2090185 -63.74 0.0006423644    1.262    0.208
       375  -8.6062    174.8258    111.7280   5.6688403297e+01   2.4742243342e+01    0.2751785    0.1841581 -66.11 0.0006770584    1.928    0.481
       376  -8.5426    159.1421    111.6247   6.0063229745e+01   2.8170705006e+01    0.2645043    0.2007043 -54.24 0.0005265196    1.359    0.264
       377 -10.8747     14.2071    110.8500   1.0644010578e+02   5.1876270709e+01    0.4479397    0.3189083  59.60    0.0017266    1.746    0.427
       378 -10.1784     66.4315    110.1080   8.7119318145e+01   4.6627992485e+01    0.4155095    0.3038613 -82.62  0.001257814    1.886    0.470
       379  -8.0051    189.4423    107.9571   5.2919162127e+01   2.2359656659e+01    0.2218271    0.1336048 -43.50 0.0006542752    1.544    0.352
       380  -8.6047     78.4710    105.0200   8.1552572171e+01   4.5987309957e+01    0.3389076    0.1889294 -25.54  0.001240259    2.544    0.607
       381  -9.6224     81.9397    100.4600   7.9105443466e+01   4.6467319573e+01    0.4740957    0.2899668 -45.80  0.001459463    1.585    0.369
       382 -10.7243     22.8386    102.4551   1.0173515286e+02   5.3366611316e+01     0.728631    0.4297974  74.25  0.002776713    2.811    0.644
       383  -9.3442    139.9181    104.3291   6.2770596916e+01   3.3915796781e+01    0.3932806    0.2844911 -64.46  0.000799897    1.693    0.409
       384 -10.4520     45.4337    101.7566   9.2884918838e+01   5.1395933417e+01    0.7448239    0.4621353  76.17  0.002870948    3.190    0.686
       385  -9.0538     46.8501     92.0965   8.9944770835e+01   5.3541978132e+01    0.5789949    0.2802798   3.53  0.002024111    3.459    0.711
       386  -8.4511    166.7893    104.0981   5.6468585742e+01   2.8000651185e+01    0.2332998    0.1964709 -67.09 0.0005985057    1.273    0.214
       387  -9.4157    150.4119    102.6516   5.9759433963e+01   3.1930049803e+01    0.4195159    0.2527926 -59.67  0.001028687    2.104    0.525
       388  -9.9144    128.4034    101.7874   6.5092406384e+01   3.6971511751e+01    0.3374926    0.2780806 -73.84 0.0006872824    1.479    0.324
       389  -9.3479      6.8146    102.8924   1.0789273308e+02   5.4289868651e+01    0.2427468    0.1701888  86.92 0.0008807607    1.642    0.391
       390  -8.1349    159.8165    100.9692   5.7174570870e+01   3.0164164242e+01    0.2455976    0.1644649 -64.19 0.0006861734    1.875    0.467
       391 -10.2059    108.9308     98.6957   6.9810232560e+01   4.1751512090e+01    0.5661201      0.38808  73.51  0.001421311    2.413    0.586
       392 -10.2220     64.0213     95.7393   8.4278244772e+01   5.0415516855e+01    0.5853009    0.4053829  87.87  0.001652696    2.675    0.626
       393  -9.1153     95.0555     96.7752   7.3635346228e+01   4.4916834484e+01    0.2907325    0.2489414 -70.71 0.0006505207    1.421    0.296
       394  -9.6043    122.0522    112.1903   6.9681100576e+01   3.6061557155e+01    0.3411026    0.2522791 -61.51  0.000675549    1.568    0.362
       395  -8.0834    151.3134     95.3318   5.7599896638e+01   3.3177280675e+01    0.1537043    0.1212623   6.70 0.0007044962    1.679    0.404
       396  -7.9694    164.8136     94.3034   5.4374986579e+01   3.0323760457e+01    0.2046525    0.1761045 -59.53 0.0003235501    1.171    0.146
       397  -8.7683     56.8208     94.6111   8.6708512624e+01   5.1690581017e+01    0.2063138    0.1290396  39.57 0.0009442593    1.769    0.435
       398  -7.9953    176.4289     93.1729   5.1768597909e+01   2.7933276899e+01    0.2108491    0.1280558 -52.70 0.0006630854    1.700    0.412
       399  -9.2419    139.0196     92.0959   5.9646933907e+01   3.6586557351e+01    0.3594572    0.2778861 -76.54  0.000694734    1.669    0.401
       400  -8.8173    120.5964     93.1793   6.4819361426e+01   4.0452024531e+01    0.2857613    0.2251782  27.66  0.001373719    1.347    0.257
       401  -9.6652    124.5927     90.7041   6.3000921155e+01   4.0079642770e+01    0.3851759    0.3012576 -71.05 0.0008408603    1.631    0.387
       402  -8.8673    107.6340     92.5900   6.8441607485e+01   4.3316083503e+01     0.259317    0.1823716  20.65  0.001142736    1.682    0.405
       403  -9.7813     34.8541     89.6937   9.4176368383e+01   5.5406076996e+01    0.4768707    0.2862621 -78.70  0.001735056    2.477    0.596
       404  -9.7568      5.1643     91.6447   1.0665693527e+02   5.7109159400e+01    0.2839878    0.2177095  79.73  0.001086629    1.612    0.380
       405  -8.1678     29.6802     91.2801   9.6664324480e+01   5.5515061181e+01    0.1274482    0.1055023  61.77 0.0002295195    1.582    0.368
       406  -9.1439     23.0324     89.7022   9.9027153642e+01   5.6444009984e+01    0.3035884     0.213624  -9.49  0.001222654    1.492    0.330
       407  -8.7690    247.3132     89.3334   4.0291792255e+01   1.4323484822e+01    0.1148924   0.09520268 -12.02 0.0007045298    1.682    0.405
       408  -7.7714    151.2733     88.6728   5.5811516179e+01   3.4455786677e+01      0.15031    0.1160109 -74.64 0.0002712799    1.584    0.369
       409  -9.8514     86.3845     86.1471   7.3406571727e+01   4.8831642786e+01     0.528443    0.3713844 -62.16  0.001883393    1.853    0.460
       410  -8.6732     64.4275     87.8371   8.1903365583e+01   5.2152050049e+01    0.2874432    0.1763999 -12.71  0.001183429    2.243    0.554
       411  -7.6862    164.0037     86.9828   5.2635240388e+01   3.1858441964e+01    0.1738721    0.1675702 -82.02 0.0004134934    1.004    0.004
       412  -9.7685     48.5066     83.8194   8.7042448177e+01   5.5238311007e+01    0.5428616    0.4093078 -88.61  0.002470113    2.110    0.526
       413  -9.8099    104.7333     82.5082   6.6308672326e+01   4.5963970063e+01    0.5398504    0.3053024 -51.32  0.002077294    2.043    0.511
       414  -9.9121     10.1599     81.7181   1.0269764745e+02   5.9187308518e+01     0.443316    0.2639689 -88.58  0.001491467    2.441    0.590
       415  -9.1209    140.9581     82.3257   5.6432267177e+01   3.7994502512e+01    0.3522919    0.2016301 -50.88  0.001075816    1.937    0.484
       416  -7.8624    185.5665    115.5370   5.5453495156e+01   2.1713503099e+01    0.1477902    0.1358318 -54.61 9.157303e-05    1.049    0.046
       417  -8.1374     64.1642     82.2632   8.0355961136e+01   5.3412181467e+01    0.1871517    0.1757923  85.16   0.00085547    1.377    0.274
       418  -9.6346     24.6917     80.4921   9.6179646351e+01   5.8456671694e+01    0.4113385    0.2807324  87.80  0.001409513    2.347    0.574
       419  -8.5259    150.4373     80.6840   5.3810289469e+01   3.6106769870e+01    0.2635619    0.2009455 -60.00 0.0007378015    1.440    0.306
       420  -8.6446     74.8109     80.5155   7.5796696184e+01   5.2063397902e+01    0.2721461    0.1928738 -62.09 0.0007540804    1.856    0.461
       421  -8.2100    158.1230     83.8820   5.3029744207e+01   3.3763357516e+01    0.2213182     0.190871 -74.38 0.0003912606    1.234    0.190
       422  -8.5797    119.2102     79.8411   6.1275329900e+01   4.3368351835e+01    0.2636507    0.1990263 -52.54 0.0009726073    1.471    0.320
       423  -8.1730    166.8213     79.3391   5.0075336691e+01   3.2563836695e+01    0.1994936    0.1673084 -53.63 0.0004902172    1.177    0.150
       424  -8.3083    184.2090     78.0188   4.6606529027e+01   2.8847732457e+01    0.1898959     0.108276 -39.59 0.0005513193    1.713    0.416
       425  -9.1225    128.1663     75.1737   5.7497535986e+01   4.2210956918e+01    0.3393131    0.2374301 -59.14 0.0006356794    1.746    0.427
       426  -8.4830    140.4913     75.1045   5.4482337439e+01   3.9391380383e+01    0.2163206    0.1450339 -41.18 0.0006222345    1.536    0.349
       427  -9.9573     63.2542     73.3694   7.7940872675e+01   5.5413774732e+01    0.4713465    0.2915626 -57.82  0.001077694    2.064    0.515
       428  -8.5132    163.4895     73.0889   4.9068884689e+01   3.4389081663e+01    0.3069323    0.1271172 -44.04  0.001016243    2.412    0.585
       429  -9.6295     82.4201     72.5482   7.0500336426e+01   5.2303598139e+01    0.3867154    0.2920189 -68.65  0.001031923    1.975    0.494
       430  -8.4332    115.8462     73.0587   6.0134461522e+01   4.5353395070e+01    0.2190543    0.2014595 -82.94 0.0004833557    1.258    0.205
       431  -9.1608    106.0638     71.6679   6.2516109351e+01   4.7729499071e+01    0.3071293    0.2059695 -55.52 0.0008025485    1.872    0.466
       432  -8.2528     42.7075     72.5675   8.6192727583e+01   5.8399048473e+01    0.2165133     0.172736 -74.20 0.0007040059    1.755    0.430
       433  -7.7980    175.4621     72.5000   4.6725006746e+01   3.1731696336e+01    0.1402213    0.1305432 -79.81 7.793673e-05    1.003    0.003
       434  -9.1393     95.2131     70.8986   6.5637172348e+01   5.0128540190e+01    0.3761638    0.2367746 -57.81 0.0009418501    2.222    0.550
       435  -9.3804     51.4058     69.4690   8.1516327202e+01   5.7934810072e+01     0.405729    0.2590547 -66.81  0.001671403    2.495    0.599
       436  -9.0419     28.6873     70.7402   9.1840982186e+01   6.0275375521e+01    0.3437722     0.134158 -26.37  0.001142206    3.952    0.747
       437  -9.1091     16.8192     69.9529   9.7019010059e+01   6.1421341331e+01    0.2451088    0.1940716  53.83 0.0009646007    1.781    0.438
       438  -8.5928    147.1236     67.8004   5.0924091379e+01   3.9076779615e+01    0.2449296    0.1888158 -52.91 0.0005032303    1.369    0.270
       439  -8.5700    138.6064     65.8088   5.2217011294e+01   4.1392568542e+01    0.2760721    0.2043845 -66.83 0.0007950347    1.651    0.394
       440  -8.6947    121.6080     65.7852   5.6327307339e+01   4.5317613928e+01    0.2677759    0.2092393 -68.51 0.0006698825    1.627    0.385
       441  -8.7698     37.3368     64.2237   8.5975643038e+01   6.0755324524e+01    0.2880113    0.2174119  77.91  0.001159502    2.555    0.609
       442  -8.8640    110.0852     63.4614   5.8711415915e+01   4.8281030480e+01    0.2618367    0.1994923 -55.45 0.0006853908    1.580    0.367
       443  -9.4037     97.4107     61.0711   6.1680608532e+01   5.1401266878e+01    0.4394185    0.3408929 -19.90  0.001683315    1.389    0.280
       444  -8.5820     65.9610     61.7570   7.2980195717e+01   5.7227409500e+01     0.296328    0.1691664  11.67  0.001104999    2.468    0.595
       445  -8.7747     17.2859     63.7066   9.5133145286e+01   6.2735924032e+01    0.3412224     0.105206 -34.63  0.001208651    3.505    0.715
       446  -8.0321    158.4299     61.5493   4.6924859890e+01   3.7412832740e+01    0.1404416    0.1289715 -89.82 0.0001074673    1.045    0.043
       447  -9.5120     73.3119     59.4444   6.9351387704e+01   5.6375472751e+01    0.3323891    0.2410386 -51.78  0.001048852    1.718    0.418
       448  -8.1299     88.7946     59.0072   6.3742571673e+01   5.3510625959e+01    0.1848791    0.1127565 -36.46 0.0004805309    1.719    0.418
       449 -10.0464     23.4296     56.2631   8.9967735877e+01   6.3769225260e+01    0.4002681    0.2963239  83.97  0.002036119    2.677    0.626
       450  -9.6659      7.5328     57.1391   9.8048133976e+01   6.4763577290e+01    0.2663514    0.2126665  89.17  0.001113446    1.849    0.459
       451  -8.0843    130.7333     57.5736   5.1558164737e+01   4.4524486309e+01      0.19074    0.1324329  66.48 0.0004484341    1.512    0.339
       452  -8.1722    140.0219     56.0013   4.9027361409e+01   4.2584414383e+01    0.2189648    0.1639077 -74.67 0.0004758446    1.638    0.390
       453  -9.3353    119.1355     55.2383   5.3639668970e+01   4.7555932025e+01    0.3656714    0.2318871 -50.22  0.001521478    1.870    0.465
       454  -8.7260     44.0747     55.3061   7.9929049154e+01   6.1676412292e+01    0.2711147    0.1813084 -52.22  0.001030477    1.764    0.433
       455  -9.2227    147.4956     54.6112   4.7095155983e+01   4.1026278336e+01    0.2319783    0.2258152  61.43 7.491626e-05    1.080    0.074
       456  -8.8943     54.0826     53.5813   7.4917273225e+01   6.0582390672e+01    0.3160034    0.1965689 -56.76  0.001335668    2.376    0.579
       457  -8.8444     62.9657     54.5159   7.1585042902e+01   5.9016348569e+01    0.2336767     0.186973 -50.15 0.0004955106    1.558    0.358
       458  -8.6801    105.8138     53.0831   5.6494367318e+01   5.0869983349e+01     0.204838    0.1915077 -85.02 0.0005550722    1.265    0.209
       459  -9.3807     92.5789     50.4996   5.9541098393e+01   5.4095936919e+01    0.3573838    0.2268255 -51.38  0.001076445    2.085    0.520
       460  -7.9956    144.7801     49.0205   4.6022777159e+01   4.2463659549e+01    0.1733461    0.1141142 -35.33 0.0005777391    1.641    0.390
       461  -7.9553    129.9670     49.0067   4.9107426422e+01   4.5955925661e+01    0.1614436    0.1592454  57.45 0.0003634466    1.079    0.073
       462  -8.8053    163.7948     47.7749   4.2271754373e+01   3.8148506016e+01    0.2132616   0.08862973 -44.49 0.0008690244    2.457    0.593
       463  -8.1379    221.0266     47.5292   3.4707382406e+01   2.5523876442e+01    0.1711798    0.1120386  73.04 0.0003586925    1.513    0.339
       464  -8.1539    120.8968     47.1802   5.0626510247e+01   4.8319774603e+01    0.2020421    0.1821255  88.07 0.0004949832    1.224    0.183
       465  -8.3952    112.2075     46.8773   5.2689353949e+01   5.0347753790e+01    0.2026014    0.1854772 -86.77 0.0006192899    1.263    0.208
       466  -8.6764     82.1034     46.2329   6.1417724477e+01   5.6863856124e+01    0.2186492    0.2022319 -44.90 0.0005308096    1.323    0.244
       467  -9.4865     16.8485     44.3111   8.9331556508e+01   6.6654093436e+01    0.2352717    0.1722863 -62.85 0.0008665781    1.834    0.455
       468  -8.2984     45.0333     44.3203   7.5415210249e+01   6.3493383994e+01    0.1805878     0.152157   7.79 0.0006431372    1.088    0.081
       469  -8.4575    132.6897     43.0321   4.6686991517e+01   4.6127522039e+01    0.1821111    0.1758633 -47.81 0.0004767256    1.138    0.121
       470  -8.8817     58.1660     42.2475   6.8883753247e+01   6.1824383751e+01    0.3121698    0.2037838 -55.12  0.001437467    2.453    0.592
       471  -9.9452      5.2518     41.5821   9.4624917311e+01   6.8008107679e+01    0.3387842    0.2186773 -73.64  0.001730108    2.428    0.588
       472  -8.5875    105.9948     41.3988   5.2468341364e+01   5.2489578041e+01    0.2414333    0.1888329 -52.29 0.0006706894    1.556    0.357
       473  -9.0406     69.5927     41.3310   6.4020154289e+01   5.9972528965e+01     0.269619    0.2265014 -53.69 0.0009787334    1.640    0.390
       474  -8.4331     36.7571     40.4080   7.7771391392e+01   6.5252437735e+01    0.2011821    0.1556024 -46.19 0.0007288276    1.581    0.368
       475  -8.7846     95.5224     37.9852   5.4173486107e+01   5.5234014331e+01    0.1882535    0.1334047 -32.35  0.000528855    1.560    0.359
       476  -9.5016     26.1602     35.1503   8.1002078762e+01   6.7381936388e+01    0.2691506    0.2215299 -50.02  0.001006276    1.640    0.390
       477  -8.0110    126.0346     35.3472   4.5702643906e+01   4.8658936837e+01    0.1873337    0.1586892  60.98 0.0004383618    1.057    0.054
       478  -8.5606    112.0011     34.8149   4.8700534877e+01   5.1969636704e+01    0.2183979    0.1989529 -32.06 0.0007916111    1.239    0.193
       479  -8.8807     48.7506     33.3339   6.9287517377e+01   6.4668807982e+01    0.2044258    0.1968622 -20.54 0.0007431258    1.435    0.303
       480  -8.4016    119.3706     33.1423   4.6439433190e+01   5.0474590154e+01    0.1807418    0.1200179 -44.21 0.0006894928    1.728    0.421
       481  -8.5630     60.8261     32.3575   6.3797942578e+01   6.2810990358e+01    0.1979036    0.1710177 -26.25 0.0005469671    1.323    0.244
       482  -8.7547     72.1812     30.9699   5.8967978649e+01   6.0903685840e+01    0.1796577    0.1764224  28.74 0.0006209228    1.298    0.229
       483  -9.2716     13.0563     30.0709   8.6108493062e+01   6.9514325936e+01    0.2809768    0.1918321 -58.36  0.001333351    2.081    0.519
       484  -7.8435    101.4133     29.2416   4.9417736430e+01   5.5010313210e+01    0.1683165    0.1236416 -42.19 0.0006597863    1.611    0.379
       485  -8.6727     81.8760     27.4133   5.4316828394e+01   5.9407059644e+01    0.2204147    0.1789175 -49.76 0.0008200282    1.628    0.386
       486  -9.5146      3.5875     27.2848   9.0532831230e+01   7.0715139419e+01    0.2369476    0.1990832 -64.60 0.0009886416    1.792    0.442
       487  -8.6240     91.9277     26.4148   5.0945081716e+01   5.7405339669e+01    0.2296669     0.175866 -47.43 0.0008135026    1.651    0.394
       488  -8.5312     34.9403     23.0251   7.1267832152e+01   6.8146711935e+01    0.1658501     0.154652  49.12 0.0008634188    1.735    0.424
       489  -8.8108     63.7163     20.9790   5.7872521008e+01   6.3705202187e+01    0.2378043    0.1898318 -55.10 0.0009953713    1.950    0.487
       490  -8.7733     48.2799     21.3756   6.4271740083e+01   6.6357029180e+01    0.1979007    0.1803355  53.44 0.0007321836    1.612    0.380
       491  -8.4910     19.4445     21.2467   7.8704209052e+01   7.0302535732e+01    0.1475011    0.1073899 -40.62 0.0006384456    1.612    0.380
       492  -8.7413     74.1777     19.2494   5.3503518922e+01   6.1872006780e+01    0.2152904    0.1681089 -38.29 0.0006134144    1.599    0.375
       493  -8.2234     38.7003     18.1691   6.7176532345e+01   6.8248735058e+01    0.1667711    0.1439382 -23.56 0.0005110028    1.426    0.299
       494  -8.0211     87.9578     17.4820   4.8659188445e+01   5.9194104772e+01     0.186631    0.1107332  55.18 0.0001206097    1.470    0.320
       495  -7.9811    161.7810     16.6034   3.4362121121e+01   4.2308378870e+01    0.1654598    0.1047159  82.76 0.0001987951    1.458    0.314
       496  -8.1674    112.8067     16.5968   4.2376170256e+01   5.3744378754e+01    0.1761859    0.1115949  72.63 0.0003360068    1.591    0.371
       497  -8.3233     30.3710     16.1619   7.0372799613e+01   6.9684787785e+01    0.1490665    0.1050685 -36.17 0.0005285362    1.687    0.407
       498  -7.9107     97.3007     15.2984   4.5414160710e+01   5.7366720310e+01    0.1326009   0.08250669  34.77 0.0002598132    1.579    0.367
       499  -8.7374      7.5240     15.0390   8.2930932241e+01   7.2390302538e+01    0.1330601    0.1048994 -67.07 0.0008100051    2.630    0.620
       500  -9.3255    190.3569     14.2163   3.0592680769e+01   3.6077269505e+01    0.2614614     0.144317  87.27  0.001423343    1.698    0.411
       501  -8.2102     17.3804     14.1259   7.6540469745e+01   7.1548977191e+01    0.1418928    0.1019482 -38.12 0.0002976758    1.650    0.394
       502  -7.7409    191.5162    249.4909   8.0996234110e+01  -5.0702420856e+00    0.1273071    0.1031676   6.09  0.000106393    1.049    0.047
       503  -8.0319    184.9759    250.0000   8.2424599030e+01  -4.2894935432e+00    0.2073924   0.06300479  31.52  0.000798922    2.918    0.657
       504  -8.5121    156.5150    248.2663   8.8232097727e+01  -7.4013552700e-02      0.30609     0.165574  51.16  0.001336734    2.753    0.637
       505  -8.7406    132.3612    247.8894   9.3530832412e+01   3.4638659751e+00    0.2695178    0.1987845  65.44  0.000959435    1.885    0.469
       506  -8.1804    113.3417    248.8060   9.7924825965e+01   6.0251488053e+00    0.2327007    0.1286713 -71.02  0.001066358    2.651    0.623
       507  -9.2031    103.9504    246.7738   9.9796675923e+01   7.7559564191e+00    0.4227346      0.23455 -79.16   0.00186974    2.905    0.656
       508  -8.4654     93.8440    249.0688   1.0233466378e+02   8.7127576603e+00     0.212048    0.1333901  69.12 0.0008952717    2.071    0.517
       509  -9.4713     64.7697    248.4939   1.0870859234e+02   1.2682638314e+01    0.2721768    0.1811842  45.04  0.000800803    1.270    0.213
