#   1 NUMBER                 Running object number                                     
#   2 MAG_AUTO               Kron-like elliptical aperture magnitude                    [mag]
#   3 X_IMAGE                Object position along x                                    [pixel]
#   4 Y_IMAGE                Object position along y                                    [pixel]
#   5 X_WORLD                Barycenter position along world x axis                     [deg]
#   6 Y_WORLD                Barycenter position along world y axis                     [deg]
#   7 A_WORLD                Profile RMS along major axis (world units)                 [deg]
#   8 B_WORLD                Profile RMS along minor axis (world units)                 [deg]
#   9 THETA_WORLD            Position angle (CCW/world-x)                               [deg]
#  10 FWHM_WORLD             FWHM assuming a gaussian core                              [deg]
#  11 ELONGATION             A_IMAGE/B_IMAGE                                           
#  12 ELLIPTICITY            1 - B_IMAGE/A_IMAGE                                       
         1 -13.5719    171.4066     62.6422   4.7215601383e+01   3.4361020662e+01     1.839579     1.138185  30.17  0.006103104    2.515    0.602
         2 -14.2477    212.0808     19.5207   3.1768433749e+01   3.0900752987e+01     1.049222     0.948478 -59.76  0.004681495    1.224    0.183
         3  -9.5473     80.7804    220.3580   1.0373826065e+02   1.7283754529e+01    0.1400772      0.11987  36.52 0.0002266643    1.138    0.121
         4 -14.2282    245.1369    234.7181   7.1008773493e+01  -8.8704224719e+00     2.553328    0.7823201 -35.79   0.01133469    2.871    0.652
         5 -15.6298    121.5927    235.7202   9.6336117105e+01   8.1380282421e+00     6.211575     4.292808 -58.63   0.03406593    1.662    0.398
         6  -9.0180     73.5073    205.3071   1.0363910085e+02   2.1721355497e+01    0.1365134    0.1170518  51.31 0.0003863024    1.098    0.089
         7 -10.3327    164.5932    249.2934   8.8949028625e+01  -6.2094556330e-01    0.2305995    0.1805787  -4.34 0.0004519827    1.258    0.205
         8 -11.2845     61.0223    198.5745   1.0590406716e+02   2.4970115934e+01    0.1813061    0.1724941 -87.55 0.0001585646    1.081    0.075
         9  -9.8992     51.8451    197.6494   1.0807970326e+02   2.6328237483e+01    0.2225886    0.1311488 -30.67 0.0009526019    2.733    0.634
        10  -9.7337    167.3535    245.0484   8.7738351854e+01  -3.0325315247e-01    0.1997416    0.1519632 -24.60 0.0005249169    1.356    0.263
        11 -10.1069     83.2413    194.9540   9.9804708056e+01   2.2814591734e+01    0.2950675    0.2538106  76.73 0.0008930779    1.186    0.157
        12 -10.0481    191.9985    192.9853   7.3528342583e+01   5.3461721624e+00    0.3352285    0.1782805 -61.90  0.001129314    4.216    0.763
        13  -9.8943     79.3190    236.1669   1.0585933816e+02   1.4082098503e+01    0.1154298   0.08882748  19.05 0.0006498813    1.476    0.323
        14 -10.3174     72.1121    187.8727   1.0167590701e+02   2.6110678386e+01    0.3554049    0.2122462  88.95  0.001511837    2.217    0.549
        15 -10.8794     85.3224    186.3189   9.7980639028e+01   2.4605286437e+01    0.3095869    0.2825241  85.78  0.001403818    1.096    0.087
        16 -10.5545     77.3093    185.6850   9.9995787895e+01   2.5924329550e+01    0.2728864    0.1977406  70.57 0.0008931793    1.562    0.360
        17 -11.5905     79.3820    182.6480   9.8990493138e+01   2.6379197150e+01    0.4504724    0.2903314  42.62  0.001820385    1.532    0.347
        18 -10.9721     62.5424    184.8520   1.0377206020e+02   2.8135064227e+01    0.4481802     0.227637 -42.48  0.001397224    2.440    0.590
        19 -11.8508     54.2603    241.0627   1.1176906152e+02   1.6269254210e+01     0.196517    0.1858013 -64.28  0.001284301    1.280    0.219
        20 -11.4721     91.9566    176.9611   9.4697429009e+01   2.5903691196e+01    0.6488638    0.3298454 -76.54  0.002236055    3.134    0.681
        21  -9.5441     89.4459    179.9485   9.5871827047e+01   2.5552024610e+01    0.2190278    0.1934395  72.64 0.0003304659    1.176    0.150
        22 -11.6943     85.1993    178.9061   9.6842797662e+01   2.6453359678e+01    0.2726555    0.2421669  82.13 0.0003692942    1.159    0.137
        23 -11.3893    180.7350    176.7090   7.2673877550e+01   1.0454562660e+01    0.5868407    0.3407308 -47.57  0.001530752    1.741    0.426
        24 -11.4422    155.7919    175.1826   7.8004961382e+01   1.5260516158e+01    0.5859549    0.2974759 -38.17  0.002321625    2.066    0.516
        25  -9.6490    199.6857    173.4299   6.8061154494e+01   7.8138899184e+00    0.2493444    0.1582041 -49.62 0.0007855191    1.678    0.404
        26 -12.6843    230.5911    170.5272   6.1718084285e+01   3.3261878108e+00    0.5693075    0.3465009  -4.05  0.002596003    2.450    0.592
        27  -9.8187    187.7776    169.7859   6.9742565534e+01   1.0605025236e+01    0.2968252    0.1908016 -48.89  0.001390659    1.602    0.376
        28 -10.5730     56.6632    212.0742   1.0848285253e+02   2.2332404697e+01    0.1842574    0.1343354 -76.63 0.0006407691    1.345    0.256
        29 -11.8742    246.8068    164.5306   5.7851922204e+01   1.9242340457e+00    0.3662194    0.2094722 -40.22  0.001530472    1.467    0.318
        30 -10.8998    120.7806    165.0940   8.4727443419e+01   2.3964186741e+01    0.3929974    0.2837584  85.48  0.001667661    2.068    0.516
        31 -11.3622    133.7144    145.7485   7.7133651451e+01   2.6135655691e+01     1.304209    0.3256944 -53.88  0.002932966    5.893    0.830
        32  -9.8123    133.5154    134.7190   7.4597611168e+01   2.8734361940e+01    0.2687779    0.2151203  38.88 0.0005391245    1.276    0.216
        33 -10.8164    111.7611    150.1621   8.4056726605e+01   2.9216576171e+01    0.6322787    0.3829509  78.41  0.001967274    3.923    0.745
        34  -9.9279    108.1458    151.4445   8.5343336397e+01   2.9548732814e+01    0.2752392     0.230199 -73.35 0.0006393684    1.324    0.245
        35 -11.2535    118.3451    134.9495   7.8764701485e+01   3.1668289608e+01      0.73695    0.4581946 -80.22  0.002377135    3.216    0.689
        36  -9.9258    113.1403    129.3937   7.8900713267e+01   3.3988584381e+01    0.2938824    0.2321709 -56.52 0.0006141402    1.300    0.231
        37  -9.9685    115.5084    126.5403   7.7524483603e+01   3.4207014771e+01    0.2735574    0.2490374   8.40 0.0006297847    1.152    0.132
        38 -11.9624     56.4156    235.4379   1.1081532856e+02   1.7185172610e+01    0.1978577    0.1540415 -75.85  0.000564753    1.316    0.240
        39 -11.6221    108.7216    133.7101   8.1207115447e+01   3.3785270435e+01     0.573222    0.3603964 -22.99  0.002209984    2.274    0.560
        40 -11.9007    105.7522    130.7099   8.1360886745e+01   3.5059807102e+01    0.8639271    0.5096073 -68.28  0.003239281    2.390    0.582
        41 -11.8116     97.2749    133.0044   8.4418058624e+01   3.6023023815e+01    0.3235898    0.2872928  -0.63  0.000428462    1.217    0.178
        42 -11.8162     90.9604    133.4743   8.6437070719e+01   3.6990440266e+01    0.6446499    0.3185645  55.32   0.00214683    3.155    0.683
        43 -10.5129    136.1129    128.8107   7.2478361401e+01   2.9555777620e+01    0.5757825   0.09444419 -45.76  0.001251379    5.907    0.831
        44 -18.8876     26.0329    123.3772   1.0550246257e+02   4.7836738571e+01     18.18266      4.03733 -69.32   0.05065268    4.811    0.792
        45 -10.5711    102.9017    121.9421   8.0066520497e+01   3.7690201513e+01    0.4406671     0.248152  28.32 0.0008965385    2.050    0.512
        46 -10.2332     40.9645    207.2082   1.1169371141e+02   2.5314793169e+01    0.2996715    0.1366543 -50.00   0.00131018    2.582    0.613
        47  -9.3397     92.9885    118.0300   8.2127173344e+01   4.0416035010e+01    0.2512172     0.185083 -16.93  0.001126745    1.661    0.398
        48  -9.2720    183.4825    116.4631   5.8599308149e+01   2.2179013433e+01     0.147502    0.1387961 -38.34 0.0008091529    1.024    0.023
        49  -9.2647    110.7039    116.4442   7.6350028590e+01   3.7494004025e+01    0.1977329    0.1515253  25.24 0.0004151378    1.413    0.292
        50 -11.8629    118.8810    110.0747   7.2315476074e+01   3.7298422990e+01    0.5598576    0.4342328  86.67  0.002013004    1.830    0.453
        51  -9.4152     89.9904    104.9904   7.9681126971e+01   4.4002330263e+01    0.2315302    0.1889925  77.72 0.0005164692    1.645    0.392
        52 -10.1068    205.4001    110.3364   5.3153352357e+01   1.8816877556e+01    0.2544039    0.2276255 -62.40 0.0005834762    1.112    0.101
        53 -11.3636     53.4836     95.8782   8.9977635930e+01   5.1731104657e+01    0.2945024    0.1996419  39.19 0.0007273366    1.650    0.394
        54  99.0000     54.0126    230.7911   1.1091924207e+02   1.8472267806e+01    0.3693518    0.2344832 -72.86  0.001652655    1.594    0.373
        55  -9.8814     46.6504    235.2546   1.1289935565e+02   1.8393115272e+01    0.1417075    0.1031437 -58.56 0.0008519226    1.552    0.356
        56 -10.7944     46.5512    207.1804   1.1037262870e+02   2.4684843497e+01    0.1701011    0.1142073  86.21 0.0004815499    1.491    0.329
        57 -11.8843     60.9048    226.0608   1.0893621433e+02   1.8650563054e+01    0.2343266     0.165561 -65.66 0.0008484948    1.464    0.317
        58 -11.7915     59.5762    246.2643   1.1109531933e+02   1.4554502458e+01    0.1496232     0.109549 -57.70 0.0009140965    1.577    0.366
        59 -13.4984    187.2965     49.2802   4.1365202698e+01   3.2653791874e+01    0.8410673     0.752398  79.46  0.002929374    1.089    0.081
        60 -12.5239    193.2985     42.8879   3.9027575244e+01   3.2161476695e+01    0.4473904    0.3868261  48.08  0.001525611    1.372    0.271
        61 -10.4534     72.8079     57.4082   7.0790476100e+01   5.6708312199e+01    0.3741551    0.2246032  49.84  0.001755535    1.972    0.493
        62  -9.6570     51.4296    245.3311   1.1271617160e+02   1.5732769245e+01    0.1191476   0.09119101 -22.65 0.0006893685    2.038    0.509
        63 -10.7329     76.8636     18.7416   5.4411138488e+01   6.1305616503e+01    0.2861255    0.1547756  56.31   0.00138863    1.856    0.461
        64 -10.5597     60.6038     21.0588   6.0937887994e+01   6.4134128481e+01    0.2334234    0.1555775  33.01 0.0004098918    1.287    0.223
        65 -10.0702    189.5104     14.9784   3.2873700909e+01   3.6272723315e+01      0.16815    0.1143756 -38.06 0.0005480931    1.546    0.353
        66  -9.6936     90.1677    225.4368   1.0216773440e+02   1.4856300636e+01     0.181932    0.1381502  43.70  0.000364273    1.193    0.162
