#   1 NUMBER                 Running object number                                     
#   2 MAG_AUTO               Kron-like elliptical aperture magnitude                    [mag]
#   3 X_IMAGE                Object position along x                                    [pixel]
#   4 Y_IMAGE                Object position along y                                    [pixel]
#   5 X_WORLD                Barycenter position along world x axis                     [deg]
#   6 Y_WORLD                Barycenter position along world y axis                     [deg]
#   7 A_WORLD                Profile RMS along major axis (world units)                 [deg]
#   8 B_WORLD                Profile RMS along minor axis (world units)                 [deg]
#   9 THETA_WORLD            Position angle (CCW/world-x)                               [deg]
#  10 FWHM_WORLD             FWHM assuming a gaussian core                              [deg]
#  11 ELONGATION             A_IMAGE/B_IMAGE                                           
#  12 ELLIPTICITY            1 - B_IMAGE/A_IMAGE                                       
         1 -13.9389      5.1767     11.7198   1.2184867043e+02   7.2508570299e+01     2.531229    0.6913615 -46.22   0.01227517    2.489    0.598
         2 -14.2905    199.9552     16.6997   6.5083911542e+01   3.2500447746e+01     2.711265     1.560615  34.15   0.01064831    2.384    0.581
         3 -13.6601    204.7250      9.6334   6.2645721190e+01   3.2002625889e+01     1.367138    0.7245086  50.79  0.001474637    1.976    0.494
         4 -10.9574    144.0993    243.0109   1.2756604749e+02   6.7425704819e+00    0.1884083    0.1462731  47.11 0.0005071378    1.043    0.041
         5 -12.2121    139.2842    248.7480   1.2912605452e+02   6.6766358090e+00    0.4019747    0.3104459  70.43  0.002740649    1.465    0.317
         6 -12.6203    126.7282    244.9817   1.3101682175e+02   9.2300668629e+00    0.4467079     0.319903  53.54  0.002971246    1.141    0.124
         7 -12.3735    105.9860    246.7606   1.3499762656e+02   1.2143988224e+01    0.4515359    0.2979459  24.43  0.002483411    2.152    0.535
         8 -12.3860     99.4319    249.0039   1.3638694068e+02   1.2758628597e+01    0.5546827    0.2911825  56.36  0.003281989    1.597    0.374
         9 -13.5072     82.8940    247.0157   1.3915895277e+02   1.5440355441e+01    0.8279453    0.4166014  44.56  0.004950854    1.541    0.351
        10 -12.8382     74.2969    242.8551   1.4034937366e+02   1.7309539478e+01    0.4968634    0.2481404  37.93  0.001789347    1.890    0.471
        11 -15.0996     32.1190    247.4447   1.4781493121e+02   2.1734206615e+01     8.806923     2.714471  30.29   0.02883169    8.573    0.883
        12 -11.3016     33.6454    228.9256   1.4654767318e+02   2.4772901062e+01       0.2076    0.1540667  77.76 0.0007163926    1.117    0.105
        13 -11.7727    119.9259    237.9339   1.3151471655e+02   1.1409548257e+01    0.3346906    0.1990369 -73.95  0.001889891    2.301    0.565
        14 -12.4426    110.3278    249.2818   1.3445476854e+02   1.1096495307e+01    0.6704394    0.4083166 -40.46  0.003868815    2.790    0.642
        15  -9.4283     94.6810    216.9639   1.3412076883e+02   1.8956556442e+01     0.222826    0.1337349  60.63 0.0005971831    1.527    0.345
        16 -11.0991     30.5278    206.0022   1.4568429698e+02   2.9400445707e+01     0.381972     0.124637  51.63  0.001906728    2.462    0.594
        17 -10.5798    193.6581    195.9075   1.1080394858e+02   5.2340325450e+00    0.5792025    0.3186747 -64.22  0.001791499    6.259    0.840
        18 -11.5502     69.2672    195.3078   1.3702597360e+02   2.6841871632e+01    0.3593935    0.2481392 -42.56  0.002037437    2.152    0.535
        19  -9.3714    113.7101    193.2933   1.2720942715e+02   2.0423709678e+01    0.2502528    0.1554023  22.51 0.0008887849    2.383    0.580
        20 -11.4915     69.2878    234.0871   1.4055676744e+02   1.9487628540e+01    0.3287714    0.1771382  71.53   0.00139083    1.847    0.459
        21 -11.6217     74.1317    188.2669   1.3521535109e+02   2.7618227379e+01    0.2578077    0.2259263 -64.08  0.000523103    1.329    0.247
        22  -9.1944    125.1906    185.2193   1.2346839571e+02   2.0015442803e+01    0.2158738    0.1507066  -0.10 0.0009289565    2.752    0.637
        23 -10.8771     82.7729    176.0382   1.3176902043e+02   2.8956354098e+01    0.2378996    0.2071477 -80.68 0.0003770405    1.141    0.124
        24 -13.2464     70.4260    173.6078   1.3430111296e+02   3.1255183687e+01    0.4703518    0.2760705 -45.38  0.001707458    2.264    0.558
        25 -10.7856    126.2419    174.8733   1.2153587902e+02   2.1909862044e+01    0.3501592    0.1803385  32.76  0.001453778    2.192    0.544
        26 -12.4208     88.8963    166.9369   1.2904996442e+02   3.0001199351e+01     1.615073    0.5763666  53.09  0.005640473    3.409    0.707
        27 -12.9204     67.3564    144.1546   1.3098071129e+02   3.8291530921e+01     0.952097    0.5712912  82.61  0.003941871    2.110    0.526
        28 -12.4527     58.7577    133.7333   1.3164527663e+02   4.1821176832e+01     2.000355    0.6809394 -77.16  0.004424929    9.181    0.891
        29 -14.0950     10.3699    207.0410   1.4945620649e+02   3.1214074063e+01     1.862508     1.354694 -23.92   0.01202275    3.055    0.673
        30  -9.9875    101.3510    150.9346   1.2335652429e+02   3.1520651823e+01    0.2859467     0.255441 -85.17 0.0008486049    1.093    0.085
        31  -9.3639    104.1192    146.7595   1.2188352406e+02   3.1978359726e+01    0.3694249    0.2155361 -29.65  0.001351523    3.040    0.671
        32 -12.0128     90.2788    150.2547   1.2605281343e+02   3.3510320986e+01      0.26901     0.248741 -29.30 0.0005514523    1.312    0.238
        33 -12.1599     43.8485    149.1017   1.3765883309e+02   4.0020206105e+01    0.4233573    0.3154154  -0.82   0.00218098    2.112    0.527
        34  -9.6323    134.4133    148.7058   1.1467203207e+02   2.5817467865e+01    0.2738481    0.1465973 -54.81 0.0008073099    2.066    0.516
        35  -8.7390    192.2182    144.0580   1.0050041950e+02   1.4335995036e+01    0.1863187    0.1223146 -35.19 0.0003992079    1.582    0.368
        36  -9.8588    111.6518    136.5822   1.1790896892e+02   3.2906733202e+01    0.3079139    0.2383056 -13.45  0.001324085    1.835    0.455
        37 -10.5109     99.3212    133.5682   1.2056712357e+02   3.5811322957e+01    0.2719984    0.2317997 -25.08 0.0005597221    1.423    0.297
        38 -13.8107     46.2844    229.8461   1.4438347621e+02   2.3150141629e+01     1.027884    0.3525241  51.30  0.001390676    2.210    0.548
        39 -11.1771     50.0536    130.2020   1.3347783199e+02   4.3677760815e+01     0.239638    0.2179603  70.14 0.0006778646    1.126    0.112
        40 -10.8952     44.9688    130.3041   1.3488489793e+02   4.4215951997e+01    0.1761861    0.1620525  81.10   0.00116921    1.107    0.097
        41  -8.7813    117.3122    129.3160   1.1484175755e+02   3.3456592121e+01    0.1489406    0.1205241  -7.59 0.0006171451    1.640    0.390
        42  -9.4683    108.1559    123.4775   1.1599319664e+02   3.6517222353e+01    0.2034415    0.1924891 -63.60 0.0004168496    1.047    0.045
        43 -15.1210     51.6265    219.0047   1.4264255992e+02   2.4489934749e+01     2.416584     1.492615  53.89    0.0118785    1.288    0.224
        44 -11.1275    168.1980    113.4031   9.8238221775e+01   2.5646316529e+01    0.3700793    0.3208715 -74.39 0.0007970876    1.353    0.261
        45  -8.6556     81.6167    170.2704   1.3125598008e+02   3.0379866987e+01    0.1425011   0.08820169  64.86 0.0006992956    1.701    0.412
        46 -10.9534    245.9969    249.4990   1.1023892214e+02  -1.0074619649e+01    0.2577297    0.1093219  31.82  0.001424358    1.833    0.454
        47 -15.8615      3.7368    235.7435   1.5184301815e+02   2.6638464229e+01      10.9992    0.6819436 -75.27   0.03615962    8.007    0.875
