#   1 NUMBER                 Running object number                                     
#   2 MAG_AUTO               Kron-like elliptical aperture magnitude                    [mag]
#   3 X_IMAGE                Object position along x                                    [pixel]
#   4 Y_IMAGE                Object position along y                                    [pixel]
#   5 X_WORLD                Barycenter position along world x axis                     [deg]
#   6 Y_WORLD                Barycenter position along world y axis                     [deg]
#   7 A_WORLD                Profile RMS along major axis (world units)                 [deg]
#   8 B_WORLD                Profile RMS along minor axis (world units)                 [deg]
#   9 THETA_WORLD            Position angle (CCW/world-x)                               [deg]
#  10 FWHM_WORLD             FWHM assuming a gaussian core                              [deg]
#  11 ELONGATION             A_IMAGE/B_IMAGE                                           
#  12 ELLIPTICITY            1 - B_IMAGE/A_IMAGE                                       
         1 -12.9728    243.4224    104.6514   5.9549319661e+01   9.8094231451e+00     5.420861    0.8823747 -37.23   0.01438656    4.862    0.794
         2 -12.4304    233.2182     17.8397   3.9955099649e+01   2.4666497128e+01     4.080157          nan  61.55   0.01029517    7.380    0.864
         3 -12.3369    139.7328     40.5013   6.0266104071e+01   4.5314617173e+01     1.583909     1.007745  67.83  0.007100614    1.743    0.426
         4 -10.1720    250.1341     28.4353   4.0871449464e+01   1.9576221714e+01    0.6043172    0.1769815 -35.07 0.0005173481    2.830    0.647
         5 -10.8923    220.7778     35.9960   4.5671867427e+01   2.5367887785e+01     1.165756    0.3987308 -49.64  0.003727913    3.134    0.681
         6 -12.7271    226.7159     52.1194   4.9019707343e+01   2.1738227206e+01     2.183224      1.24712 -49.18  0.009228263    1.669    0.401
         7  -9.1695    133.9844     14.4704   5.2263878736e+01   4.9891362282e+01     0.284768    0.1977211 -26.64 0.0002495791    1.557    0.358
         8  -9.7889    211.1633     12.2251   4.0678870598e+01   3.0554836521e+01    0.3527892    0.1884226 -38.52  0.001021343    1.789    0.441
         9  -8.9692    185.2413     12.0776   4.3509289933e+01   3.7063254271e+01    0.4256171    0.1632207 -29.09  0.001381269    2.651    0.623
        10  -9.0569    184.0000      6.5291   4.2086217408e+01   3.7934413059e+01    0.5046617    0.1741006 -25.15  0.001625055    3.121    0.680
        11 -10.6410    119.1764      9.9585   5.3640481164e+01   5.3934073833e+01    0.6762586     0.396698  42.33   0.00273327    1.549    0.354
        12  -8.4001    195.1892      9.8069   4.1723192757e+01   3.4776608311e+01    0.2852538    0.2024078 -30.46  0.001557015    1.513    0.339
        13  -8.5908      8.6820      9.3372   9.5917003490e+01   7.2469624878e+01   0.09268238   0.08821415 -59.39 -4.129836e-05    1.703    0.413
        14 -10.1634    249.9770      4.5651   3.5643559938e+01   2.2393642950e+01    0.4424818    0.1702708 -37.10  0.001837683    2.208    0.547
        15  -8.3261    143.6152      7.2384   4.7967707045e+01   4.8172363436e+01    0.1824159    0.1302926   2.45 0.0007865984    1.669    0.401
        16  -8.7957      2.7611      5.8351   9.7737268445e+01   7.3441688599e+01    0.2037642   0.07602069 -25.59 0.0009616303    2.876    0.652
        17  -7.2232    205.3977      3.5615   3.9034057217e+01   3.2866566424e+01    0.1303848     0.112965 -81.18 0.0001295413    1.015    0.015
        18  -8.0688    210.2080      1.8031   3.8146074504e+01   3.1864476692e+01    0.2033835    0.1518379 -69.03   0.00118892    1.224    0.183
        19  -7.3157    125.3085      1.2737   4.9087716870e+01   5.3217041900e+01     0.140332   0.08574806  39.04 0.0002865385    1.548    0.354
        20 -11.7354     40.5385    167.4357   1.1890012160e+02   3.5120303555e+01    0.9123641    0.7137471 -85.00  0.003402265    1.076    0.070
        21  -8.6546     67.9095    166.8829   1.1236275894e+02   3.1905175591e+01    0.1914871    0.1691145  87.56 0.0003350502    1.035    0.033
        22  -7.0884    130.7418    163.7156   9.6534067743e+01   2.2284343139e+01    0.1373006    0.1163446 -10.01  0.000297367    1.480    0.324
        23  -7.2222    203.3459    160.6653   7.9711553850e+01   8.3041470498e+00    0.1425728    0.1192163 -85.70 0.0007049225    1.769    0.435
        24  -7.7186      1.6484    153.7212   1.2656047514e+02   4.1734665718e+01    0.1093554   0.07511122 -53.17  0.000701064    1.647    0.393
        25  -9.6916     67.8175    144.2977   1.0907022811e+02   3.7280241275e+01    0.5724762    0.3249677  55.87  0.002273886    1.966    0.491
        26  -7.3957    160.6416    143.2735   8.5072274023e+01   2.0643996090e+01    0.1555726    0.1230693  78.62 0.0003231526    1.651    0.394
        27 -10.1524    114.0053    246.9532   1.1206757810e+02   8.9782062680e+00    0.1937526    0.1720983  83.14 0.0003443413    1.246    0.197
        28  -7.4355    134.6589    120.6606   8.6031214977e+01   3.1174342102e+01    0.1644032    0.1262296  -3.23 0.0007049719    1.769    0.435
        29  -7.3545    238.6705    235.2974   8.7246743060e+01  -8.8328152645e+00    0.1017732   0.08967369  40.51 0.0002763083    1.637    0.389
        30  -9.7439    205.3638    116.6927   6.8995388471e+01   1.5972017725e+01    0.2713378    0.2585302 -21.45 0.0002044474    1.006    0.006
        31  -8.1168    158.3382    114.4780   7.8515919715e+01   2.7257929126e+01     0.266046    0.1877181 -61.49 0.0005859571    1.719    0.418
        32  -8.8371    210.3398    113.4957   6.7258093834e+01   1.5437806989e+01    0.2608069    0.1357565 -36.14 0.0008631701    1.827    0.453
        33  -8.4358    167.8585    113.3818   7.6003958047e+01   2.5281165205e+01    0.3365445    0.2444255 -67.96 0.0009943665    1.815    0.449
        34  -7.0832    111.7307    114.7007   9.0742792703e+01   3.7208169546e+01    0.1497602    0.1199787 -16.90 0.0002851523    1.524    0.344
        35  -9.5651    226.7458    110.7638   6.3680258059e+01   1.2305040153e+01    0.5089958    0.3020276 -68.59  0.001827806    3.346    0.701
        36  -7.8949    126.9415    111.9104   8.5826590829e+01   3.4773471351e+01    0.2375673     0.190957 -88.84 0.0004726289    1.587    0.370
        37  -8.9366    205.8843    109.7329   6.7140980026e+01   1.7132155956e+01    0.3434332    0.1375222  54.16  0.001183788    2.739    0.635
        38 -10.8117    186.1542     92.2117   6.6338220864e+01   2.5033191119e+01    0.7603646    0.3756404 -47.48  0.002828249    2.155    0.536
        39  -8.4352    220.3351    104.6509   6.3264180203e+01   1.4770922487e+01    0.2874334    0.1785037 -32.50  0.000698033    1.535    0.349
        40  -9.3892    201.9187    102.6598   6.6068732593e+01   1.9341679570e+01     0.482565    0.2590329 -47.36   0.00191905    1.942    0.485
        41  -7.2523    143.4825    103.4834   7.9200898658e+01   3.2987916788e+01     0.157841    0.1553505 -15.41 0.0008101884    1.007    0.007
        42  -8.6106    148.9965    119.2870   8.2039754554e+01   2.8347915776e+01    0.2559289    0.2140592 -42.07 0.0004029084    1.191    0.160
        43  -8.6082    151.2893     98.8675   7.5959329951e+01   3.2146747050e+01    0.3069147    0.2323244  37.07 0.0008987885    1.380    0.275
        44  -7.8153    136.5072     95.4878   7.8739405275e+01   3.6261319649e+01    0.1567516    0.1546368 -52.29 0.0003321591    1.036    0.035
        45  -7.7385     94.2778     94.9984   9.0718625138e+01   4.4986473802e+01    0.1977226    0.1762871 -42.62 0.0002662915    1.055    0.052
        46  -7.7095    151.6048     93.2364   7.4272770065e+01   3.3217469018e+01    0.2110253    0.1518435 -27.78 0.0002350988    1.503    0.335
        47  -8.2165    161.0143     92.4926   7.1829588185e+01   3.1108856143e+01    0.3996127    0.1811651  32.83    0.0011306    3.765    0.734
        48  -8.0971    164.5014     90.9331   7.0586261669e+01   3.0566365220e+01    0.2598506    0.2023917 -55.03 0.0006596853    1.386    0.279
        49  -9.0612    145.5197     88.0787   7.4260016559e+01   3.5692914666e+01    0.3172155    0.2739454 -40.53 0.0007381133    1.152    0.132
        50 -11.1182    238.1456     45.5131   4.6038786068e+01   2.0017050571e+01    0.5384086    0.3803758  62.24  0.001467954    1.496    0.332
        51 -10.3611    214.9301     71.5174   5.5657903754e+01   2.1600217441e+01     1.009208    0.5071135 -55.71  0.003358195    2.484    0.597
        52 -10.6515    206.1891     65.8456   5.5515334404e+01   2.4624691508e+01    0.6720722    0.4438187 -18.81  0.001763996    1.824    0.452
        53  -9.7248    200.1004     68.2993   5.7173128316e+01   2.5736922525e+01    0.3590154    0.2460344  43.40 0.0009009574    1.601    0.376
        54  -9.5850    189.1913     75.2364   6.1023867996e+01   2.7302683967e+01    0.2868415    0.2654538  51.90 0.0003155285    1.102    0.093
        55 -10.9697    181.3307     80.0957   6.3908318045e+01   2.8419094832e+01    0.9066933    0.6081763 -43.87  0.001236863    1.482    0.325
        56 -11.3628    181.7748     64.8752   5.9431377328e+01   3.0903061186e+01    0.6113719    0.4191681  12.51  0.001829876    2.195    0.544
        57  -8.3508      3.6957     83.6846   1.1851420787e+02   5.7707343952e+01    0.1258065   0.06680291 -47.31 0.0002845052    1.622    0.383
        58 -10.2402    110.0656     74.4196   7.9703818575e+01   4.6357853073e+01     0.262435    0.2224938 -33.17 0.0003118186    1.143    0.125
        59  -9.9101    222.5110     82.7798   5.7391127328e+01   1.7987290215e+01    0.9654123    0.3695997 -53.50  0.002815675    4.249    0.765
        60  -7.3921    121.7299     72.6499   7.5756521574e+01   4.4199580222e+01    0.1566703    0.1191539  -1.15 0.0003958055    1.626    0.385
        61  -8.6041    223.9371     67.1990   5.3210489140e+01   2.0143314754e+01     0.321826    0.2118977 -52.85  0.001544057    1.514    0.340
        62 -11.0958    158.8523     41.7511   5.6699047740e+01   4.0300594410e+01      1.15905    0.6431181 -62.14  0.004330215    2.759    0.638
        63 -10.0592    171.6972     65.3299   6.1505441495e+01   3.3391028341e+01     0.521363    0.4306967  81.89  0.002573618    1.336    0.252
        64 -11.0280    164.4124     53.6687   5.9386274623e+01   3.7122077624e+01     1.450641    0.7606106 -73.14  0.003751658    5.796    0.827
        65 -10.5338    154.9846     46.7930   5.9102349582e+01   4.0567517976e+01    0.5285887     0.440962 -70.57  0.001686755    1.367    0.269
        66 -10.6365    149.1020     44.2837   5.9506228092e+01   4.2426348273e+01    0.6043509    0.3898295  34.08  0.002682467    1.751    0.429
        67  -8.2384    116.8597    232.8436   1.0997474508e+02   1.0918743604e+01    0.1745934    0.1519073  39.36 0.0004430255    1.193    0.162
        68 -10.4585    161.7298     81.0704   6.8331791129e+01   3.3118643921e+01     0.427072     0.337757  -0.15  0.001355036    1.564    0.361
        69  -7.8612    201.7332     54.7165   5.3178934670e+01   2.7441244842e+01    0.3134047    0.1365454 -49.80 0.0008872531    2.559    0.609
        70  -8.6994    198.7955     48.8486   5.2004579969e+01   2.9039339733e+01    0.4161891    0.1784572 -46.19  0.001570407    2.387    0.581
        71  -7.8464    190.8115     53.0375   5.4435047454e+01   3.0449983099e+01    0.3854271    0.1879357 -35.31  0.001553747    2.000    0.500
        72 -10.0929    250.1558     42.9318   4.4159329665e+01   1.7691554149e+01    0.4720924    0.2167882 -28.19 0.0007039764    2.303    0.566
        73  -7.6940    114.4755     50.4904   7.0204809664e+01   4.9778973120e+01    0.1469705    0.1391329  10.63 -6.902466e-06    1.024    0.024
        74  -8.7788    245.2679     60.8340   4.8872622990e+01   1.6251112795e+01    0.2318917    0.1792165 -86.85 0.0008912151    1.405    0.288
        75  -7.9019    235.6901     35.8671   4.3992004335e+01   2.1870835573e+01    0.3544056    0.1538324  81.59  0.001370317    3.022    0.669
        76  -8.5607    226.3101    223.4770   8.7456506375e+01  -5.5313431632e+00    0.1924697    0.1629917  -0.02  0.000246506    1.156    0.135
        77  -7.6680    160.6696    128.3399   8.1502380309e+01   2.3801337219e+01    0.1625413    0.1272752 -86.42 0.0007051683    1.742    0.426
        78  -8.9449    224.6694    205.8021   8.4620024217e+01  -2.8605995950e+00    0.2525969    0.2309775 -60.14  0.001610581    1.677    0.404
        79  -9.5609    136.1570     27.1107   5.6349708442e+01   4.7952935031e+01    0.2621146    0.2243695 -68.38 0.0009164939    1.370    0.270
        80  -8.5117     55.0409     20.8674   7.8470743907e+01   6.5509008910e+01    0.3059649    0.1519503 -41.87 0.0009205726    2.213    0.548
        81  -8.8595    212.7879    200.5182   8.5879849715e+01  -8.5836405593e-02    0.2361797    0.2014865  31.14 0.0003388221    1.179    0.152
        82  -7.5129    183.2541     17.0152   4.5173704075e+01   3.7048431877e+01    0.1510133    0.1202803 -29.71 0.0002372875    1.361    0.265
        83  -7.8309    166.7367     17.2073   4.7547659026e+01   4.1280017367e+01    0.1867307    0.1469039  44.07 0.0003735384    1.295    0.228
        84 -10.4320    244.1778    198.6149   7.9750983065e+01  -4.9895771528e+00    0.2481598     0.205245   2.87 0.0005826609    1.054    0.051
        85  -9.0882    236.6355    197.1187   8.0807235111e+01  -3.5786995262e+00       0.4099    0.1715938  45.49  0.001600508    2.676    0.626
        86  -9.0860    213.9545    195.7416   8.4759024873e+01   4.4421281334e-01    0.2237092    0.1837069 -19.17 0.0002823083    1.208    0.172
        87  -9.0623    214.4494    191.0257   8.3759984901e+01   1.0919795500e+00    0.2515025     0.182207  33.70 0.0006255957    1.277    0.217
        88 -10.0057    182.1890    186.8148   8.9420239698e+01   7.7246800676e+00    0.2453118    0.2312734 -32.36 0.0004177468    1.174    0.148
        89 -11.2200      9.9421    186.2146   1.2702122548e+02   3.3963243996e+01    0.4135221    0.2431669 -78.65  0.001996238    1.405    0.288
        90  -7.8645    134.4828    186.9410   9.9829314463e+01   1.6654345159e+01    0.1862291    0.1404033 -53.39 0.0003706207    1.438    0.304
        91  -7.9308    241.0045    186.3424   7.7930426802e+01  -2.7468192000e+00    0.1798784    0.1481394  15.96 0.0005223391    1.108    0.097
        92  -9.1041     67.2008    182.1645   1.1445090767e+02   2.8516562120e+01      0.19828     0.174498  72.51  0.000379664    1.077    0.071
        93 -12.4625     26.4924    176.2895   1.2287146808e+02   3.4576824968e+01    0.7511054    0.6650342 -67.78  0.005409885    1.339    0.253
        94  -8.7398    203.0345    170.9818   8.1972236810e+01   6.5351317172e+00    0.2084298    0.1877624   8.51            0    1.005    0.005
        95  -7.2582    189.4908    171.4841   8.4850305125e+01   9.0905509931e+00    0.1443462    0.1344894  18.29 3.462796e-05    1.036    0.035
