#   1 NUMBER                 Running object number                                     
#   2 MAG_AUTO               Kron-like elliptical aperture magnitude                    [mag]
#   3 X_IMAGE                Object position along x                                    [pixel]
#   4 Y_IMAGE                Object position along y                                    [pixel]
#   5 X_WORLD                Barycenter position along world x axis                     [deg]
#   6 Y_WORLD                Barycenter position along world y axis                     [deg]
#   7 A_WORLD                Profile RMS along major axis (world units)                 [deg]
#   8 B_WORLD                Profile RMS along minor axis (world units)                 [deg]
#   9 THETA_WORLD            Position angle (CCW/world-x)                               [deg]
#  10 FWHM_WORLD             FWHM assuming a gaussian core                              [deg]
#  11 ELONGATION             A_IMAGE/B_IMAGE                                           
#  12 ELLIPTICITY            1 - B_IMAGE/A_IMAGE                                       
         1 -16.2970     16.3202     68.9681   9.8604482956e+01   6.1860040465e+01     1.888891    0.5663613 -50.69  0.006917218    2.954    0.661
         2 -15.6805     46.1805     59.1302   8.0837324585e+01   6.1585041732e+01     0.712638    0.3472856 -62.41  0.002909638    2.123    0.529
         3 -13.2364     90.3946    250.1944   9.4146527540e+01   1.4745856926e+01    0.3698258   0.06746893  33.93  0.001526759    3.101    0.678
         4 -14.2408     56.6442    248.0312   1.0090178656e+02   1.8671598679e+01    0.7099021    0.2238355  39.74  0.003800803    2.018    0.504
         5 -15.9342    195.3887    241.9646   7.2958599614e+01   3.4249294085e+00    0.9468551    0.5640769  18.46  0.006646661    1.207    0.171
         6 -14.7428     46.7796    233.9921   1.0225791022e+02   2.1903143956e+01    0.7723985    0.3527459  48.41  0.004593772    1.706    0.414
         7 -13.9766     85.6608    237.1958   9.4156613174e+01   1.7224266825e+01     0.486355    0.3193949  11.02  0.003084114    1.708    0.415
         8 -15.4210    111.0195    229.2662   8.8040932306e+01   1.5418775319e+01     1.336012    0.5428842  43.48  0.006683249    2.194    0.544
         9 -12.5459     70.0208    233.4936   9.7240443255e+01   1.9562967148e+01    0.1858418   0.08521728  30.85  0.001037065    1.604    0.376
        10 -14.7118     33.9839    205.6361   1.0375057382e+02   2.8191031828e+01    0.7631446    0.2942768  78.96   0.00347244    3.312    0.698
        11 -15.5718     18.9963    180.5340   1.0630940928e+02   3.4536892052e+01     1.682741    0.4818287  65.92  0.006293548    3.981    0.749
        12 -15.6030     31.9658    217.3092   1.0473712084e+02   2.6214431414e+01     1.413767    0.5925876  61.89  0.007536981    2.304    0.566
        13 -15.1976      5.4803    162.4663   1.0923990060e+02   3.9432412592e+01     1.217548    0.5134456  89.57  0.005925705    2.297    0.565
        14 -13.4983      1.9656    151.4601   1.0989773429e+02   4.2120103242e+01    0.4507073    0.1856023  88.11  0.001861645    2.297    0.565
        15 -15.8786     10.0708    193.1044   1.0895788984e+02   3.2669939936e+01     2.379717    0.5114563  72.65  0.007579966    6.278    0.841
        16 -15.4082     19.9949    196.4295   1.0668456294e+02   3.1218157265e+01     0.775923    0.5544208  50.62  0.004179069    1.100    0.091
        17 -14.3851      9.0848    124.4676   1.0660981845e+02   4.8093817327e+01     1.109149    0.4996555 -85.07  0.005156234    2.084    0.520
        18 -14.3567     19.3200    147.8722   1.0463038534e+02   4.1774348534e+01     2.645785    0.8178746  71.36  0.008901911    4.274    0.766
        19 -15.4332     48.4492    209.6445   1.0056995174e+02   2.6016110991e+01     1.231036    0.4870758  65.35  0.005487843    3.217    0.689
        20 -15.9557     35.0071    185.6814   1.0245013333e+02   3.2054149575e+01     2.476328      1.02164  76.60    0.0109754    2.981    0.665
        21 -14.0155     78.0047    214.6171   9.4045910015e+01   2.1843821253e+01    0.7268914    0.3241238  50.97  0.003617508    2.220    0.550
        22 -13.7082     79.5293    205.7367   9.2916374901e+01   2.3250203956e+01    0.4147013     0.294596  52.20  0.001971663    1.327    0.246
        23  99.0000     85.2164    188.1666   8.9769498958e+01   2.5850139555e+01     1.592953    0.6109066  53.99  0.005784519    3.715    0.731
        24 -13.3560     67.7983    193.6544   9.4700478875e+01   2.6941053915e+01     1.550867    0.8634615  89.32  0.007902994    2.420    0.587
        25 -14.5845     66.0285    175.6770   9.3471903426e+01   3.0812033689e+01    0.9430237    0.4404031  51.10  0.004225575    2.101    0.524
        26 -14.7775     61.7045    162.8955   9.3350509601e+01   3.4106304061e+01     1.373758    0.7882575 -82.92  0.006701286    2.073    0.518
        27 -16.4188    168.1746    173.0934   6.7895994791e+01   1.6131762162e+01     1.901721      1.18833 -15.35  0.009815369    1.908    0.476
        28 -15.5060    145.2842    170.1570   7.2446050385e+01   2.0292508725e+01     1.047481      0.86491 -45.64  0.006268477    1.443    0.307
        29 -15.0898    126.5109    217.9668   8.3486675347e+01   1.5163820480e+01     1.333127    0.4466958  38.24  0.005997723    2.340    0.573
        30 -16.8696    237.2926    137.6975   4.8677144440e+01   1.0226194749e+01     1.144659     0.827693 -55.34  0.006635504    2.376    0.579
        31 -13.4341    112.5103    131.5102   7.3642526895e+01   3.3478665444e+01    0.2597397    0.1488094 -65.31  0.001043431    2.439    0.590
        32 -13.9816    119.3603    123.7430   7.0050698118e+01   3.3875715112e+01    0.4571422    0.2890619 -57.79   0.00203095    1.882    0.469
        33 -13.8436     50.1888    112.5148   9.0631270173e+01   4.7568106082e+01    0.7861114    0.4226221 -69.68  0.003483833    1.885    0.470
        34 -13.8540     70.7129    112.0462   8.3074235739e+01   4.4964819075e+01     0.651697    0.4351217  68.94  0.002918043    1.887    0.470
        35 -13.2804     40.4741    108.4866   9.3698629432e+01   4.9658184937e+01    0.4432566    0.2283878  36.30  0.001898811    1.822    0.451
        36 -13.1251     34.2158     99.6752   9.4923762302e+01   5.2534596907e+01    0.2541757    0.2027359 -68.86  0.001400287    1.210    0.174
        37 -14.6164     83.2513     79.7105   7.0613805538e+01   5.0679192691e+01    0.9752141     0.602742 -65.44  0.004017474    2.045    0.511
        38 -14.7693    165.9485     82.1035   4.7899894554e+01   3.1871263940e+01    0.3626181    0.3166688 -57.78   0.00195138    1.266    0.210
        39 -14.6058     46.7070     80.1917   8.6045513909e+01   5.6245832083e+01    0.4235951    0.3475933 -55.58  0.002272715    1.188    0.159
        40 -14.0690    249.2464    247.9250   6.4991449804e+01  -2.8358746333e+00     0.254113    0.1692759  -3.55  0.002163818    1.214    0.177
