#   1 NUMBER                 Running object number                                     
#   2 MAG_AUTO               Kron-like elliptical aperture magnitude                    [mag]
#   3 X_IMAGE                Object position along x                                    [pixel]
#   4 Y_IMAGE                Object position along y                                    [pixel]
#   5 X_WORLD                Barycenter position along world x axis                     [deg]
#   6 Y_WORLD                Barycenter position along world y axis                     [deg]
#   7 A_WORLD                Profile RMS along major axis (world units)                 [deg]
#   8 B_WORLD                Profile RMS along minor axis (world units)                 [deg]
#   9 THETA_WORLD            Position angle (CCW/world-x)                               [deg]
#  10 FWHM_WORLD             FWHM assuming a gaussian core                              [deg]
#  11 ELONGATION             A_IMAGE/B_IMAGE                                           
#  12 ELLIPTICITY            1 - B_IMAGE/A_IMAGE                                       
         1 -13.6955      2.8955     86.1627   1.3527282068e+02   5.7459488322e+01     2.103935    0.2351184 -64.13  0.006506443    5.370    0.814
         2 -14.9550      5.6099    139.7427   1.4208816096e+02   4.5465974469e+01     5.097464     1.303469 -76.62   0.01759959    4.191    0.761
         3 -13.3979    200.4362     27.8505   6.5089899327e+01   3.1621280720e+01      1.30511     1.239555  63.96  0.007624199    1.229    0.186
         4 -13.4145    216.3756     10.2236   5.9271640522e+01   2.9856750667e+01    0.9112776    0.7477543  67.18  0.002919614    1.267    0.210
         5 -11.9832      2.3438      7.1438   1.1335651789e+02   7.1556626684e+01    0.7029227    0.1544401 -43.43  0.003205999    3.610    0.723
         6 -10.5187    176.0077    249.8131   1.1906737535e+02  -3.1892503580e+00    0.3649972   0.07260928  45.69  0.001030733    5.135    0.805
         7 -12.6615    246.1508    247.4659   1.0536430667e+02  -1.4015358227e+01    0.7056979     0.453816  30.59  0.004420531    1.362    0.266
         8 -10.4598     65.5607    249.2000   1.4028960098e+02   1.4946994041e+01    0.2500452    0.1703138  74.61 0.0007130041    1.242    0.195
         9 -12.6149     34.7113    245.4485   1.4542785209e+02   1.9704288651e+01    0.6754977    0.4652961  61.34  0.004744664    1.160    0.138
        10 -10.9391     29.2161    248.7530   1.4657848193e+02   1.9730753174e+01    0.3086247    0.2072909 -76.30  0.001774556    1.464    0.317
        11 -12.5725     21.5119    244.0708   1.4756398443e+02   2.1510041581e+01     1.063808    0.4014604 -85.03  0.005425585    2.563    0.610
        12 -13.2170     10.6445    235.6300   1.4886086030e+02   2.4318856748e+01     1.677793    0.6215864  86.09  0.008177332    2.769    0.639
        13 -11.3718      4.1824    248.5827   1.5061136480e+02   2.2520748757e+01    0.6921334    0.2959805  45.83   0.00434136    1.992    0.498
        14 -11.4620      4.5774    241.4503   1.5017779519e+02   2.3821563041e+01    0.5081058    0.2930453  73.18  0.003284459    1.280    0.219
        15 -10.2726    146.2005    246.8405   1.2454160165e+02   2.4527567907e+00    0.2527023    0.1059422 -59.54  0.001031852    3.437    0.709
        16 -11.1257    100.3980    245.2881   1.3337074080e+02   1.0440584855e+01    0.2724075    0.1659325  77.86  0.001082626    1.923    0.480
        17 -11.7562     46.5847    246.9821   1.4348473525e+02   1.7926512576e+01    0.4137666    0.2762964 -69.56  0.002746847    1.589    0.371
        18 -10.8477    128.3589    244.7392   1.2781121930e+02   5.8998403468e+00    0.2127692    0.1758925 -46.74  0.001319287    1.512    0.339
        19  -9.3947     82.3291    243.3169   1.3662789801e+02   1.3629813313e+01    0.1072764    0.1001469  -2.96 0.0004655892    1.681    0.405
        20 -10.3123    183.2063    238.8376   1.1593722325e+02  -2.6943174062e+00    0.1825561    0.1414737  16.67 0.0005741935    1.325    0.245
        21 -10.2389     52.9206    237.7306   1.4160490377e+02   1.8904394207e+01    0.1710299    0.1262229  65.45 0.0004340818    1.076    0.071
        22 -10.7631    156.4698    249.9785   1.2294262558e+02   1.4704748950e-01    0.2196373    0.1501256  41.36  0.001254189    1.205    0.170
        23 -13.0515     43.9054    213.7845   1.4119937552e+02   2.5014154779e+01     1.067339    0.7887501 -72.49  0.005594333    1.318    0.241
        24 -14.0779     33.3367    225.2988   1.4418624869e+02   2.3874846766e+01    0.8683872    0.5652932  68.36  0.002405715    1.243    0.195
        25 -11.2502    124.5064    249.8323   1.2921266836e+02   5.6425013192e+00    0.4891475    0.1159136  41.90  0.001698112    3.427    0.708
        26 -12.2036    116.3376    231.6808   1.2854006015e+02   1.0410039905e+01    0.7009841      0.16032  46.68  0.002237895    3.820    0.738
        27 -12.4640     91.0926    227.2245   1.3314721754e+02   1.5472502939e+01     1.233581    0.1926093  48.29  0.003209616    6.246    0.840
        28  -9.9382     76.2145    217.0206   1.3501095392e+02   1.9900648426e+01    0.3761322    0.1079926  55.51  0.001095584    5.201    0.808
        29 -12.4766      9.5986    207.0593   1.4720781042e+02   3.0221902508e+01    0.6414841    0.5117335  29.44  0.002961687    1.763    0.433
        30 -11.5395     55.8055    211.0884   1.3855376921e+02   2.4065932505e+01    0.9450433    0.2531433  56.46  0.002649081    6.292    0.841
        31  -8.5954    152.4299    213.1744   1.1812859519e+02   7.5240937884e+00    0.1714791     0.137541 -72.35 0.0003726633    1.485    0.327
        32 -12.9852     28.4190    231.5277   1.4553961353e+02   2.3182990335e+01    0.3231634    0.2605549  87.96 0.0007601432    1.199    0.166
        33 -11.5588     39.1643    198.2267   1.4067367551e+02   2.8984990602e+01    0.9217288    0.3303205  66.72   0.00290212    5.393    0.815
        34 -11.7236     56.5385    198.1055   1.3699905887e+02   2.6840838620e+01    0.2786735    0.2309809 -76.83 0.0005432031    1.170    0.145
        35  -9.1964    192.0003    193.2718   1.0596788008e+02   3.7006907961e+00    0.2849911    0.1858252 -70.44  0.001125198    2.752    0.637
        36 -11.2685      6.9870    192.3087   1.4662856895e+02   3.3614283099e+01    0.3079202    0.1871556  80.73 0.0008334579    1.362    0.266
        37 -12.0031     63.3453    189.6757   1.3449993135e+02   2.7840203297e+01    0.2764733     0.242412 -73.07 0.0004455737    1.181    0.154
        38 -11.4859    198.6502    247.5638   1.1429372183e+02  -6.6699645353e+00    0.3633786    0.2633123 -44.19   0.00218407    1.697    0.411
        39 -10.7181    137.8982    249.9113   1.2659642185e+02   3.3556245029e+00    0.2522793    0.1500767  47.38  0.001009939    1.388    0.280
        40  -9.7249     93.8295    171.1664   1.2455666265e+02   2.7547018715e+01    0.2162838    0.1802763  80.81 0.0004246065    1.183    0.154
        41 -11.8016     82.1777    168.0649   1.2692322793e+02   3.0169677022e+01    0.6309495    0.5568433  18.82  0.003580084    1.412    0.292
        42 -11.8079     11.2580    121.2270   1.3830743545e+02   4.9273953740e+01    0.4849255    0.2279924  46.05  0.001902497    2.630    0.620
        43 -10.5593     95.2655    152.1816   1.2073254122e+02   3.1856627865e+01    0.3199548    0.2978849 -48.14  0.000834511    1.139    0.122
        44 -11.9222     83.8993    151.0857   1.2351567310e+02   3.3989232202e+01    0.3096088    0.2542787 -46.51 0.0005845678    1.270    0.213
        45  -9.2963     98.7181    148.0273   1.1899809274e+02   3.2259157919e+01    0.2073983    0.1825647 -60.07 0.0003292176    1.096    0.087
        46 -12.1507     67.3268    143.4867   1.2655016918e+02   3.8278128380e+01    0.6810425    0.4306231  61.60  0.003159609    1.911    0.477
        47 -13.2150     60.6489    174.7880   1.3316647931e+02   3.1680508858e+01    0.5444552    0.2813122 -47.01  0.001806769    2.306    0.566
        48  -9.8258    108.0080    137.4074   1.1425167154e+02   3.3113672947e+01    0.4752916    0.3041779 -21.85  0.001828045    2.595    0.615
        49 -10.5100     94.9854    134.4813   1.1716731230e+02   3.6152008483e+01    0.2627436    0.2055051 -51.53 0.0003622354    1.225    0.184
        50  -8.6452    114.6317    129.6879   1.1068440759e+02   3.3658453751e+01    0.1591474    0.1235049  -6.36 0.0007036796    1.769    0.435
        51  -9.4048     25.6148    128.3129   1.3540624767e+02   4.6539906129e+01     0.129431   0.08544877  70.88 0.0001679626    1.819    0.450
        52  -8.9395    105.7066    123.8893   1.1176001429e+02   3.6717158912e+01    0.1996056    0.1798097 -54.98 0.0002829382    1.079    0.073
        53  -9.6195     77.1049    121.3030   1.1935676075e+02   4.2161029646e+01    0.2484966    0.1955945 -68.19 0.0005339325    1.291    0.225
        54  -9.2479     63.8261    119.9838   1.2297359274e+02   4.4348575350e+01    0.2030112    0.1746165  85.00 0.0005945722    1.298    0.229
        55  -8.8219     46.1845     99.1483   1.2387639639e+02   5.1221035031e+01    0.1672184    0.1484112  87.04 0.0004160012    1.339    0.253
        56 -10.4957    242.5002     90.6777   7.3946888072e+01   1.2366695060e+01    0.2417216    0.1276462  59.16  0.001090902    2.022    0.506
        57  -9.7142     63.3933     79.7175   1.1324519743e+02   5.3260910978e+01    0.2990046    0.1912797  46.48  0.001362749    1.945    0.486
        58  -9.9861    158.9932     77.3198   8.5400741496e+01   3.4614054035e+01    0.2212222    0.1950784  57.83 0.0005260049    1.087    0.080
        59  -8.8377     51.9758     72.4758   1.1512354266e+02   5.6159800539e+01    0.1637787    0.1070568  54.24 0.0008082804    2.407    0.585
        60 -10.7899     74.3508    176.7397   1.3018304680e+02   2.9291260807e+01    0.2467248    0.2157432  82.93 0.0003424549    1.026    0.026
        61 -12.0955      2.9528     48.5745   1.2704509080e+02   6.4881175573e+01    0.3948851    0.2289074 -53.45  0.002568798    1.419    0.295
        62 -10.7737      3.7361     38.6164   1.2391328177e+02   6.6605341743e+01    0.1720404    0.1323221  12.14  0.001131206    1.494    0.330
        63 -10.2942     81.8405    249.2714   1.3731025343e+02   1.2568962133e+01    0.2147512    0.1236003  59.81  0.001210808    1.484    0.326
        64  -9.7719    214.6688    248.6737   1.1139872038e+02  -9.4296110417e+00    0.1304235   0.08441773   9.58 0.0005736347    1.709    0.415
