#   1 NUMBER                 Running object number                                     
#   2 MAG_AUTO               Kron-like elliptical aperture magnitude                    [mag]
#   3 X_IMAGE                Object position along x                                    [pixel]
#   4 Y_IMAGE                Object position along y                                    [pixel]
#   5 X_WORLD                Barycenter position along world x axis                     [deg]
#   6 Y_WORLD                Barycenter position along world y axis                     [deg]
#   7 A_WORLD                Profile RMS along major axis (world units)                 [deg]
#   8 B_WORLD                Profile RMS along minor axis (world units)                 [deg]
#   9 THETA_WORLD            Position angle (CCW/world-x)                               [deg]
#  10 FWHM_WORLD             FWHM assuming a gaussian core                              [deg]
#  11 ELONGATION             A_IMAGE/B_IMAGE                                           
#  12 ELLIPTICITY            1 - B_IMAGE/A_IMAGE                                       
         1  -9.6973     63.7419     20.7092   6.4337760328e+01   6.3818100860e+01    0.5640273    0.2832602 -51.70  0.002261822    4.094    0.756
         2  -9.9903    119.1133     19.5765   4.8540862224e+01   5.2385294337e+01    0.4904084    0.2526034 -20.20  0.002289926    2.404    0.584
         3 -10.0756    202.6905     18.1061   3.6145522376e+01   3.2817642914e+01    0.3497806    0.2855757  79.03  0.001386692    1.169    0.145
         4 -10.2088    142.8874     17.9771   4.3671211984e+01   4.6943360158e+01    0.4658889       0.3309  44.40  0.002219463    1.470    0.320
         5 -10.0179    172.1891     13.5461   3.8329201138e+01   4.0404006083e+01    0.3268736    0.2735848 -65.93  0.001589704    1.154    0.134
         6  -9.9397      6.0925      9.3952   8.6452985620e+01   7.3063707225e+01    0.3835065    0.2238627 -21.12  0.002487771    1.485    0.327
         7 -10.5778    164.4985      6.5256   3.7388428373e+01   4.2929553380e+01    0.5009035    0.3113168 -47.50  0.002527643    1.652    0.395
         8 -10.7313    167.4177      4.2169   3.6436137355e+01   4.2457979685e+01    0.5049615    0.3122454 -39.02  0.002875813    1.706    0.414
         9  -9.0297     79.2225      4.9285   5.2594758600e+01   6.2509849860e+01    0.2390546    0.1921245   6.58  0.001103244    1.281    0.219
        10  -9.3606    236.3659      1.9240   3.0023464923e+01   2.7359243911e+01    0.2946531    0.1441039  84.54  0.001650593    1.848    0.459
        11  -9.2315    186.1551      1.7944   3.3895331576e+01   3.8318485130e+01    0.2827516   0.08949598  80.95   0.00104353    3.446    0.710
        12  -7.8451    221.9768      6.3235   3.1907493161e+01   2.9886950949e+01    0.2036036   0.07228099 -81.20 0.0007049798    4.393    0.772
        13 -10.3754    214.5424    218.8260   7.7955908303e+01  -3.3104092101e+00    0.2793933    0.2547532  80.03  0.001798468    1.734    0.423
        14 -10.3964    191.4255    218.0601   8.2280974932e+01   3.0464559232e-01    0.4964685    0.4220297 -36.10  0.003100824    1.261    0.207
        15  -8.8257     47.4831    222.5042   1.1405078363e+02   2.1497415277e+01    0.1282364    0.1022007  68.49 0.0008103196    1.024    0.023
        16 -10.1062    219.4216    220.3355   7.7312082055e+01  -4.2465491023e+00    0.3416119     0.220655  30.17  0.001929363    1.476    0.322
        17 -10.6520    207.8775    213.1516   7.8227000618e+01  -1.4088508580e+00    0.7763801    0.2233162  40.68  0.002856592    3.517    0.716
        18  -9.2775    138.0480    212.5470   9.2666183843e+01   1.0088361082e+01    0.2071224    0.1901418 -52.12 0.0006548083    1.187    0.158
        19  -9.4315    159.7134    210.7115   8.7616950546e+01   6.8015882998e+00    0.3181333    0.1672566 -48.58  0.001453045    2.048    0.512
        20 -10.4178    133.8008    211.1990   9.3406424478e+01   1.1074477267e+01     0.246123    0.2293105  47.55  0.001480212    1.032    0.031
        21 -10.5658    197.4039    207.0130   7.9173579171e+01   1.2584073483e+00    0.5678285    0.2541219  44.70  0.002445691    2.454    0.593
        22  -9.9272     77.9948    207.5086   1.0572263165e+02   2.0734505895e+01    0.2688231     0.135679  25.52  0.001127863    2.536    0.606
        23 -10.0023    143.3508    211.1936   9.1274898476e+01   9.4685640458e+00    0.3445174    0.2271326 -55.41  0.001741997    1.688    0.408
        24 -10.4526    187.1120    203.7112   8.0646667219e+01   3.5192628146e+00    0.3798816    0.2718873  -6.55  0.001979425    1.651    0.394
        25  -9.7503    125.5623    204.0804   9.4173469331e+01   1.3953139154e+01    0.3207815     0.221104 -40.51  0.001600197    1.673    0.402
        26 -10.0853    150.9789    197.7872   8.7335577992e+01   1.0876317913e+01    0.3201165    0.1605979  37.83  0.001363709    1.894    0.472
        27  -8.9056    249.2463    197.0512   6.7963140071e+01  -4.8318399632e+00    0.2565246    0.1414615   9.00  0.001204266    2.704    0.630
        28  -9.2355    218.6479    197.3388   7.3352698162e+01  -4.2951146967e-01    0.2513024    0.1594062  10.06  0.001260823    1.940    0.485
        29 -11.0847    200.3674    193.7715   7.6168999264e+01   3.1182264245e+00    0.4794468    0.3235751 -48.05  0.002511209    1.603    0.376
        30  -9.5912    171.0143    195.5075   8.2528666385e+01   7.8118202969e+00    0.2230785    0.1326449  37.56   0.00104335    1.621    0.383
        31  -8.7769    229.5191    189.4633   6.9919161818e+01  -7.8242668199e-01    0.2925103   0.09750775 -28.82 0.0008103548    5.776    0.827
        32  -8.9805    208.1306    181.8255   7.2380895501e+01   3.9769358117e+00    0.1939968    0.1533638  -5.60 0.0006849056    1.322    0.244
        33  -8.9759    187.3362    177.3264   7.5620151379e+01   8.4662949096e+00    0.1485918    0.1084421  -3.75 0.0007051611    1.721    0.419
        34  -9.7890    124.9154    166.7616   8.7826557316e+01   2.2481700424e+01    0.3986539     0.331676 -39.94  0.002030698    1.282    0.220
        35 -10.0587    198.6667    160.7989   6.9970009889e+01   9.6077886346e+00    0.4830511    0.1583939 -41.22  0.001656671    2.921    0.658
        36  -9.5163    221.9997    153.7168   6.4173848252e+01   6.6971941389e+00    0.1931305    0.1816299  -5.04  0.001184909    1.095    0.087
        37 -10.0495     81.1873    144.7335   9.5353680571e+01   3.5507296967e+01    0.4086213    0.3455262 -60.72   0.00151703    1.129    0.114
        38 -10.7164     56.5984    128.8050   9.9698545391e+01   4.3068162460e+01    0.7346245    0.3875318 -47.02  0.003206699    1.886    0.470
        39 -11.9902    116.4600    121.3930   8.0159558343e+01   3.4881300684e+01    0.9300177    0.7861651 -39.16  0.004653299    1.214    0.176
        40  -9.9307      2.4556    109.9326   1.1403813231e+02   5.2753857662e+01    0.6431119     0.131536 -60.76  0.002434169    3.003    0.667
        41 -11.9850    243.8177    104.8415   5.0516559518e+01   1.1340227416e+01     1.338542    0.5814106 -38.24  0.005957319    2.025    0.506
        42  -9.8403    241.3117     88.8201   4.7467601364e+01   1.4460205383e+01    0.3954408    0.1960458 -45.64  0.001907778    1.698    0.411
        43 -10.2037    229.1895    110.7672   5.3845358360e+01   1.3096323468e+01     0.416691    0.3094386 -33.44  0.002019166    1.313    0.238
        44  -9.2697    187.2209    118.6079   6.2810736265e+01   2.0268441440e+01    0.2040989    0.1411267  40.23 0.0008598954    1.615    0.381
        45 -10.8908    160.8114    100.3186   6.3700113850e+01   2.9801372983e+01    0.6852881    0.4888063 -38.52  0.002765766    1.422    0.297
        46  -9.8213    181.0171    101.0059   5.9739286904e+01   2.5069080307e+01    0.4062751    0.3558755 -13.03  0.001980061    1.363    0.266
        47  -9.2933     48.2434     99.5646   9.6429002784e+01   5.1290812154e+01    0.3626772    0.1884665 -49.18  0.001652179    1.717    0.418
        48 -10.2750     14.0962     96.0140   1.0794439358e+02   5.5342741379e+01    0.6430036    0.2512577 -56.30  0.002951618    1.966    0.491
        49 -10.1757    134.6073     98.2894   6.9309648904e+01   3.6154979054e+01    0.3787625    0.2792106  16.54  0.001660377    1.895    0.472
        50  -9.9061     37.5817     98.4730   9.9977890708e+01   5.2738937766e+01    0.3836263    0.2761227   9.28  0.002091829    1.637    0.389
        51 -10.0538    106.9580     94.7365   7.5864315871e+01   4.2810837067e+01    0.3346504    0.2579191  35.78  0.001329812    1.346    0.257
        52 -10.8944    210.9610     87.5220   5.1356539788e+01   2.0885411076e+01    0.9518818    0.3391739 -40.73  0.003584312    2.521    0.603
        53  -8.7628     27.7064     89.3310   1.0163366840e+02   5.5835625636e+01    0.3196543    0.1425411 -61.65  0.001442012    1.961    0.490
        54  -8.8979     43.1865     89.0312   9.5776849445e+01   5.4340158186e+01    0.2194772    0.1561732  88.08  0.001087701    1.993    0.498
        55 -10.0982    129.1940     83.7278   6.6591526557e+01   4.0305158512e+01    0.3873485    0.3360499  39.82  0.001527772    1.179    0.151
        56 -11.2995     84.4715     82.7563   7.9396411503e+01   4.9663252016e+01    0.6160259    0.4691409  15.95  0.003096974    1.516    0.340
        57  -9.5603     96.0106     81.3121   7.5262146568e+01   4.7803926170e+01    0.2087459    0.1940977  35.96 0.0008744221    1.080    0.074
        58 -10.3456    213.9583     70.1624   4.6901698768e+01   2.3109261747e+01    0.5554661    0.3232009 -47.18  0.002490825    1.542    0.351
        59  -9.2969     10.1785     72.0081   1.0475707914e+02   6.1079042682e+01    0.2763574    0.1986182 -84.23  0.001504088    1.658    0.397
        60 -11.2618      4.7597     67.4142   1.0601469648e+02   6.2400990911e+01    0.6929311    0.4171208 -71.29  0.003958185    1.654    0.395
        61 -10.6220    184.2883     63.6334   4.9674334191e+01   3.0893331412e+01    0.7412869    0.4948267 -26.36  0.003578834    1.818    0.450
        62 -11.1994    139.7738     64.3786   5.8346211517e+01   4.1370773637e+01    0.7195002    0.5817893 -72.05  0.002938372    1.390    0.281
        63 -10.9767     86.9962     64.6055   7.2859776806e+01   5.2786035523e+01    0.5323222    0.4508615  20.11  0.002441597    1.193    0.162
        64  -9.2458    250.5910     60.1362   4.0478502039e+01   1.7093931984e+01    0.3755071   0.08847181 -40.54  0.001398175    3.252    0.693
        65  -9.1695    114.8931     62.0907   6.3742066577e+01   4.7466696797e+01    0.2686388    0.1954411  43.05   0.00107956    1.342    0.255
        66  -9.7887     20.6734     56.1786   9.6210716255e+01   6.3654752889e+01    0.5688245    0.2403807 -38.80  0.002683575    2.150    0.535
        67 -10.2168     95.6719     54.0377   6.6545122623e+01   5.2919164220e+01    0.5175786    0.3931894  18.14  0.002230161    1.485    0.327
        68  -9.9219    234.2564     47.5024   3.9496023607e+01   2.2168833876e+01    0.3943336    0.3114711  26.13  0.002289665    2.120    0.528
        69 -11.1720    199.4786     44.9057   4.2835015425e+01   3.0146958145e+01    0.7425869    0.4737027 -40.26  0.003935458    1.537    0.349
        70  -8.6946    127.5914     50.2363   5.6774087549e+01   4.6479220268e+01    0.1929837    0.1391176 -18.85 0.0008590518    1.678    0.404
        71  -9.1571     14.0582     49.5026   9.7278546815e+01   6.5509989901e+01    0.2503001    0.1578313 -49.71  0.001507945    1.351    0.260
        72 -11.2517     82.0224     43.6848   6.7165627426e+01   5.7273607606e+01    0.6988351     0.449663 -25.03   0.00339976    1.683    0.406
        73 -10.4062     50.2129     42.5421   7.8590291955e+01   6.2827734069e+01    0.5155503    0.3617018 -15.42  0.002945744    1.457    0.314
        74 -10.5666    140.6952     38.3055   5.0257756501e+01   4.5060724297e+01    0.4929789    0.4180184 -61.22  0.002012241    1.246    0.197
        75 -10.3029     40.8376     34.9872   7.9686503873e+01   6.5362787826e+01    0.6649175    0.2276633 -45.97  0.002761337    3.068    0.674
        76  -9.8284    172.9345     36.3038   4.4255398642e+01   3.7556143082e+01    0.3571322    0.3027317 -45.30  0.002095054    1.235    0.190
        77 -10.1523    181.1386     26.1931   4.0501947903e+01   3.6863651828e+01    0.4318704    0.3536486 -10.08   0.00255844    1.659    0.397
        78  -9.8982    109.2776     24.7263   5.2501775744e+01   5.4064425184e+01    0.5631468    0.2535833  35.42  0.002231131    2.888    0.654
        79  -9.4534    109.5959    245.9620   1.0330687493e+02   8.0993866156e+00    0.3067133    0.2775285   2.12  0.002033244    1.366    0.268
        80  -8.5640    180.0145    244.0374   8.8684729283e+01  -2.2101647575e+00    0.1810928     0.146806  57.35  0.001121942    1.633    0.388
        81  -9.2398    124.6014    242.3757   9.9756260987e+01   6.4941892501e+00    0.4336584    0.2621177 -14.28  0.001716129    4.039    0.752
        82  -9.0859    150.2510    239.0819   9.3977692117e+01   3.1223914916e+00    0.2897683    0.1781576 -46.60  0.001566781    1.854    0.461
        83  -9.1128    238.5116     15.4789   3.2543175870e+01   2.5404038374e+01    0.2369085    0.1692127  37.58  0.001393379    2.455    0.593
        84  -9.7509    131.7538    238.1857   9.7716920339e+01   6.1593529404e+00     0.346672    0.1552487  35.76  0.001576683    1.961    0.490
        85 -10.4430    126.8148    226.6689   9.7216000821e+01   9.1205111325e+00     0.299228    0.2556366 -69.64  0.001813988    1.326    0.246
        86  -9.0292     91.2746    227.1818   1.0504803688e+02   1.4518717662e+01    0.1916673    0.1652284 -43.07  0.001028194    1.446    0.309
        87 -10.6653     38.8400    223.4142   1.1594655325e+02   2.2341614441e+01    0.4761891    0.2593544  64.54  0.002570248    1.681    0.405
        88 -10.1991     80.2864    221.1957   1.0678593067e+02   1.7387998285e+01    0.2568626    0.1971139  52.23  0.001038303    1.136    0.120
        89 -11.8718     30.1262    215.2679   1.1715612688e+02   2.5113077231e+01    0.9094171    0.5855547  86.54  0.005422504    1.373    0.271
        90 -11.8193     32.5491    204.6255   1.1578847792e+02   2.7232615275e+01    0.8941243    0.4336366  60.52  0.004386366    1.982    0.495
