#   1 NUMBER                 Running object number                                     
#   2 MAG_AUTO               Kron-like elliptical aperture magnitude                    [mag]
#   3 X_IMAGE                Object position along x                                    [pixel]
#   4 Y_IMAGE                Object position along y                                    [pixel]
#   5 X_WORLD                Barycenter position along world x axis                     [deg]
#   6 Y_WORLD                Barycenter position along world y axis                     [deg]
#   7 A_WORLD                Profile RMS along major axis (world units)                 [deg]
#   8 B_WORLD                Profile RMS along minor axis (world units)                 [deg]
#   9 THETA_WORLD            Position angle (CCW/world-x)                               [deg]
#  10 FWHM_WORLD             FWHM assuming a gaussian core                              [deg]
#  11 ELONGATION             A_IMAGE/B_IMAGE                                           
#  12 ELLIPTICITY            1 - B_IMAGE/A_IMAGE                                       
         1 -10.6944     49.7114     32.7418   5.6919271248e+01   6.6938720586e+01    0.4823845    0.3338275  31.59  0.002439748    1.404    0.288
         2 -11.0759     88.2864     24.6467   3.7281868800e+01   5.9696934033e+01    0.5764493    0.2093295 -43.98  0.001973558    3.334    0.700
         3 -12.2844     96.4803     22.0302   3.3837559081e+01   5.7975914586e+01    0.3650603    0.2977453  81.61  0.000440896    1.297    0.229
         4 -11.4852     20.2707     16.9740   6.7694314597e+01   7.4532049656e+01    0.3481408    0.2576964 -22.79  0.001124864    1.301    0.231
         5 -10.8959     66.1052     16.4764   4.0631569848e+01   6.6056345682e+01    0.2950766    0.2620241  21.13 0.0004137077    1.099    0.090
         6 -10.9367     49.3932     14.1663   4.6713503027e+01   7.0036438747e+01    0.2968185    0.2627157   2.68 0.0008709865    1.105    0.095
         7 -10.4318     45.0541     12.4229   4.7902628674e+01   7.1168653807e+01    0.2570048    0.2080654   8.32 0.0007139542    1.239    0.193
         8 -10.8951      6.2904     14.7275   7.8921992037e+01   7.6424292642e+01    0.2328781    0.1599783 -72.82  0.001272843    1.824    0.452
         9 -10.2306    204.1103     13.6247   1.6543256608e+01   3.2642092119e+01    0.2108599    0.1301567 -45.32 0.0003133312    1.373    0.272
        10 -10.3512    116.0758     13.5746   2.6074840513e+01   5.3846057536e+01    0.2138802    0.1818312 -52.80 0.0004292219    1.226    0.185
        11 -11.9600    122.6789      7.2213   2.2518883377e+01   5.2713258253e+01    0.5650806    0.3508056  35.40  0.001293294    1.886    0.470
        12 -10.0849     39.1789     12.1756   5.1127332657e+01   7.2349189104e+01    0.2076858    0.1661838  12.39 0.0004087138    1.217    0.178
        13 -10.4438     27.1550     11.0595   5.8525044742e+01   7.4619691961e+01    0.2236028    0.1793408 -40.96  0.001318388    1.368    0.269
        14 -11.8997     72.0371     10.0980   3.4975672562e+01   6.5406186666e+01    0.6058593    0.2759371  67.54 0.0002955205    2.431    0.589
        15 -10.6916     78.1834      8.1725   3.2045810359e+01   6.4095524588e+01    0.2630204    0.2168383 -11.10  0.000601461    1.331    0.249
        16 -12.2025     56.3954      8.6124   3.9966952798e+01   6.9240647651e+01     0.564174    0.3869694  42.44  0.002657753    1.311    0.237
        17 -11.4418     98.3257      7.6855   2.6907490543e+01   5.9010335117e+01    0.4696379    0.2888915 -73.29  0.002138929    2.068    0.516
        18 -10.6172      3.6284      8.6076   7.8369978648e+01   7.7903412337e+01    0.2224349    0.2034093  -3.07 0.0007386693    1.151    0.131
        19  -9.2918    213.5203      8.5196   1.4724570107e+01   3.1163909477e+01    0.1159753   0.09781624 -53.19  0.000235854    1.028    0.028
        20 -10.4750    177.4734      8.5105   1.7117303470e+01   3.8999197047e+01    0.1250577    0.1119276 -67.62 0.0001419124    1.025    0.024
        21 -11.8031     86.3291      7.1507   2.9350740901e+01   6.2142619332e+01    0.4750224    0.2562928  41.76 0.0007826554    1.858    0.462
        22  -9.6223    203.1000      4.9750   1.4457209760e+01   3.3630189772e+01    0.1748022    0.1338326  39.76 0.0005810054    1.692    0.409
        23  -9.4566     22.8266      4.9065   5.7505323754e+01   7.6306848618e+01    0.1564165    0.1510929  19.60 0.0002446838    1.282    0.220
        24  -9.5897    134.8018      3.8691   1.9704409661e+01   4.9863112021e+01    0.2199201    0.1655801  76.17 0.0003885636    1.210    0.174
        25  -9.5509    131.4653      3.5507   1.9982377728e+01   5.0746112388e+01    0.2257999    0.1378601  53.97  0.000502316    1.599    0.375
        26 -10.9207     38.1931      2.2938   4.4758693768e+01   7.3897807721e+01     0.327785    0.2295363  45.82  0.001386003    1.319    0.242
        27 -11.3997    114.3494      1.8543   2.1590263804e+01   5.5323980803e+01    0.4790497    0.1814262  73.12  0.001464981    2.392    0.582
        28  -8.8966    230.2850      1.6932   1.2340380066e+01   2.8479371302e+01    0.1182135   0.06121567 -52.23 0.0002772686    1.566    0.361
        29  -9.4417    143.7289      1.4079   1.7893450391e+01   4.7788228114e+01      0.18671    0.1079992  63.94  0.000790188    1.606    0.377
        30  -9.0185     79.2899      1.3295   2.8084893394e+01   6.4445283068e+01    0.1449955   0.09146311  36.02 0.0003178277    1.622    0.383
        31  -9.4430    102.8267     96.4107   5.8967739189e+01   4.3417222755e+01    0.2891753    0.2208393   5.73  0.001307867    1.645    0.392
        32 -10.7139      4.8727     95.8643   9.7987336741e+01   5.6492822725e+01    0.4893872    0.2585167 -11.79  0.002224925    2.258    0.557
        33  -9.4946     63.8789     96.5257   7.2782500324e+01   5.0381479580e+01    0.2242732    0.1462019  29.05  0.001010517    1.534    0.348
        34 -11.1255    132.1768     92.7368   4.9712120552e+01   3.8004183146e+01    0.2814036    0.2528448  45.63 0.0004589572    1.117    0.104
        35  -9.9132    107.9489     89.0311   5.5285497480e+01   4.3920161492e+01    0.2365801    0.2278624  42.81 0.0006151418    1.046    0.044
        36 -10.8576     28.2663     87.1007   8.6096497611e+01   5.7189939289e+01    0.2526456    0.2139081 -31.99 0.0004442699    1.199    0.166
        37 -10.6388     53.6885     77.7916   7.2107801678e+01   5.6492940555e+01    0.4632045    0.2858009  53.83  0.001949245    2.015    0.504
        38  -9.6924    216.0227     78.2251   3.1048394550e+01   2.2950415891e+01    0.1706166    0.1497577  -3.40 0.0003278278    1.209    0.173
        39 -10.3824     78.0048     78.0574   6.2076488379e+01   5.2304278076e+01    0.2189578    0.2111668  22.00            0    1.012    0.012
        40 -10.1109      1.9087     75.8103   9.7276567056e+01   6.1843726319e+01    0.2188212    0.1608385 -44.41  0.001167016    1.295    0.228
        41  -9.1845    125.0753     69.0200   4.4355382452e+01   4.3914484427e+01    0.1698707    0.1659964  39.41            0    1.007    0.007
        42 -10.0487      7.8935     68.9193   9.3173498408e+01   6.3361290573e+01     0.196266    0.1796573 -54.91 0.0003808759    1.003    0.003
        43  -9.0947    192.2580     65.7248   3.1022713374e+01   2.9251631757e+01    0.1267585   0.09153578 -56.83 0.0002042012    1.464    0.317
        44  -9.9590    141.5913     65.2571   3.9388995398e+01   4.0664093953e+01    0.1998961    0.1405781 -21.61  0.000945469    1.593    0.372
        45  -9.5704    126.3514     64.8764   4.2698784224e+01   4.4323131691e+01    0.1978889    0.1832809 -29.07  0.000568698    1.103    0.093
        46 -10.1771      4.1698     64.3544   9.4524238488e+01   6.4706254260e+01    0.2377376    0.1708645 -47.73 0.0005758539    1.268    0.211
        47 -11.1528      3.6121     59.5072   9.4074544416e+01   6.5965297755e+01    0.3445282    0.2886867 -25.68  0.001634903    1.179    0.152
        48  -9.1234     75.3422     64.7286   5.8641010360e+01   5.5701643984e+01    0.1487269    0.1191761  72.80 0.0006992542    1.611    0.379
        49  -8.7989     67.2856     64.7193   6.1945166666e+01   5.7241220456e+01    0.1420877    0.1187566  75.37 0.0001753197    1.518    0.341
        50 -10.4258     98.6256     61.1942   4.9098489741e+01   5.1430986580e+01    0.3777138    0.2506947 -63.29  0.001388447    2.089    0.521
        51  -9.5069     43.9323     62.6956   7.2189387125e+01   6.1503563434e+01    0.2061344    0.1848935  18.88 0.0008378382    1.106    0.096
        52  -9.3664    121.0077     61.9857   4.3058998022e+01   4.6074632092e+01    0.1696416    0.1666424  46.43            0    1.004    0.004
        53  -9.1830    115.4235     61.7154   4.4412958965e+01   4.7442035826e+01    0.1569362    0.1170671 -86.43 9.921351e-05    1.845    0.458
        54  -8.9795     86.4250     61.4310   5.3275801621e+01   5.4083669364e+01    0.1493809    0.1423109  20.66 0.0001320654    1.023    0.022
        55 -10.0161     35.4998     61.0219   7.6097708615e+01   6.2999397708e+01    0.2829256    0.1870576   4.73 0.0009073513    1.744    0.427
        56  -9.5936     13.6573     61.5657   8.8573268241e+01   6.4904948834e+01    0.3029614    0.1347981  11.43  0.001262512    2.422    0.587
        57  -9.4413     56.8423     59.8792   6.4881550961e+01   6.0150716515e+01    0.2181613    0.1878428  -8.98 0.0002871958    1.214    0.176
        58  -9.8550     89.7355     58.9690   5.1208296831e+01   5.3835947830e+01    0.1988445     0.189467 -35.27 0.0002097902    1.087    0.080
        59  -9.8131     22.4792     57.8413   8.2524622778e+01   6.5149628782e+01    0.2349375    0.1912089  11.12 0.0005676286    1.254    0.202
        60  -9.7312    227.5115     56.5055   2.4845083314e+01   2.3493571358e+01    0.1207384   0.09837008 -42.16 8.756307e-05    1.049    0.047
        61  -9.5494    164.6834     56.3102   3.2469728040e+01   3.6588530147e+01    0.1438348    0.1010126 -64.23 0.0003069574    1.637    0.389
        62 -10.3991     78.2534     55.9371   5.4233178243e+01   5.6889284468e+01     0.277481    0.2129154  38.71 0.0005434953    1.262    0.207
        63  -9.8848     62.8679     52.6106   5.9338161478e+01   6.0620665930e+01    0.3723219    0.2628092 -64.71  0.001714421    1.875    0.467
        64  -9.5774    240.5058     52.4954   2.2823507466e+01   2.1633777630e+01    0.1165969   0.09175532 -41.46 -5.292876e-06    1.048    0.046
        65  -9.9122     58.1475     50.6979   6.0750012030e+01   6.1885629187e+01    0.3100335    0.1614781 -46.91  0.001183093    1.965    0.491
        66  -9.7341     23.9229     51.3643   7.9782777705e+01   6.6589248869e+01    0.2900769    0.1781416 -88.42  0.001259865    2.422    0.587
        67  -9.0021    111.6315     51.7161   4.1877780081e+01   5.0014992623e+01     0.156312    0.1111973  26.88 0.0007017622    1.697    0.411
        68 -11.3679     94.0604     48.7330   4.5844375514e+01   5.4689796136e+01    0.2479455    0.2241772 -34.77 0.0002060705    1.152    0.132
        69 -10.0498    169.5187     56.4754   3.1765582697e+01   3.5457486207e+01    0.1346187    0.1287656 -48.97  0.000809851    1.012    0.012
        70  -9.0702    148.2688     47.2910   3.2458327908e+01   4.1711048533e+01    0.1357738    0.1076126  24.76 0.0002130576    1.508    0.337
        71 -10.4325      6.8323     45.8963   8.9318803774e+01   6.9215687014e+01    0.3038416    0.1900519 -31.80  0.001004036    1.535    0.349
        72 -11.1013    133.6361     41.0909   3.3082564367e+01   4.6149203793e+01     0.462342    0.2692526  -0.45  0.001612244    2.990    0.666
        73 -10.3222     39.8810     43.7335   6.7434519515e+01   6.6370380653e+01    0.3134277    0.2391943  -7.86  0.001173489    1.434    0.303
        74  -9.7409    117.3222     43.3170   3.7360440791e+01   4.9906304559e+01    0.2391175    0.1969354  61.45 0.0005320726    1.173    0.147
        75  -9.2003     71.5967     42.2255   5.1208798008e+01   6.0857184167e+01    0.2074311    0.1390344 -24.99 0.0009497679    1.708    0.415
        76  -9.6621     20.6792     44.4677   7.9622720457e+01   6.8538822271e+01    0.1779872    0.1266267  -2.05  0.000926701    1.470    0.320
        77  -9.0982    151.7617     40.3351   2.9672933470e+01   4.1772374974e+01    0.1416577    0.0970519 -56.36 0.0003128932    1.542    0.352
        78 -10.5676     81.9677     35.9170   4.4476757881e+01   5.9599210188e+01    0.2328799    0.2092274 -24.27 0.0003180686    1.167    0.143
        79 -10.0891     83.1861     31.9257   4.2250244949e+01   5.9921135911e+01    0.3590308    0.2184189  37.64  0.001401086    1.715    0.417
        80 -10.7288    222.5281     38.5076   2.1154918305e+01   2.6431256587e+01    0.1975451   0.09679978  55.76  0.001038656    2.348    0.574
        81  -8.9242     96.2639     38.2893   4.0927340671e+01   5.5835011406e+01    0.1432752    0.1102287  22.31  0.000224769    1.497    0.332
        82 -10.2880     12.8202     36.1915   8.2285769880e+01   7.1149439614e+01    0.3699671    0.1897703 -59.00  0.001282133    1.790    0.441
        83 -10.3761     58.7533     35.5515   5.3767252309e+01   6.4697475728e+01    0.3899503     0.227311  32.18  0.001729571    1.808    0.447
        84 -10.3261     40.8126     36.0738   6.3512725856e+01   6.7824200662e+01    0.3313786    0.1988255  36.93   0.00112899    1.639    0.390
        85 -10.5314     10.8626    247.9811   1.0367604182e+02   2.2070686697e+01    0.2537538     0.107324  42.28  0.001526875    1.636    0.389
        86  -9.9920    154.0944     32.2455   2.6761773185e+01   4.2183055433e+01    0.2271339    0.1865854  22.32 0.0008002039    1.464    0.317
        87 -10.3210     17.6137     31.5414   7.6973133719e+01   7.1788871242e+01    0.2219301    0.1994837 -21.98 0.0002498052    1.020    0.019
        88  -9.5332     92.2651     31.2098   3.9074058693e+01   5.7836140917e+01    0.1894894    0.1660829 -80.87   0.00037778    1.300    0.231
        89 -10.3943      3.8623     31.2467   8.7551577081e+01   7.2885047837e+01    0.2259645    0.1622381  24.93 0.0004641657    1.498    0.332
        90  -9.7695     64.8172     29.8226   4.8214218562e+01   6.4412411039e+01    0.2159197    0.1810664  20.51 0.0004648946    1.195    0.163
        91  -9.4232     59.2843     29.6030   5.0571520916e+01   6.5615824110e+01    0.2030591    0.1252734  36.73 0.0008746698    1.581    0.368
        92 -10.1689    153.1052     27.6090   2.5423481516e+01   4.2952339225e+01    0.1952546    0.1798934 -39.25 0.0004405532    1.110    0.099
        93  -8.9008    104.2745     28.2722   3.4584515258e+01   5.5234675024e+01     0.141695    0.1047559  32.32 0.0002249126    1.485    0.327
        94 -10.9102     14.1806    239.3583   1.0273635769e+02   2.3292997860e+01    0.2365489    0.1073729  46.57    0.0014215    1.648    0.393
        95  -9.2116     42.1158     28.6424   5.9063387181e+01   6.9046351029e+01    0.1919321    0.1222781  26.55 0.0005244251    1.603    0.376
        96  -9.3573    160.5988     26.8515   2.4217369551e+01   4.1205201142e+01    0.1843099    0.1127924 -41.38 0.0004802466    1.550    0.355
        97  -9.1762    174.2766     34.6547   2.4878682742e+01   3.7092528037e+01    0.1411048   0.08826512 -56.42 0.0007004401    1.628    0.386
        98  -9.4094    131.2077     26.4060   2.8341425762e+01   4.8586450901e+01    0.1850917    0.1300062  81.64 0.0003996234    1.462    0.316
        99  -9.7625    120.1734     26.0219   3.0209630617e+01   5.1453056721e+01     0.235111    0.1555494  24.25  0.001076575    1.969    0.492
       100  -9.4865     59.9103     25.9428   4.8383249050e+01   6.6076186964e+01    0.2165266    0.1789523 -82.77  0.001126624    1.709    0.415
       101  -9.9564     33.3397     26.1852   6.3239385936e+01   7.0933117984e+01    0.3144062    0.1545675  19.80  0.001232203    2.721    0.632
       102  -9.8229    195.7568     24.0427   1.9822346635e+01   3.3414040357e+01    0.2703506    0.1464135  -8.63 0.0006971105    2.590    0.614
       103 -10.2003    110.9426     24.7261   3.1589592120e+01   5.3971411391e+01    0.3039843    0.1794076  72.53   0.00136325    1.748    0.428
       104  -9.9027    136.0983     23.7847   2.6609521670e+01   4.7634113480e+01    0.2095837    0.1723645 -68.65 0.0007138688    1.232    0.188
       105 -12.2000      8.0846    238.5140   1.0401367852e+02   2.3912450576e+01    0.3637179    0.3067732 -35.31  0.002825595    1.638    0.389
       106  -8.9857     49.5200     24.4853   5.2687473662e+01   6.8421855314e+01    0.1390725      0.12852  19.22 4.259084e-05    1.042    0.041
       107  -9.8078      2.9825     23.7262   8.5803220206e+01   7.4666935743e+01    0.1730077    0.1472985 -18.34 0.0002122564    1.084    0.077
       108  -9.2097    246.1544     23.4004   1.6224457450e+01   2.3638066921e+01     0.133607   0.09083709 -71.37 0.0003304994    1.495    0.331
       109 -10.7869     38.0524     22.6939   5.8281793618e+01   7.0820437381e+01     0.281554    0.2715639 -60.55 0.0003765535    1.291    0.226
       110 -10.5424     35.3446     19.3502   5.8065215315e+01   7.1866496706e+01    0.2399507    0.1854219  -0.71 0.0006437733    1.345    0.257
       111  -9.2740     72.5863     22.5275   4.1412633872e+01   6.3750489759e+01    0.1415962    0.1302014  33.67 0.0001243271    1.017    0.017
       112 -10.2760    223.7117     21.3912   1.7117297069e+01   2.7949263477e+01    0.1464346     0.103604  66.27 0.0006684266    1.603    0.376
       113  -9.7306     66.6465     20.9467   4.2853068089e+01   6.5335225487e+01    0.1859882    0.1769019   8.64 0.0003902467    1.075    0.070
       114  -9.7205     30.6756     20.4446   6.1863735775e+01   7.2420117648e+01    0.2524684    0.1221792  39.04  0.001042372    2.053    0.513
       115  -9.4093    247.6348     18.7870   1.5180433796e+01   2.3815373708e+01    0.1539911   0.07407308 -37.78 0.0001044926    1.548    0.354
       116  -9.4185     48.5409     19.5422   5.0395873943e+01   6.9410350786e+01    0.1380973    0.1255571  20.67 7.595134e-05    1.024    0.024
       117  -8.8140    200.3042     18.3265   1.7993497986e+01   3.3002794262e+01    0.1155457   0.09141198  30.03 0.0003305092    1.646    0.392
       118  -8.9770    147.3288     18.3159   2.3155325396e+01   4.5369602305e+01    0.1399487   0.09713323  38.68 0.0006498224    1.678    0.404
       119  -8.9980     70.6369     18.2938   3.9913470558e+01   6.4768500395e+01    0.1405395    0.1105104 -80.39 0.0007029874    1.708    0.414
       120 -10.1040     31.1532    239.1642   9.9054897908e+01   2.1917600487e+01    0.1633424   0.09704899  45.60 0.0004453008    1.330    0.248
       121 -10.5193     23.5242     16.5556   6.4846148469e+01   7.4182282825e+01    0.2344673    0.2155432 -17.08 0.0006790491    1.121    0.108
       122 -11.3891      2.6359    234.9733   1.0509085286e+02   2.4943692459e+01    0.2863064    0.1301364 -76.86  0.001690001    2.519    0.603
       123 -10.5796     12.3944     17.5380   7.4720664272e+01   7.5300934297e+01    0.2633054    0.1214745  20.79   0.00120313    2.153    0.536
       124 -10.9798     85.1382     15.9649   3.4045511238e+01   6.1531455719e+01    0.3972231    0.1449495  53.23  0.001505415    2.329    0.571
       125 -10.4512    183.7539     15.0225   1.8420375670e+01   3.6962216358e+01    0.2058868    0.1688836  89.69 0.0004793475    1.180    0.153
       126 -12.3402      3.0977    222.5686   1.0470244724e+02   2.7179777543e+01    0.6393077     0.247605  78.81  0.003292894    2.728    0.633
       127 -11.0773      8.8748    220.4551   1.0333872366e+02   2.7154094570e+01    0.1967963    0.1713224 -37.92  0.001467564    1.514    0.340
       128 -10.0685    244.7009    181.3304   4.7800492128e+01   5.4395594732e+00   0.09465045   0.07936489 -32.00 0.0007030537    1.643    0.391
       129  -9.2391    212.9793     14.2384   1.6120002675e+01   3.0753261635e+01    0.1415549   0.09369464  84.07 0.0008676524    1.567    0.362
       130  -9.3053      7.9838    181.0548   1.0218720446e+02   3.5325130733e+01    0.1426316    0.1206105  52.21 0.0009498061    1.003    0.003
       131  -9.0628    127.6959     14.2550   2.4449625932e+01   5.0770039860e+01    0.1380157   0.09764159 -69.07   0.00069022    1.509    0.338
       132  -8.8913     20.2980    174.6696   9.8469978772e+01   3.5839650541e+01    0.1379177   0.07721583  54.26 0.0007029059    1.641    0.391
       133  -9.8356     34.9713     13.7026   5.4789000566e+01   7.2878018964e+01     0.192571    0.1626395  25.06 0.0005484713    1.088    0.081
       134  -9.8585     25.9966    160.3191   9.5827403722e+01   3.8718618197e+01    0.1799026    0.1484366  33.70 0.0001889202    1.139    0.122
       135  -9.2951     20.0670    142.9674   9.6347422362e+01   4.3428838115e+01     0.158529    0.1391297  35.71 0.0003830569    1.113    0.101
       136 -10.4123     46.8950    131.0369   8.5790483150e+01   4.3918468699e+01    0.2085505     0.202524  57.19 0.0003545623    1.007    0.007
       137  -9.7031    162.4938     11.5521   1.9315087016e+01   4.2276489667e+01    0.1295292    0.1174293 -77.11 9.629429e-05    1.017    0.017
       138  -9.1473    154.6667     11.3033   2.0025387883e+01   4.4213949416e+01    0.1430384   0.08755573 -61.75 0.0007036793    1.659    0.397
       139  -9.2718     18.3023    131.6967   9.6002607395e+01   4.6397899123e+01     0.143066   0.08925652  55.74 0.0005294902    1.592    0.372
       140  -9.7842     58.7801    128.8180   8.1275092632e+01   4.3041829372e+01    0.2004637    0.1888257 -73.88 0.0003856744    1.090    0.083
       141  -9.9537     55.4978    126.9513   8.2117116738e+01   4.3926638566e+01    0.2475978    0.1937271  53.52 0.0009144737    1.313    0.239
       142  -9.2614     32.4744     10.5031   5.4325428942e+01   7.3823422363e+01    0.1349347    0.1168614  10.40 -1.937635e-05    1.021    0.020
       143  -9.3840     77.8458    128.1861   7.4673960969e+01   4.0508720405e+01    0.1922604    0.1662398  -9.71  0.001007285    1.266    0.210
       144  -9.4326     38.9871    125.0000   8.7779322932e+01   4.6305407425e+01    0.2305118   0.07885063  22.40 0.0007992001    2.920    0.658
       145  -9.3336      6.1089    121.5180   9.9595627157e+01   4.9776999774e+01     0.175644    0.1292204  17.52  0.000358221    1.431    0.301
       146  -9.5503     69.4910    118.9661   7.5692612667e+01   4.4005193491e+01    0.2155802    0.1477842 -62.00  0.000425987    1.523    0.343
       147 -10.4076     91.7783    116.3568   6.7581750143e+01   4.1022178663e+01    0.2588842    0.2284256 -26.23  0.000300754    1.189    0.159
       148  -9.2625     53.5156    117.4759   8.1202672926e+01   4.6569793170e+01    0.1436369    0.1397411  52.01 8.478278e-05    1.017    0.017
       149  -9.0229    153.4429    113.9863   5.0288638151e+01   2.9663243642e+01    0.1862784    0.1227074 -62.42 0.0004854721    2.265    0.558
       150 -11.2239      2.1994    112.0164   1.0041007729e+02   5.2418210453e+01    0.2967439    0.2045253 -69.69 0.0004029175    1.349    0.259
       151  -9.6329     61.5654    112.2118   7.7191342544e+01   4.6824553721e+01    0.2002469    0.1344203 -48.13 0.0003443165    1.514    0.339
       152  -9.3322     79.4332    111.3858   7.0566896778e+01   4.4291120965e+01    0.1485512     0.140552   9.98 0.0002224526    1.054    0.051
       153  -9.7797     17.9297    108.5062   9.3811625115e+01   5.2418565864e+01    0.1952712    0.1365137  12.14 0.0009418749    1.530    0.346
       154  -9.2957     66.0132    103.1051   7.3528634043e+01   4.8436807268e+01    0.1703736    0.1667192 -40.22 0.0002711222    1.033    0.032
       155  -9.2768    108.4113    101.4603   5.8645800999e+01   4.1218144602e+01    0.1480097    0.1461124  34.21 2.779861e-06    1.052    0.049
