#   1 NUMBER                 Running object number                                     
#   2 MAG_AUTO               Kron-like elliptical aperture magnitude                    [mag]
#   3 X_IMAGE                Object position along x                                    [pixel]
#   4 Y_IMAGE                Object position along y                                    [pixel]
#   5 X_WORLD                Barycenter position along world x axis                     [deg]
#   6 Y_WORLD                Barycenter position along world y axis                     [deg]
#   7 A_WORLD                Profile RMS along major axis (world units)                 [deg]
#   8 B_WORLD                Profile RMS along minor axis (world units)                 [deg]
#   9 THETA_WORLD            Position angle (CCW/world-x)                               [deg]
#  10 FWHM_WORLD             FWHM assuming a gaussian core                              [deg]
#  11 ELONGATION             A_IMAGE/B_IMAGE                                           
#  12 ELLIPTICITY            1 - B_IMAGE/A_IMAGE                                       
         1 -14.3964    223.6920      5.3244   3.7305760191e+01   2.8474575172e+01     2.309875     1.448785  46.17  0.008754647    2.028    0.507
         2 -14.0849    181.3358     49.3599   5.4389129898e+01   3.3443070529e+01     1.937346     1.301966  22.46 0.0008559721    2.046    0.511
         3 -14.1591    192.9755     39.6900   4.9862538228e+01   3.1899177555e+01     1.365153     1.027335 -34.54  0.003446308    1.197    0.165
         4 -14.4110    200.8076     31.1168   4.6415789318e+01   3.1065652418e+01     1.291448     1.119038   2.94  0.001377018    1.317    0.241
         5 -12.7122     60.9677      3.1153   6.1570609390e+01   6.9052373707e+01     1.098055    0.2121343  54.18  0.003420185    4.464    0.776
         6  -9.2723     43.2650    236.3533   1.1982446132e+02   2.1816181876e+01    0.0848431   0.07968966 -38.59 0.0006984879    1.623    0.384
         7 -19.3212     13.9030    156.0290   1.2165749424e+02   4.0496361045e+01     18.22482     5.353965 -86.12   0.07173177    3.344    0.701
         8 -13.6360     53.1391    199.8142   1.1561923444e+02   2.7253996232e+01     0.383753     0.359792  72.68  0.001238915    1.246    0.197
         9  -9.5368     42.4101    209.6259   1.1851095598e+02   2.6585079265e+01    0.2384813    0.1665337 -85.38  0.001300668    1.439    0.305
        10  -9.6912    174.6465    210.6954   9.2449557101e+01   8.7571723671e+00    0.1202558   0.07893322   9.63 0.0007040827    1.710    0.415
        11  -9.7559     55.8576    223.5168   1.1671752640e+02   2.2611861106e+01    0.1365548   0.08406951  44.63 9.426513e-05    1.259    0.206
        12 -12.7048    204.9171    195.9636   8.4856059067e+01   6.3318293305e+00    0.7546755    0.3177391  20.58   0.00283299    4.309    0.768
        13 -11.9080    193.5121    195.6712   8.6780020160e+01   8.0360298631e+00    0.8543552    0.5417536 -64.89  0.003698918    4.630    0.784
        14 -10.5812     96.4793    201.9834   1.0665235724e+02   2.1368104888e+01    0.2981655    0.2317599 -46.88  0.001949259    1.589    0.371
        15 -10.4064     38.8147    199.3867   1.1862208810e+02   2.8916938523e+01    0.1846773    0.1188417  66.97 0.0005506664    1.311    0.237
        16 -11.4440     27.1222    203.7413   1.2129899048e+02   2.9270570631e+01    0.4172217   0.09017614  48.02  0.001369344    3.014    0.668
        17  -8.8086    161.2457    199.3359   9.3269047416e+01   1.2345907068e+01    0.1153361   0.08563917  -1.45 0.0002879217    1.554    0.357
        18 -11.9658    134.4459    197.5811   9.8278832254e+01   1.6662160762e+01    0.3045074    0.2037236 -65.28  0.001282719    1.979    0.495
        19  -9.8277     44.7483    197.8302   1.1726163487e+02   2.8581056879e+01    0.1941965    0.1695708  54.48  0.001430421    1.179    0.152
        20 -16.2248     70.7700    146.9691   1.0587891209e+02   3.6301131954e+01      12.2769     5.434267  75.26   0.02579913    7.612    0.869
        21 -10.7323    151.7626    195.5324   9.4536606810e+01   1.4370204652e+01    0.3089211    0.1031255  40.74   0.00129651    2.614    0.617
        22 -10.1259     81.8283    194.7355   1.0900137236e+02   2.4685469700e+01    0.2032026    0.1678376  85.40 0.0006988403    1.227    0.185
        23 -11.4067    128.7511    195.6253   9.9170652800e+01   1.7844937056e+01    0.2048369    0.1713181 -53.38   0.00060576    1.378    0.274
        24 -11.3217     49.0039    218.4415   1.1773461820e+02   2.4264468436e+01    0.2743673    0.1470161  55.27  0.001717102    1.501    0.334
        25  -9.4601    168.9776    235.2929   9.6731840110e+01   6.3589124263e+00    0.1469506    0.1113809  27.49 0.0003829082    1.024    0.024
        26 -11.4792     59.9141    231.8887   1.1647924680e+02   2.0739466621e+01    0.1679555    0.1244707  59.38 0.0003271536    1.101    0.092
        27 -11.4592     98.8480    181.6780   1.0373404645e+02   2.4845922155e+01     0.470853    0.2958041 -48.26  0.001668583    1.857    0.461
        28  -9.5415     97.0140    191.0057   1.0529202616e+02   2.3316895359e+01    0.1694287    0.1582693  30.16  0.001162994    1.190    0.159
        29 -10.3948     94.8954    187.7713   1.0536987153e+02   2.4232194283e+01    0.2247461     0.189122  88.55 0.0004690766    1.246    0.197
        30  -8.7840    164.7027    187.3439   9.0746159792e+01   1.3647955340e+01    0.1161509   0.09752589  72.38 0.0003683901    1.670    0.401
        31 -13.6038     63.1698    186.9081   1.1234744390e+02   2.8612593736e+01    0.7500706    0.6626157 -38.06  0.005114552    1.526    0.345
        32 -12.3426    145.1786    180.3564   9.3522865802e+01   1.7908723049e+01    0.4075882    0.3312396 -80.34   0.00203916    1.666    0.400
        33 -11.5761    140.3986    173.1292   9.3346015381e+01   1.9960588656e+01    0.4951058     0.323705  62.88  0.001908401    2.072    0.517
        34 -10.8781    150.4973    179.1612   9.2237016070e+01   1.7252569209e+01    0.2753448    0.2064032 -79.46  0.001500183    2.067    0.516
        35 -10.1282    188.8695    177.7519   8.4569709959e+01   1.1261929454e+01    0.3471664    0.1798407 -42.81  0.001761441    2.146    0.534
        36  -9.9497    187.9688    173.4820   8.3968054030e+01   1.2038481819e+01    0.1849286    0.1814598 -78.17  0.001258654    1.373    0.272
        37 -10.0324    204.2042    175.2709   8.1398164918e+01   9.1916064629e+00    0.2334699    0.1625511 -39.40  0.001043673    1.601    0.375
        38 -10.1000    196.2934    174.0757   8.2569946812e+01   1.0610654748e+01    0.2902179    0.2246121 -57.51  0.001708518    1.935    0.483
        39 -10.5674     55.0806    173.9715   1.1299475117e+02   3.2288398669e+01    0.3060626    0.1800233  59.89  0.001477298    1.571    0.363
        40 -10.8364     46.1877    172.6827   1.1499044284e+02   3.3597913625e+01    0.3367882    0.2808206  68.83  0.001282586    1.021    0.020
        41 -10.0300     56.2669    217.6466   1.1624926207e+02   2.3593765716e+01     0.198557    0.1080069  72.14  0.001117323    1.898    0.473
        42 -10.5193    230.4832    166.4844   7.5429500468e+01   6.3175562446e+00    0.2100609   0.09880411 -40.34   0.00103523    2.382    0.580
        43  -9.9546    187.1097    166.2475   8.2788387998e+01   1.3275660468e+01    0.2860893    0.1608518 -47.59  0.001260037    2.154    0.536
        44 -11.0814     57.8665    166.1882   1.1154187130e+02   3.3640348553e+01    0.3527539    0.1958857 -49.99  0.001772576    2.205    0.546
        45 -12.3919     93.3053    152.9390   1.0095229831e+02   3.1647098063e+01    0.6334817    0.4859008 -17.66  0.003311197    1.913    0.477
        46 -10.4440    187.8793    152.5710   7.9970659556e+01   1.5282974994e+01    0.2369238    0.1803755 -74.17  0.001203159    2.289    0.563
        47 -11.5209    133.8477    145.5321   8.9803902256e+01   2.6350431748e+01     1.117539    0.3072372 -54.67  0.003019187    5.541    0.820
        48  -9.4204    139.0854    150.5170   8.9584853047e+01   2.4423391837e+01    0.2036907    0.1304017  41.82 0.0003983119    1.502    0.334
        49  -9.2134    112.5431    150.4958   9.5788429956e+01   2.9059870497e+01     0.137402    0.1280208  66.30 8.937982e-05    1.037    0.036
        50 -10.7135    174.5596    149.0524   8.1805506538e+01   1.8246789917e+01    0.2437462    0.2239054  35.81 0.0007679741    1.134    0.118
        51 -10.7803    143.9967    146.2157   8.7639269667e+01   2.4365904760e+01    0.3282818     0.196339 -64.27  0.001405466    2.428    0.588
        52  -9.5156    109.0965    147.3341   9.6069434447e+01   3.0312832412e+01    0.1895667    0.1652641  54.45 0.0003675935    1.101    0.092
        53 -11.9019     35.0379    228.6828   1.2097170890e+02   2.3954148449e+01    0.1982803     0.123195  52.06 0.0008343973    1.177    0.151
        54 -11.2939    105.6445    138.4186   9.5294694600e+01   3.2841358873e+01    0.5211883    0.3205006 -35.31  0.002323299    2.134    0.531
        55 -12.4625     93.4232    138.5782   9.8510006188e+01   3.4836873149e+01    0.2672588     0.257679 -29.76 0.0004689666    1.191    0.160
        56 -11.0613    105.8760    130.7048   9.3720394504e+01   3.4519249290e+01    0.3615392    0.3074128 -73.97  0.001160806    1.202    0.168
        57 -11.3733    135.7473    127.5749   8.5568148278e+01   2.9641812130e+01    0.6305388    0.1931246 -50.22  0.001968049    3.579    0.721
        58 -10.9609    113.6818    129.5695   9.1457806672e+01   3.3377358331e+01    0.3181161    0.2687406  20.55 0.0006918822    1.364    0.267
        59 -10.1984    160.5067    127.4879   7.9987450778e+01   2.4774890138e+01    0.3144904    0.2384305 -66.62  0.001552113    1.719    0.418
        60 -11.1610    101.1460    125.5505   9.3923091023e+01   3.6513868752e+01    0.2830341    0.2406893 -10.19 0.0007347352    1.508    0.337
        61 -11.6443    120.1027    123.0876   8.8400470902e+01   3.3601442699e+01    0.6209088     0.427275 -13.93  0.002633647    2.372    0.578
        62  -9.6546     77.5011    226.6386   1.1275749046e+02   1.9549620624e+01    0.1249114   0.09258182  69.51 0.0003890786    1.309    0.236
        63 -10.1428    109.2270    118.8861   9.0293661881e+01   3.6572655493e+01    0.2244372    0.2053847  54.70 0.0003797651    1.099    0.090
        64  -9.9780    167.7247    112.5950   7.4894263193e+01   2.6056106957e+01    0.3760398    0.2550674 -72.04   0.00157938    2.430    0.588
        65 -10.6735    134.5728    105.1226   8.0378246337e+01   3.4525193811e+01    0.7736248    0.1432622 -44.30  0.001873573    5.237    0.809
        66 -11.8470    118.2355    110.2203   8.5835082503e+01   3.6776336938e+01    0.6368673    0.4290596  56.70  0.002177152    1.647    0.393
        67 -10.3365    205.4540    110.1603   6.7361203188e+01   1.8718093863e+01    0.2862197    0.1949486  37.02  0.001019922    1.589    0.371
        68 -10.2226     63.3240     99.8164   9.9809567443e+01   4.8786032579e+01    0.3086596    0.1981705  33.42   0.00148464    1.722    0.419
        69 -11.8700     65.9987    204.6896   1.1329560477e+02   2.4810638746e+01    0.7344357     0.337165 -47.28  0.001034446    3.392    0.705
        70 -10.6981     50.1741    224.4446   1.1787240595e+02   2.3082904263e+01    0.1887659    0.1149285  73.30 0.0007390571    1.560    0.359
        71  -9.4360    156.4463     81.5052   6.8722474066e+01   3.4258441877e+01    0.1525302    0.1440454 -32.71 5.561599e-05    1.017    0.016
        72  -9.7291    184.1942     77.1144   6.2216287985e+01   2.8553342929e+01     0.222105    0.1972582  -2.07 0.0006071492    1.196    0.164
        73  -9.8236     64.7947     70.1066   9.1512757163e+01   5.5819333331e+01    0.2087642    0.1856358 -74.27 0.0002927917    1.139    0.122
        74  -8.9219    168.3976    248.3988   9.8384175937e+01   4.8736968300e+00    0.1033337   0.07761574  29.24            0    1.051    0.049
        75 -10.3577     70.1936    248.0193   1.1561781134e+02   1.7028202493e+01     0.144174    0.1100597  54.51 0.0004979415    1.082    0.075
        76 -10.9504    249.5793    244.7259   8.5212586930e+01  -4.3925370876e+00    0.1713012    0.0784041 -21.41  0.001148786    2.139    0.532
        77 -10.5696    158.0130    235.7617   9.8702632895e+01   7.7472138477e+00    0.1633018    0.1288926  41.49   0.00074571    1.241    0.194
        78 -11.7677    153.9282     56.7796   6.1418012541e+01   3.9125520439e+01    0.4124173    0.2945474 -72.49 0.0007668296    1.763    0.433
        79 -11.2966     56.7227    209.7235   1.1560299795e+02   2.4974009963e+01    0.4169372    0.2725298 -70.86  0.002241262    1.676    0.403
        80 -10.2400    189.5101     14.9783   4.2668642887e+01   3.5621364575e+01      0.20623    0.1854537 -75.85 0.0005713815    1.093    0.085
        81 -10.9622     74.4228     12.9800   6.2723939673e+01   6.4945778653e+01    0.3870994    0.2084062  68.97   0.00160885    2.579    0.612
