#   1 NUMBER                 Running object number                                     
#   2 MAG_AUTO               Kron-like elliptical aperture magnitude                    [mag]
#   3 X_IMAGE                Object position along x                                    [pixel]
#   4 Y_IMAGE                Object position along y                                    [pixel]
#   5 X_WORLD                Barycenter position along world x axis                     [deg]
#   6 Y_WORLD                Barycenter position along world y axis                     [deg]
#   7 A_WORLD                Profile RMS along major axis (world units)                 [deg]
#   8 B_WORLD                Profile RMS along minor axis (world units)                 [deg]
#   9 THETA_WORLD            Position angle (CCW/world-x)                               [deg]
#  10 FWHM_WORLD             FWHM assuming a gaussian core                              [deg]
#  11 ELONGATION             A_IMAGE/B_IMAGE                                           
#  12 ELLIPTICITY            1 - B_IMAGE/A_IMAGE                                       
         1 -13.2639    173.0840     42.2333   6.7391438660e+01   3.6616825738e+01     1.230026     1.018492  11.69  0.004511494    1.590    0.371
         2 -12.6988    189.2229     13.9781   5.7598684979e+01   3.5940506873e+01    0.8728915    0.5416494 -89.52  0.004269056    1.519    0.342
         3 -12.6159    191.8478      7.8327   5.5770766514e+01   3.5928187123e+01    0.7826193    0.4638109 -88.44  0.003238297    1.572    0.364
         4  -9.9597    166.9160    227.0274   1.1181170516e+02   3.2288852545e+00    0.2674105    0.2115992  -7.27  0.001564108    1.447    0.309
         5 -18.5130     55.1518    239.4792   1.3663774238e+02   1.8223665164e+01     6.271711     4.429346 -79.66    0.0206591    1.448    0.310
         6  -9.9512     12.9189    205.7244   1.4282600838e+02   3.0021557619e+01    0.3198788     0.178561  36.37  0.001691922    1.804    0.446
         7  -9.8444    149.0391    180.0128   1.0765054815e+02   1.5429351316e+01    0.2408282    0.1842437  79.36  0.001132956    1.763    0.433
         8  -9.1196    196.4774    175.6309   9.6327304982e+01   7.1088452014e+00    0.2839806    0.1726943  37.66  0.001328607    1.614    0.380
         9 -10.0214    191.8092    192.7348   1.0066539650e+02   4.8661143811e+00    0.5734196    0.2735869 -60.07  0.001651976    5.929    0.831
        10 -11.0096    125.0517    172.3072   1.1200923764e+02   2.1735148988e+01    0.2911311    0.2281254 -66.51 0.0007352739    1.385    0.278
        11 -10.1610    141.1656    169.6391   1.0751248639e+02   1.9212391248e+01    0.2512718     0.210061 -70.25 0.0006445518    1.346    0.257
        12  -9.2773     25.2819    165.4604   1.3689022510e+02   3.8036906298e+01     0.245868     0.160924  18.85   0.00130303    1.987    0.497
        13 -11.2497    113.9020    161.2485   1.1276332132e+02   2.6404114634e+01    0.4163474    0.3070722  77.91  0.001236291    1.671    0.402
        14  -8.9262    151.3447    196.2891   1.1010121297e+02   1.1643276388e+01    0.1450929    0.1101059   6.23 0.0003567717    1.653    0.395
        15  -9.5475    189.5391    155.0141   9.3383459515e+01   1.2400362453e+01    0.3271639    0.2424339  86.03  0.001438745    2.191    0.544
        16 -10.6574    133.8335    145.4934   1.0425935162e+02   2.6161355151e+01     1.118151     0.272179 -54.81  0.002350395    6.931    0.856
        17 -11.7731    113.9011    137.5608   1.0781639151e+02   3.2060525275e+01    0.6593729    0.5143166 -28.35  0.003085838    1.530    0.346
        18 -19.1813     49.1034     99.4079   1.1952608242e+02   5.1783369152e+01     17.54528    0.9739007 -59.62   0.02660771   15.796    0.937
        19 -11.0503    103.4783    136.1392   1.1043646972e+02   3.4399017314e+01    0.3126672    0.2905143  43.49 0.0003606939    1.092    0.084
        20 -11.0744    105.9413    130.9894   1.0857023327e+02   3.5180383320e+01     0.430517    0.3435509 -64.96   0.00117863    1.297    0.229
        21  -9.7207    118.9318    128.3082   1.0426050012e+02   3.3246098207e+01    0.2253397    0.2051313  35.67 0.0007417486    1.123    0.110
        22  -9.8904    107.3573    123.7457   1.0645059926e+02   3.6642498384e+01    0.2802992    0.2549266 -10.81 0.0006516548    1.238    0.192
        23 -11.3324     16.5995    217.4924   1.4278187905e+02   2.7158943587e+01    0.1480551    0.1235271 -74.96 0.0007259561    1.383    0.277
        24  -9.9520    168.3480    113.1795   8.7959795715e+01   2.5530394137e+01    0.3817458     0.263181 -64.57  0.001616048    1.809    0.447
        25  -8.9147     33.3976    206.3748   1.3855694349e+02   2.7746446653e+01    0.1167009    0.1004896  80.15 0.0007844517    1.139    0.122
        26  -8.5943    130.0000    109.9675   9.6526893115e+01   3.5066768015e+01    0.2616456   0.09047966 -45.16 0.0007976096    2.909    0.656
        27 -12.2980     74.4631     86.7641   1.0719360824e+02   5.1152750371e+01     0.556765    0.3147592 -49.74  0.002483535    1.695    0.410
        28 -10.2456     88.0464     78.0171   9.9838222286e+01   5.0645088521e+01    0.2860593    0.2000524  38.97  0.001049101    1.441    0.306
        29  -9.3470     13.8010     59.2468   1.2386817596e+02   6.4069128306e+01    0.2533593    0.1277957 -47.70  0.001365481    1.560    0.359
        30 -12.1047    159.9519     57.2072   7.4061906644e+01   3.7800195518e+01    0.5263709    0.4188212  69.02  0.001203914    1.211    0.174
        31 -10.6889    150.6186    245.4313   1.1783347250e+02   2.8504296061e+00    0.2292307    0.1895294  26.70 0.0004217268    1.114    0.102
        32 -10.9464    177.4863     35.1024   6.4722620047e+01   3.6431892295e+01    0.3713408    0.2978785  44.55  0.001037208    1.400    0.286
        33 -10.3799     20.8199    219.1795   1.4204443000e+02   2.6371550957e+01    0.1304992    0.1108072  77.71  0.000940656    1.185    0.156
        34  -9.8704     23.6385    229.9034   1.4213417349e+02   2.3874106239e+01    0.1031044   0.08634701  64.50 0.0006541298    1.196    0.164
