#   1 NUMBER                 Running object number                                     
#   2 MAG_AUTO               Kron-like elliptical aperture magnitude                    [mag]
#   3 X_IMAGE                Object position along x                                    [pixel]
#   4 Y_IMAGE                Object position along y                                    [pixel]
#   5 X_WORLD                Barycenter position along world x axis                     [deg]
#   6 Y_WORLD                Barycenter position along world y axis                     [deg]
#   7 A_WORLD                Profile RMS along major axis (world units)                 [deg]
#   8 B_WORLD                Profile RMS along minor axis (world units)                 [deg]
#   9 THETA_WORLD            Position angle (CCW/world-x)                               [deg]
#  10 FWHM_WORLD             FWHM assuming a gaussian core                              [deg]
#  11 ELONGATION             A_IMAGE/B_IMAGE                                           
#  12 ELLIPTICITY            1 - B_IMAGE/A_IMAGE                                       
         1 -11.8959     20.9509     18.6909   1.0034154537e+02   7.0222025986e+01    0.5175237    0.4250717 -69.62  0.001323099    1.571    0.364
         2 -11.7706    129.4511     24.1074   6.3549926808e+01   5.0048357259e+01    0.5580849    0.3993597 -41.95  0.001808219    1.492    0.330
         3 -11.7031     60.7571     23.1806   8.4078271327e+01   6.4521448084e+01    0.5386426    0.3124797 -56.30  0.002437401    2.684    0.627
         4 -11.1098     64.8594     14.1367   7.8172331396e+01   6.5232324760e+01    0.6146307    0.3137246  16.51  0.002318037    3.671    0.728
         5 -11.5222     74.1500      7.0896   7.1238526751e+01   6.4476666601e+01    0.3018729    0.2028465 -19.51 0.0003262669    1.404    0.288
         6 -12.1614     81.1608      6.7668   6.8752220879e+01   6.3133870804e+01     0.567359    0.3373103  26.04  0.002797871    1.821    0.451
         7 -11.7791     70.4021     14.5618   7.6299181243e+01   6.4195303017e+01    0.3878576    0.2247855 -20.30   0.00104338    1.757    0.431
         8 -11.4899      3.8917     18.0462   1.0908496415e+02   7.1577958514e+01    0.3416849    0.2345446  -5.70  0.001654495    1.647    0.393
         9 -10.7512    167.7575     14.2002   5.2942305947e+01   4.1192200962e+01    0.4256878    0.1841302  38.10  0.001487402    2.977    0.664
        10  -9.6149     50.9530     11.0458   8.2308413471e+01   6.7925174902e+01    0.2822806    0.1609657  -6.72 0.0009977011    2.465    0.594
        11  -9.4506    140.4064     13.5794   5.7240923727e+01   4.8489515013e+01    0.2261755    0.1766575  56.89 0.0001210867    1.204    0.169
        12 -10.2032    100.0741     13.2025   6.6217164239e+01   5.8348129441e+01    0.2921765    0.1849924  -9.16  0.001409298    1.723    0.420
        13 -10.3544     55.0781     13.3345   8.1706334050e+01   6.6952624172e+01    0.3089818    0.1614212 -36.85  0.001525367    1.752    0.429
        14 -10.6115     59.6039     10.3236   7.8319835202e+01   6.6660046520e+01    0.3421814    0.2085139  50.03  0.001821115    1.972    0.493
        15 -10.4679     26.4427     13.9587   9.5443766491e+01   7.0552711708e+01    0.2063385    0.1388076 -23.46 0.0003529701    1.368    0.269
        16 -10.8697    115.8565      3.1568   5.7915061917e+01   5.5721978055e+01    0.3058754    0.1926848  -4.46 0.0007166556    1.748    0.428
        17 -11.0330    118.4651     12.0673   6.1140656806e+01   5.4178267309e+01    0.2992385    0.2481464 -11.70 0.0009643632    1.221    0.181
        18 -10.6550    117.0080      8.0385   5.9761224285e+01   5.4960732711e+01    0.3000256    0.2160455 -29.68  0.001064674    1.438    0.304
        19 -11.4314     75.7702     15.5632   7.4862865727e+01   6.3065834525e+01    0.4843221    0.3037737 -15.28  0.001474589    1.666    0.400
        20  -9.8527      5.3392     11.8256   1.0597280552e+02   7.2676012061e+01    0.1677617    0.1066094 -45.04  0.001117634    1.180    0.152
        21 -10.0333    185.7722     11.0538   4.9504005027e+01   3.6700193911e+01    0.2116243    0.1781514 -62.36 0.0004917982    1.196    0.164
        22  -9.8655      6.4886      8.0789   1.0375630252e+02   7.3290957199e+01    0.1618863    0.1492469  66.73   0.00046299    1.611    0.379
        23  -9.8098     10.8380      9.6300   1.0193080758e+02   7.2700953176e+01    0.2395296     0.163905 -64.60 0.0009974523    1.766    0.434
        24 -12.2866     24.4407      6.1815   9.2702220161e+01   7.2075079257e+01    0.6275619    0.4108628 -10.34  0.003027346    1.589    0.371
        25 -13.0352     32.0047      2.0676   8.6474856694e+01   7.1854600178e+01    0.2800433    0.2023091  18.41 0.0006022665    1.414    0.293
        26 -11.1246     16.6975      2.0811   9.4901539617e+01   7.3512062948e+01    0.4210544    0.1670528 -48.68   0.00166135    2.296    0.564
        27 -12.1040     11.7829      2.4298   9.7974954961e+01   7.3885698148e+01    0.3918255     0.230704 -19.67  0.001782556    1.700    0.412
        28 -10.3580    127.9937      8.6857   5.7712884734e+01   5.2172950463e+01    0.2528956    0.1887716 -54.15 0.0007708354    1.580    0.367
        29  -9.7023    107.2566      9.6986   6.2775615725e+01   5.7108242447e+01    0.3243483    0.1109539  56.29  0.001202761    2.652    0.623
        30 -10.3675     91.7416      7.0131   6.5674780147e+01   6.0891583685e+01    0.3744249    0.2477226  11.15  0.001493305    1.657    0.396
        31 -10.4253    228.7135      5.8634   4.3695194710e+01   2.6174720616e+01    0.2469293     0.179222 -84.26 0.0003248235    1.358    0.264
        32  -9.9018     59.7358      5.7704   7.5883769472e+01   6.7253140824e+01    0.2454806    0.1747629  49.55  0.001431074    1.654    0.395
        33 -10.4253    176.7739      4.1075   4.8383368401e+01   3.9774298848e+01    0.2463219    0.1885203  18.43 0.0007623272    1.523    0.343
        34  -9.5728    146.3056      4.3343   5.2725463362e+01   4.7867297310e+01    0.1537583   0.09809288  34.43  0.000263052    1.667    0.400
        35  -9.7636    167.8907      2.1649   4.8850446152e+01   4.2326306143e+01    0.2154492    0.1790371 -65.23 0.0004914022    1.253    0.202
        36  -9.6226     73.1549      2.1896   6.9044166516e+01   6.5242701734e+01    0.1552822    0.1539079 -32.95  0.000400657    1.305    0.234
        37  -9.3540    139.4677      1.5650   5.2791687757e+01   4.9904103224e+01    0.1409563    0.1301646  53.28 0.0001176757    1.009    0.009
        38  -9.5415    156.3046    224.3410   1.0566559855e+02   9.2751290791e+00    0.1130363   0.08280272  17.28 0.0007040667    1.680    0.405
        39 -10.7926    250.3659    246.0904   9.3112948919e+01  -7.2912402097e+00    0.2718476    0.1285332 -17.30  0.001683985    2.467    0.595
        40  -9.9360     72.6023    250.1041   1.2249755168e+02   1.7613253309e+01    0.1543915    0.1275931  33.81  0.001255758    1.632    0.387
        41 -11.8019     27.8971    247.3548   1.2939018593e+02   2.3169232779e+01     0.512238     0.208104  78.83  0.003234387    2.372    0.578
        42 -13.4470     19.8576    248.3719   1.3065112400e+02   2.3838537723e+01     1.339727    0.4804739  62.34  0.008606222    2.057    0.514
        43  -9.1456     80.6546    223.3418   1.1916178217e+02   2.0732785874e+01    0.1214294   0.06373003  64.04 0.0007046703    1.788    0.441
        44  -9.6896     13.3803    221.7579   1.3062857673e+02   2.8741419770e+01    0.1214048   0.07533965 -80.43 0.0005788787    1.575    0.365
        45  -9.9543    141.9705    220.7154   1.0779359811e+02   1.2078615861e+01    0.1794214    0.1225567  44.01  0.001151841    1.154    0.134
        46  -9.4008    250.4940    219.4537   8.9078265870e+01  -4.9197255075e+00    0.1138856   0.08219363  18.52 6.680905e-05    1.027    0.027
        47 -10.2140    191.6772    217.5119   9.8488245886e+01   4.4323083214e+00    0.2475821    0.1619168 -25.01  0.001528159    1.907    0.476
        48  -9.5074    194.5377    215.4959   9.7692576156e+01   4.2156580383e+00     0.120343   0.09483819  31.93 -2.878288e-05    1.004    0.004
        49 -10.1404    174.5350    219.1838   1.0174092830e+02   7.0204656647e+00    0.2539212    0.1304181  31.26  0.001087008    1.922    0.480
        50 -10.7589      9.4563    216.8556   1.3107676277e+02   2.9944493747e+01    0.2564295    0.1290471  58.18  0.001064798    1.415    0.293
        51  -9.5600     38.0344    217.4809   1.2626159121e+02   2.6933199992e+01    0.1494592   0.08320669  44.19 0.0005973778    1.538    0.350
        52 -10.9333    235.3203    216.6826   9.1034820230e+01  -2.3921446460e+00    0.1730312    0.1401522  28.76  0.001086071    1.208    0.172
        53 -10.9057    236.3198    213.6972   9.0396259939e+01  -2.2332894324e+00    0.3100808    0.1352636  44.52  0.001604198    2.132    0.531
        54  -9.5150    136.7575    216.2124   1.0819864559e+02   1.3581629099e+01    0.1900125   0.08019916  35.16 0.0008682247    2.420    0.587
        55 -10.4103     31.2190    215.9009   1.2735259555e+02   2.7942069504e+01    0.2066425    0.1307018  42.13  0.001506484    1.526    0.345
        56  -9.5789    201.5426    215.5338   9.6485760315e+01   3.0675765529e+00    0.1211992   0.09248544  26.91 0.0003778946    1.076    0.071
        57 -10.6850    241.3966    211.8377   8.9280592183e+01  -2.8135305731e+00    0.2169013    0.2080583 -64.50  0.001629866    1.811    0.448
        58  -9.7216    170.3053    213.3252   1.0167988304e+02   8.5102636104e+00    0.1187325   0.08463853  17.11 0.0003761892    1.645    0.392
        59 -11.2341     21.2956    212.3652   1.2888121819e+02   2.9578380664e+01    0.2967968    0.1171581  56.66  0.001810058    1.892    0.471
        60 -10.1641    208.9734    212.0662   9.4678406680e+01   2.2745149119e+00    0.1811552    0.1416403  26.57 0.0004495381    1.017    0.017
        61  -9.1723     76.3512    212.2908   1.1900658946e+02   2.3171587517e+01   0.09691643   0.08796774  15.86 0.0007027877    1.672    0.402
        62  -9.7624      2.2976    212.3282   1.3208972003e+02   3.1374179811e+01    0.1411697    0.1067634  76.10 0.0005418626    1.178    0.151
        63 -12.0689      4.9709    207.6047   1.3146211295e+02   3.1959531198e+01     0.462618    0.2100957  80.12  0.003046009    1.781    0.439
        64 -11.5293     18.5952    202.9809   1.2888846704e+02   3.1512429940e+01    0.2942398    0.2114876 -75.59  0.001411173    1.495    0.331
        65 -10.3445    175.2900    202.6778   9.9208208234e+01   9.1608814693e+00    0.2036001     0.163954  51.51  0.000527769    1.237    0.191
        66  -9.0416     67.7152    203.6982   1.1988343625e+02   2.5824873544e+01   0.09213673   0.08987427 -39.71 0.0002749939    1.555    0.357
        67  -9.4873    223.5816    201.7955   9.0536419290e+01   1.1020967418e+00    0.1421124    0.1113148 -39.28 0.0006435101    1.677    0.404
        68  -9.5730     34.4746    201.0775   1.2590969939e+02   3.0235490181e+01     0.142832   0.08851682 -84.16 0.0004935737    1.459    0.315
        69  -9.4236    227.1494    196.8592   8.9098894888e+01   1.0960165649e+00    0.1740002    0.1183081  17.32    0.0006822    1.359    0.264
        70 -10.2422     10.9511    208.3448   1.3047264015e+02   3.1282786632e+01    0.1602295    0.1196802 -72.02 0.0008663007    1.604    0.377
        71 -10.0512    215.3940    194.7650   9.0739382300e+01   3.3188832404e+00     0.156759    0.1087744 -12.04 0.0003772619    1.584    0.369
        72  -9.7926    204.1975    195.4209   9.2809978268e+01   5.1543560923e+00     0.304633   0.09329898  37.72  0.001164206    3.056    0.673
        73  -9.1952     90.6721    189.6588   1.1397942760e+02   2.5245244506e+01     0.109358   0.09700339 -11.31 0.0007051408    1.738    0.425
        74  -9.3384      1.5868    188.2168   1.3125810412e+02   3.5770540729e+01     0.131869   0.07645889 -77.50 0.0006116735    1.568    0.362
        75  -9.4310     61.6388    184.8390   1.1938515067e+02   3.0137402864e+01    0.1648823   0.09498492 -88.08 0.0009453864    1.748    0.428
        76 -11.2404     16.0294    182.6596   1.2827697942e+02   3.5550150344e+01    0.3636562    0.1596341  77.41  0.002068515    2.059    0.514
        77  -9.2110      8.6352    184.2939   1.2977051742e+02   3.5904413710e+01    0.1153134   0.05358168  62.67  0.000538472    1.712    0.416
        78  -9.9062    167.0218    183.5052   9.7721308036e+01   1.3515455318e+01    0.2036823    0.1131531  43.05 0.0006973841    1.551    0.355
        79  -9.9007      1.9707    180.2948   1.3083345711e+02   3.7235644789e+01    0.1457054    0.1037063  69.03 0.0005740484    1.075    0.069
        80 -10.0997    244.2811    178.3196   8.2933687723e+01   4.4060180369e-01    0.2172632    0.1325434 -12.03 0.0009941543    1.697    0.411
        81 -10.6916    224.2285    178.3706   8.6279995361e+01   3.8722917872e+00    0.2195684    0.2009896  16.60 0.0005536557    1.184    0.155
        82  -9.7447     70.1694    177.7351   1.1690682598e+02   3.0424037417e+01     0.141759    0.1373097  61.69 0.0005052072    1.340    0.254
        83  -9.8000     46.1325    177.5789   1.2191007359e+02   3.3436706448e+01    0.1972375    0.1481907  23.43  0.001290441    1.872    0.466
        84  -9.1735     36.4309    178.4668   1.2396652300e+02   3.4335165321e+01    0.1130158   0.08721477  75.94  0.000230798    1.018    0.018
        85 -10.0012    200.1647    176.8164   9.0261875951e+01   8.4265526289e+00    0.1846775    0.1390349  16.12 0.0005376532    1.345    0.257
        86 -11.1737     18.2479    172.9961   1.2726055232e+02   3.7235920432e+01    0.3677152    0.1274429  62.84  0.001765668    2.819    0.645
        87  -9.4258     75.2059    170.8111   1.1505364169e+02   3.1127880255e+01    0.1543055    0.1449639 -53.06  0.001059975    1.391    0.281
        88  -9.5494      4.6704    168.5363   1.2972527696e+02   3.9303973851e+01    0.1875918    0.0783564 -81.78  0.001078753    1.956    0.489
        89 -10.9762     50.9438    164.7014   1.1969372375e+02   3.5495608415e+01     0.359569    0.2182911 -52.52  0.002070415    2.007    0.502
        90 -11.2356     44.5616    162.7154   1.2090165211e+02   3.6643441805e+01    0.3330373    0.1518644 -67.64  0.001627552    2.003    0.501
        91 -10.3910     47.8441    160.1674   1.1992455815e+02   3.6802811679e+01    0.2461772     0.203946  44.57  0.001226921    1.334    0.251
        92 -11.2905     36.2727    163.8209   1.2281031209e+02   3.7316445601e+01    0.5144477    0.1959154 -76.99  0.002504763    2.436    0.589
        93 -11.4988     36.9078    157.7740   1.2213355605e+02   3.8510310362e+01    0.2078717     0.153649 -89.75 0.0002705675    1.125    0.111
        94  -9.7510     67.1415    164.9201   1.1613984932e+02   3.3425196592e+01    0.1956917    0.1393493  71.66 0.0008165693    1.272    0.214
        95  -9.5152    200.4811    162.5644   8.7485933996e+01   1.0461862562e+01    0.1341752    0.1196318  28.14 0.0002182973    1.044    0.042
        96 -10.2111    247.4687    158.4794   7.8553151852e+01   2.3050027061e+00    0.1261152    0.1086642   5.42 4.630324e-05    1.068    0.064
        97 -11.3375     22.4064    156.4184   1.2522406314e+02   4.0228196451e+01    0.3834164    0.2891788  50.60  0.002706354    1.324    0.245
        98  -9.0195    147.5060    156.4850   9.6947674423e+01   2.1846724316e+01    0.1389568    0.1264263  52.43 0.0002483908    1.022    0.022
        99  -9.0019    235.7022    154.6720   7.9685141601e+01   4.9078431882e+00    0.1362351   0.09045821  10.70 0.0003270177    1.635    0.388
       100 -10.2273     12.0964    153.2293   1.2724530402e+02   4.1800198503e+01    0.2286299    0.1518165  15.31   0.00147814    2.299    0.565
       101 -10.3187    178.0762    151.4571   8.9585912607e+01   1.6678029532e+01     0.243714    0.2317602 -78.59 0.0008971407    1.227    0.185
       102 -10.1664     41.4450    146.3282   1.1996019716e+02   4.0470362245e+01    0.1972017    0.1518532  69.68 0.0002494437    1.141    0.124
       103  -9.3028     27.2651    147.3428   1.2337474376e+02   4.1690562338e+01    0.1097534   0.07754575 -56.63 0.0002771697    1.601    0.375
       104 -10.6280     17.6505    146.7755   1.2553115437e+02   4.2684166849e+01    0.2312598    0.1596968 -29.29  0.001336126    2.480    0.597
       105  -9.1700    229.6744    146.3507   7.8950758271e+01   7.1707413547e+00    0.1270717    0.1075845 -67.79 0.0007048447    1.757    0.431
       106  -9.8753    207.1046    146.1657   8.2885870928e+01   1.1645620252e+01    0.2141152    0.1741896  19.53 0.0006802715    1.187    0.158
       107  -9.3623    220.6225    144.2953   8.0063995214e+01   9.2255240741e+00    0.1293466    0.1105428 -86.00 0.0001847235    1.748    0.428
       108 -11.5516     11.8728    145.6238   1.2675475853e+02   4.3413077787e+01    0.3818512    0.2222998  68.73 0.0008550091    1.494    0.330
       109 -10.2394     25.2472    142.3348   1.2339230328e+02   4.2956373186e+01    0.1527418    0.1372116  84.10 0.0001892542    1.201    0.167
       110 -10.5225     49.4005    141.7870   1.1753463362e+02   4.0572461519e+01    0.2165441    0.1883137 -47.51  0.001446096    1.444    0.308
       111  -9.5355    239.9730    140.9601   7.6095813768e+01   5.9457220533e+00    0.1601662    0.1387429  10.64 0.0004508194    1.031    0.030
       112 -10.4846     21.3803    135.9319   1.2372782382e+02   4.4692489106e+01    0.2281555     0.180843  80.35  0.001075782    1.059    0.056
       113 -10.1707     56.0681    137.9034   1.1539943089e+02   4.0637212339e+01    0.3284895    0.1890186  84.36  0.001656923    1.961    0.490
       114  -9.2862     87.9628    137.9941   1.0745382322e+02   3.6190498976e+01    0.1565654    0.1404052  75.36 0.0003381185    1.027    0.027
       115 -10.8309      2.7646    136.4606   1.2819084335e+02   4.6051051487e+01    0.3094156    0.1053593 -73.02  0.001383523    2.268    0.559
       116  -9.0080    143.7044    137.3241   9.3989278089e+01   2.6258402975e+01    0.1438971    0.1121364  85.45 0.0005810366    1.622    0.383
       117 -10.7604      9.1727    136.7771   1.2671473231e+02   4.5509862605e+01    0.1820964     0.140411 -82.52 0.0003402464    1.122    0.109
       118  -9.1452    122.6922    135.3441   9.8471942777e+01   3.0764738705e+01    0.1469774    0.1082681  82.55 0.0006314992    1.695    0.410
       119  -9.1940    250.3225    134.2897   7.3022758748e+01   4.8884902076e+00    0.1354091   0.09099653  13.26 0.0006975417    1.606    0.378
       120 -10.1535    106.9747    133.2296   1.0187756436e+02   3.4075451193e+01    0.2337817     0.203443 -62.69 0.0009383705    1.153    0.133
       121  -9.9526     79.6683    133.0577   1.0871502319e+02   3.8533668073e+01    0.1836497    0.1561158 -74.43 0.0004408665    1.103    0.093
       122 -11.1712     18.0443    139.8291   1.2487037080e+02   4.4136010515e+01    0.3594716    0.1604953  34.39   0.00199282    2.345    0.574
       123 -11.4468     37.4865    130.5010   1.1915226252e+02   4.4367067793e+01    0.3311271    0.2437463 -84.80  0.001353972    1.145    0.127
       124 -11.1615     33.2818    125.9503   1.1969446312e+02   4.5802049105e+01    0.2608865    0.1805469  58.17 0.0003470433    1.418    0.295
       125 -10.3705     73.9466    129.5293   1.0960048701e+02   4.0147432193e+01    0.2582213    0.1839188 -64.62 0.0007858671    1.316    0.240
       126 -11.8481     16.8972    115.8320   1.2287738735e+02   4.9500668915e+01    0.3665556    0.2015867 -68.85  0.001931781    1.482    0.325
       127 -11.0370      2.4368    123.6462   1.2732987799e+02   4.8825940871e+01    0.4516959    0.1251645 -66.67  0.001999128    2.686    0.628
       128 -11.4560     10.5363    122.4816   1.2519215949e+02   4.8510970049e+01    0.4649615    0.2297665  61.76  0.002594417    2.036    0.509
       129  -9.4874    219.5670    124.5134   7.5821099207e+01   1.2373954573e+01    0.1399545    0.1289422   0.99 0.0001665184    1.020    0.019
       130  -9.7774    226.0129    124.0000   7.4605535454e+01   1.1105445877e+01    0.2206362   0.07751359  50.80 0.0007952402    2.893    0.654
       131 -10.4152     20.4174    121.6978   1.2256747048e+02   4.7909744448e+01    0.1803316    0.1402214 -26.14  0.001183258    1.856    0.461
       132  -9.4239     32.9720    118.9661   1.1892191320e+02   4.7401453760e+01    0.1497036    0.1179612 -81.45 0.0004430826    1.048    0.046
       133  -9.4710    220.4465    116.9930   7.3902239037e+01   1.3323566653e+01    0.2112497    0.1332484 -31.57 0.0004460054    1.538    0.350
       134 -11.0084     51.0553    116.5548   1.1364160510e+02   4.6038812458e+01    0.2810375    0.1587724 -64.59 -0.0001541599    1.550    0.355
       135  -9.3980     86.4250    116.4960   1.0391010821e+02   4.1198615490e+01    0.1373255    0.1251277 -81.62 8.849461e-05    1.013    0.012
       136  -9.2275    214.1800    115.6038   7.4650426606e+01   1.4891228441e+01    0.1987415    0.1266525  38.40 0.0004941862    1.594    0.373
       137 -10.3554     35.1421    114.2080   1.1770422657e+02   4.8269253115e+01    0.2485798    0.1492852 -65.83 0.0005991667    1.415    0.293
       138 -12.0235     35.4133    108.3168   1.1679852142e+02   4.9583631609e+01    0.4123822    0.2419289  78.18  0.001343079    1.938    0.484
       139 -12.7040     15.0263    109.1142   1.2265615843e+02   5.1145919202e+01    0.5857468    0.4162063  78.78 0.0008678725    1.288    0.224
       140 -11.7626     23.3244    107.3593   1.2011685491e+02   5.0887842058e+01    0.3588248    0.2524038  66.88  0.001717191    1.433    0.302
       141 -11.0226    249.0338    111.8417   6.8167529229e+01   8.1386875189e+00    0.2419416    0.1798242 -25.09 0.0006231744    1.224    0.183
       142  -9.1982    166.4279    115.5350   8.3949459792e+01   2.5589742241e+01    0.1465537    0.1442431  44.52 0.0001377024    1.028    0.028
       143 -10.7027     55.5804    109.4687   1.1119953601e+02   4.7121073288e+01    0.3167519    0.2254738  -5.65  0.001465425    2.306    0.566
       144 -10.0433     91.4894    107.9485   1.0071929960e+02   4.2287260849e+01    0.1940774    0.1851681  86.18 0.0003737553    1.042    0.040
       145 -10.6136      6.2376    105.9666   1.2476274969e+02   5.2460769949e+01    0.3004296    0.1629351 -74.20 0.0009453382    1.432    0.302
       146 -10.8278      2.5624    105.3103   1.2571721482e+02   5.2837636551e+01    0.2232139     0.161061 -73.86  0.000609946    1.127    0.113
       147 -12.8643      2.8248    100.4506   1.2516686646e+02   5.3898665147e+01    0.2590935     0.200968 -87.33 0.0004542931    1.052    0.049
       148 -11.1090      1.3997     95.7427   1.2509547807e+02   5.5027057932e+01    0.3743609    0.1138153 -66.46   0.00110467    2.333    0.571
       149  -9.9054     62.6125    106.2118   1.0857827139e+02   4.6980817132e+01    0.1906124    0.1071343 -52.67 0.0005036141    1.670    0.401
       150 -10.6894    243.5647    104.3108   6.7203826187e+01   1.0283507930e+01    0.1930533    0.1241449 -16.13  0.000942606    1.591    0.372
       151  -9.9866    223.2291    103.9426   7.0272663731e+01   1.4686004784e+01    0.2114713     0.185094 -43.28 0.0004527337    1.210    0.173
       152  -9.3224     31.3025    104.2755   1.1739949612e+02   5.0892532485e+01     0.116912   0.08334932 -45.87 0.0002076819    1.540    0.351
       153 -10.9489    247.6613    102.1459   6.6094058555e+01   9.7385985727e+00    0.2215797    0.1949673  69.60  0.000933134    1.387    0.279
       154 -10.8722     35.6864    101.4839   1.1568582802e+02   5.1117961167e+01    0.3128041    0.1953627  56.02  0.001666592    1.762    0.432
       155  -9.4674    145.4840    100.5013   8.4841849899e+01   3.3173589317e+01    0.1494977    0.1481305  54.75 -7.120986e-05    1.001    0.001
       156 -11.1368     62.2935     98.5722   1.0716414992e+02   4.8769078955e+01     0.348028    0.2965548  29.92  0.000810172    1.364    0.267
       157 -10.4680     66.7007     96.9081   1.0548563491e+02   4.8557988035e+01    0.3348812    0.1190676 -48.16 0.0003387938    2.788    0.641
       158 -11.5591     20.5608     97.3929   1.1960672644e+02   5.3368074952e+01    0.4313739     0.190394 -84.19  0.001793272    2.378    0.579
       159  -9.4071     50.5590     99.4459   1.1087467505e+02   5.0012614279e+01     0.128958     0.111275 -69.30  2.40564e-05    1.031    0.030
       160  -9.9005    119.9613    101.1853   9.1390704722e+01   3.8491569601e+01     0.242561    0.1749438  14.45 0.0009320336    2.028    0.507
       161  -9.7258     14.3148     97.6324   1.2150315405e+02   5.3778989472e+01    0.1250319   0.07452545  73.01 0.0007037625    1.774    0.436
       162  -9.6762     57.4837     96.4995   1.0820066716e+02   4.9857280518e+01    0.1321259    0.1158717 -72.20 -0.0001235927    1.012    0.012
       163  -9.3401    249.5239     95.5032   6.4248807154e+01   1.0261496650e+01    0.1370357    0.1221701 -13.59 -4.939109e-05    1.014    0.014
       164 -11.0758     31.4147     93.0446   1.1562822511e+02   5.3445738922e+01    0.3509482    0.1899493 -84.29  0.001453962    1.969    0.492
       165 -11.3133     25.5022     91.6732   1.1725377449e+02   5.4270328532e+01    0.2458396    0.2021431 -66.86 0.0001582441    1.073    0.068
       166 -11.0076     22.9711     86.8534   1.1729291391e+02   5.5570487338e+01    0.2647862    0.1734636 -63.84 0.0004088748    1.242    0.195
       167 -10.6949    103.9657     92.0169   9.3343981181e+01   4.3571947927e+01    0.2564574    0.2027386 -41.84 0.0003007534    1.264    0.209
       168  -9.7394    103.6989     88.6976   9.2528125429e+01   4.4333500700e+01    0.1980823    0.1366243  52.88 0.0003656713    1.557    0.358
       169 -11.4815     29.7910     67.1260   1.1121019170e+02   5.9449155994e+01    0.6006603    0.2649913 -39.65  0.002401375    2.571    0.611
       170 -12.5360     44.7170     75.3542   1.0777467886e+02   5.6146985507e+01     0.280687    0.2402204 -87.41  0.000338368    1.228    0.186
       171 -11.2491     38.0122     69.5783   1.0879116401e+02   5.8135594506e+01    0.5450033    0.3815837  71.04  0.003065121    1.864    0.464
       172 -10.8578     48.3137     90.0491   1.0975421311e+02   5.2419293401e+01      0.45205     0.232407 -51.15  0.001573215    1.766    0.434
       173 -11.7106     42.1049     81.9236   1.1010562696e+02   5.4942349815e+01    0.8136495     0.331617  51.09   0.00325445    3.540    0.718
       174 -10.7880    158.0029     90.0218   7.9084526565e+01   3.2289505333e+01     0.316066    0.2187625 -37.05  0.001438778    1.455    0.313
       175 -10.6580     95.9894     90.5122   9.5229699112e+01   4.5361382788e+01    0.3781039    0.2449879  12.98  0.001546207    2.704    0.630
       176  -9.3024     21.3122     91.3290   1.1850990372e+02   5.4684996975e+01     0.123699   0.07580533 -47.00 0.0004621561    1.670    0.401
       177 -10.5780     66.6297     85.6935   1.0295713092e+02   5.1105955541e+01    0.3526173    0.2051699 -40.25  0.001294409    1.871    0.465
       178 -12.4414     21.3962     77.9445   1.1631820998e+02   5.7708194564e+01    0.4998346    0.3359771 -78.42 0.0009216213    1.331    0.249
       179 -10.1080     15.1586     83.6362   1.1931810967e+02   5.6876957798e+01    0.3677171     0.163039 -57.30  0.001448469    1.816    0.449
       180 -10.6988      4.4225     86.3236   1.2311290142e+02   5.6951909334e+01    0.3214141    0.2025631 -77.20  0.001731378    1.244    0.196
       181 -12.7668     13.2392     77.7733   1.1905121305e+02   5.8325139127e+01    0.4143301    0.2288724 -51.43  0.001014263    1.613    0.380
       182 -11.2502      3.5261     79.4236   1.2251956385e+02   5.8540679660e+01    0.3797316    0.2481221  72.19  0.001706197    1.627    0.385
       183 -11.5290      7.6838     73.8412   1.2033135006e+02   5.9549507103e+01    0.3900496    0.2460795 -18.76  0.002370219    2.163    0.538
       184 -10.0702    166.9842     83.9902   7.5415060136e+01   3.1224914919e+01    0.3666005    0.2123273  70.06  0.001374723    2.416    0.586
       185 -10.3934    117.9836     82.8455   8.6900362050e+01   4.2705753672e+01    0.2736151    0.2122363 -41.38 0.0009365015    1.269    0.212
       186  -9.7341     87.9137     83.2180   9.5681798850e+01   4.8358197871e+01    0.2110865    0.1815167 -81.38 0.0004584939    1.275    0.216
       187  -9.7329     29.9797     81.8908   1.1414176984e+02   5.6112829476e+01    0.1873627    0.1588395 -67.04  0.001256194    1.032    0.031
       188  -8.9240    146.6421     81.3290   7.9183927083e+01   3.6594956851e+01    0.1615826    0.1222435 -79.57 0.0007043567    1.787    0.440
       189 -10.0761     70.4419     79.7131   1.0023343318e+02   5.1896003627e+01    0.1950722     0.116191 -45.07 0.0009385161    1.597    0.374
       190 -10.2569    150.7928     77.6989   7.7135814731e+01   3.6277338287e+01    0.2887117    0.2153626 -43.71  0.001357253    1.353    0.261
       191 -10.1668     92.5085     77.4714   9.2665422789e+01   4.8788160213e+01    0.2886012    0.2169046  14.22  0.001237065    1.748    0.428
       192 -10.8290     90.0041     75.0135   9.2714899016e+01   4.9753957986e+01    0.2945841    0.2241858 -13.40  0.001465619    1.704    0.413
       193 -12.1520     58.0285     74.1789   1.0291714191e+02   5.4829239842e+01    0.4989765    0.3477146  70.77 0.0004256844    1.979    0.495
       194 -12.0444     62.6549     71.6554   1.0066938475e+02   5.4770696685e+01    0.3381608    0.2965389  85.19   0.00121415    1.298    0.230
       195  -9.7585    122.0844     76.2968   8.3838257598e+01   4.3142389682e+01    0.2147554    0.1922129  53.55 0.0009666827    1.148    0.129
       196 -11.5398     76.4192     71.1458   9.5911278162e+01   5.2852179178e+01    0.5174953    0.3764437  55.67  0.002390143    1.630    0.386
       197 -10.5238     77.1483     63.7144   9.3413054750e+01   5.4301624763e+01    0.3980048    0.2615732 -41.58  0.001304113    1.421    0.296
       198 -11.2464     10.5970     90.8622   1.2176698547e+02   5.5556263003e+01    0.3188241    0.2217653  32.34  0.001556866    1.726    0.421
       199 -10.9762    138.8483     74.9632   7.9134907254e+01   3.9613976229e+01    0.2476585      0.23563  68.81            0    1.090    0.082
       200 -10.9419    108.9921     74.4974   8.6906400445e+01   4.6252282695e+01    0.3384346    0.2534064 -59.57  0.001608448    1.469    0.319
       201  -9.7267    145.6036     73.7165   7.7130137759e+01   3.8246622519e+01    0.2188478    0.1418014 -46.05 0.0009462039    1.590    0.371
       202 -10.5646    102.2875     73.3001   8.8484875270e+01   4.7827917846e+01    0.3092426    0.1804052  52.07  0.001350685    1.904    0.475
       203 -10.3696    112.2489     85.7437   8.9306297777e+01   4.3286250046e+01    0.3143321    0.2345307  70.03  0.001257694    1.662    0.398
       204  -9.6050    128.9310     71.7094   8.0614214760e+01   4.2508567909e+01    0.2032202    0.1925254  57.94 0.0002630135    1.085    0.078
       205  -9.9570     83.9832     72.3189   9.3808569169e+01   5.1365016211e+01     0.181552    0.1783426  29.00 0.0003057463    1.093    0.085
       206  -9.5271    161.0861     69.7922   7.2453088682e+01   3.5151425298e+01    0.2097522    0.1774298  19.39 0.0003654636    1.312    0.238
       207 -11.9728     94.4021     68.3377   8.9319097019e+01   5.0342154162e+01    0.4201219    0.2575034 -40.27  0.001951255    1.577    0.366
       208  -9.4650     68.7004     66.7226   9.7198476747e+01   5.4977711109e+01    0.1793198    0.1560037 -78.43 0.0002854843    1.287    0.223
       209 -11.2440     50.8419     67.8868   1.0377653661e+02   5.7108744901e+01    0.4107793    0.2090851 -37.46  0.001866288    2.246    0.555
       210 -11.1742     51.1395     63.3461   1.0243498096e+02   5.8063394298e+01    0.6114265    0.2492302 -40.26  0.002464195    2.732    0.634
       211  -9.6769    145.2784     69.1552   7.5785644593e+01   3.9146623037e+01    0.2667492     0.166676  14.90 0.0009566016    2.792    0.642
       212 -10.7324    123.0425     68.4250   8.1112584693e+01   4.4452176434e+01    0.2787374    0.2060341 -45.45 0.0006026822    1.352    0.261
       213 -12.3605     17.4226     67.2837   1.1575992107e+02   6.0386938541e+01    0.4911847    0.3195983 -15.45  0.001049422    2.069    0.517
       214 -10.7951     19.3626     61.4018   1.1384957650e+02   6.1551106360e+01     0.412746    0.2078253  56.48  0.001971778    3.024    0.669
       215 -10.5521    102.9628     68.0180   8.6629693230e+01   4.8761518427e+01     0.233218    0.1800972   0.45 0.0009132185    1.682    0.405
       216 -10.5564      6.6682     67.7200   1.1972257557e+02   6.0967821354e+01    0.1767575    0.1556218 -61.88 0.0005372793    1.146    0.127
       217 -12.0721      3.8630     64.6857   1.2024208973e+02   6.1790227917e+01    0.3048419    0.2511524  89.04 0.0004849718    1.222    0.182
       218 -12.0961     61.0837     60.4162   9.7973323379e+01   5.7404134775e+01    0.7345797     0.415797  28.89  0.003583943    2.094    0.522
       219  -9.0039    160.2994     66.2551   7.1526286252e+01   3.5947116620e+01    0.1520344    0.1171675  24.72 0.0001661328    1.501    0.334
       220  -9.3087    128.6601     66.7278   7.9092624383e+01   4.3502027705e+01    0.1535657    0.1175234  17.28  0.000309382    1.608    0.378
       221  -9.6736     68.6174     69.8559   9.8139506307e+01   5.4317629943e+01    0.2355504    0.1572699 -60.12 0.0001690364    1.482    0.325
       222  -9.7820     41.8532     64.5901   1.0617155821e+02   5.8844807997e+01    0.1609874    0.1537004 -69.83  0.001090374    1.135    0.119
       223  -9.9389    215.8373     64.1485   6.1042425139e+01   2.2287642547e+01    0.2192893    0.1917097 -65.11 0.0006188459    1.220    0.181
       224 -11.4740     84.5417     61.6935   9.0313891832e+01   5.3470162819e+01    0.4888403    0.3709823  31.70  0.002601297    1.441    0.306
       225 -10.2583     86.7056     56.6430   8.7911813084e+01   5.4090890226e+01    0.2677912    0.2265466   7.48  0.000774282    1.316    0.240
       226 -11.2880     87.2041     52.6178   8.6340497862e+01   5.4777854617e+01    0.3574823    0.2526097 -53.17 0.0009867232    1.513    0.339
       227 -10.4995     11.0937     62.6512   1.1721677829e+02   6.1828873670e+01    0.1823757    0.1340566 -75.71 0.0003892317    1.189    0.159
       228 -10.0941    201.2142     62.0673   6.2702923424e+01   2.6216946912e+01      0.21505    0.1978185  12.13  0.000412375    1.149    0.130
       229 -10.5840     45.4602     50.3950   1.0074757298e+02   6.1486697408e+01    0.3559233    0.2150645 -38.79  0.001906751    1.549    0.354
       230 -11.3700     29.3932     60.8671   1.0991111699e+02   6.0866576779e+01    0.6109854    0.2440795  15.81  0.002549611    3.917    0.745
       231 -12.7795     37.3412     51.1802   1.0421729949e+02   6.2205675378e+01    0.7928376    0.5346813 -42.01  0.003275326    1.311    0.237
       232 -11.5389      5.2997     51.6981   1.1734248129e+02   6.4552465117e+01    0.3225221    0.2211695 -40.51 0.0008824043    1.404    0.288
       233 -10.5795      4.6301     47.0181   1.1664735448e+02   6.5594605048e+01    0.3230011       0.1294 -44.76  0.001673807    2.155    0.536
       234 -10.4665      6.9932     41.2694   1.1432255804e+02   6.6689501234e+01    0.2808386    0.1143703 -58.27 0.0007758372    1.770    0.435
       235 -10.4115     47.8555     58.2674   1.0220491828e+02   5.9547029444e+01     0.257704    0.2065017 -75.67  0.001545932    1.398    0.285
       236 -10.2268     43.9433     57.0500   1.0333847366e+02   6.0253670133e+01    0.1925859    0.1635295 -47.81 0.0003380118    1.012    0.012
       237  -9.5975    147.0025     56.9620   7.1443911213e+01   4.0820980463e+01    0.2424364    0.1828028 -67.28 0.0005152888    1.658    0.397
       238 -12.3932    128.4039     50.4303   7.3631593956e+01   4.6428649361e+01    0.4985524    0.3520043  -1.77 0.0002917654    1.856    0.461
       239 -10.9863      5.6586     58.2625   1.1846182230e+02   6.3105597279e+01    0.3656338    0.1975953 -70.36  0.002151929    1.476    0.323
       240 -10.2108    129.7743     55.9131   7.5197374477e+01   4.5176346476e+01    0.2296556    0.2011041  -1.48  0.000447447    1.223    0.182
       241  -9.5285     96.0152     52.9790   8.3654545724e+01   5.3037348935e+01    0.1954949     0.169287 -65.22 0.0003996441    1.342    0.255
       242 -10.4340     99.8485     55.7500   8.3455415830e+01   5.1759208341e+01    0.3798468    0.2015962  48.36  0.001259401    1.993    0.498
       243 -10.9850     75.3622     55.7949   9.1435610064e+01   5.6207758744e+01    0.2423041    0.2063719 -23.85 0.0003643042    1.167    0.143
       244 -11.2162    118.2037     53.5070   7.7384432666e+01   4.8259617550e+01    0.4182725    0.3077191  45.54  0.002050446    1.370    0.270
       245  -9.9522     61.9205     54.2252   9.5706479015e+01   5.8575408216e+01    0.2421053    0.1846023 -72.72  0.001115087    1.640    0.390
       246 -10.7966     12.7106     51.7159   1.1434465295e+02   6.4117859565e+01    0.2734045    0.1905907 -77.17  0.001749966    1.382    0.276
       247 -10.4946    123.0405     56.6005   7.7170849470e+01   4.6619138703e+01    0.2734114    0.2105535 -43.66 0.0003949584    1.310    0.237
       248 -11.2565     69.9566     50.3348   9.1457672446e+01   5.8157468369e+01    0.4177823    0.3325453 -84.77  0.002249373    1.804    0.446
       249 -10.8737    103.7499     49.7552   8.0135828708e+01   5.2058359006e+01    0.3633719    0.2514303 -35.50  0.001777358    1.397    0.284
       250  -9.9882    220.8474     48.8836   5.6160480851e+01   2.3148100433e+01    0.2015491    0.1888155   8.93 0.0002616936    1.147    0.128
       251 -11.5079    152.1888     47.8896   6.7270866623e+01   4.0955077025e+01    0.4234971     0.298259  65.18  0.001204679    1.492    0.330
       252  -9.6544    104.4751     56.4590   8.2315290307e+01   5.0686718711e+01    0.2085372    0.1341682 -48.75 7.973025e-05    1.617    0.381
       253  -9.7045    114.4595     48.4949   7.6609164379e+01   4.9964940188e+01    0.2635531    0.1465997  63.78   0.00103414    2.394    0.582
       254  -9.1533    120.4225     47.4595   7.4622129114e+01   4.8787699939e+01    0.2101972    0.1448694 -18.71 0.0002099547    1.626    0.385
       255 -10.3331    122.1559     42.7788   7.2448629544e+01   4.9145533436e+01    0.3701079    0.2600342 -55.13  0.001715365    1.714    0.417
       256 -10.5164     78.5717     47.2442   8.7299661494e+01   5.7333360224e+01    0.1885818    0.1222714 -32.11 0.0005043521    1.517    0.341
       257 -10.5542     60.2799     46.0285   9.3513419461e+01   6.0456290783e+01    0.3850653    0.2788749  56.61   0.00208768    1.866    0.464
       258 -11.0232     11.3880     44.3839   1.1317443110e+02   6.5771585528e+01    0.4135433    0.1751442 -50.23  0.001485944    1.810    0.447
       259 -10.5396    142.6427     45.6999   6.8585517644e+01   4.3707434627e+01     0.308245    0.2400464 -65.40 0.0009003881    1.551    0.355
       260 -11.2027     86.3116     44.6832   8.3715559274e+01   5.6416829444e+01    0.4061999     0.180771 -31.19  0.001550671    2.572    0.611
       261  -9.2065    233.4220     45.5027   5.3701834903e+01   2.0539020699e+01    0.1383662    0.1293297 -35.20 9.073603e-05    1.035    0.034
       262  -9.8722     51.2662     44.9678   9.6647735509e+01   6.1887616076e+01    0.1820171     0.146805 -39.60 0.0003082161    1.069    0.064
       263 -11.0255     52.0749     40.9205   9.4879497291e+01   6.2582269724e+01    0.2830867     0.239891 -82.71  0.000621111    1.599    0.375
       264  -9.4119    175.2216     43.9290   6.1554957245e+01   3.5544109271e+01    0.2013074    0.1223976 -30.54 0.0008629963    1.640    0.390
       265 -10.0022     41.0075     41.0000   9.9462962391e+01   6.3913664475e+01    0.2729136    0.1567464  35.53  0.001471465    2.018    0.504
       266 -10.3044     44.0000     38.9807   9.7493888459e+01   6.3970394370e+01    0.6685425    0.3616678 -63.06  0.003131968    2.380    0.580
       267  -9.9267    110.5733     41.8592   7.5214004239e+01   5.1937027457e+01    0.2232148    0.2008543  88.81 0.0003627793    1.339    0.253
       268 -11.6026    102.7947     36.0544   7.5177368548e+01   5.4568653713e+01    0.6129827    0.3403433  26.02     0.002428    2.559    0.609
       269 -11.2704     97.5160     41.0058   7.8716991057e+01   5.4866644186e+01    0.3581184    0.2837279  46.54 0.0006795034    1.315    0.239
       270 -11.0634     96.9873     36.9840   7.7290948365e+01   5.5643016523e+01    0.2756204    0.2568303 -53.99 0.0003616882    1.217    0.178
       271 -11.3107     97.9395     31.8470   7.4911893062e+01   5.6258933258e+01    0.3500727     0.257086  20.63 0.0004041687    1.504    0.335
       272 -10.6798    101.0971     28.7593   7.2693471891e+01   5.6049163502e+01    0.2361708    0.2170474 -76.02 0.0004983104    1.338    0.253
       273 -10.0979     66.1848     41.5986   8.9645162592e+01   6.0428545157e+01    0.2651702    0.1869528   5.99  0.001373341    1.809    0.447
       274 -10.7341     69.2916     38.3608   8.7229933735e+01   6.0533316335e+01      0.38368    0.1897124 -23.73  0.001447871    3.127    0.680
       275 -10.5978     34.1820     34.2053   1.0001439323e+02   6.5997068844e+01    0.5417683    0.1758215  42.86  0.002013004    4.772    0.790
       276 -11.9085     27.6258     37.8390   1.0418230269e+02   6.5904810548e+01    0.4190149    0.2486327 -53.28  0.001616447    1.385    0.278
       277 -12.0946     20.5397     37.5372   1.0725600027e+02   6.6563064921e+01    0.3679598    0.2402571 -71.46  0.001777889    1.669    0.401
       278 -12.3470     24.1202     35.1873   1.0488972483e+02   6.6749170367e+01    0.4355052    0.2650555 -45.73 0.0003073444    1.319    0.242
       279  -9.4587    220.4349     41.5159   5.4187198875e+01   2.4200547435e+01    0.1412821    0.1341907 -45.55 6.091665e-05    1.015    0.015
       280 -10.5516    183.8931     41.1444   5.9228102296e+01   3.3644844680e+01    0.2329688    0.1988822 -59.08 0.0005640544    1.218    0.179
       281  -9.8693    226.1972     40.1871   5.3129287527e+01   2.2948468432e+01    0.1967705    0.1541583 -57.63  0.000614221    1.280    0.219
       282  -9.2432    215.5293     40.5465   5.4532619567e+01   2.5548072523e+01    0.1418348    0.1366365 -53.71 0.0001479999    1.012    0.012
       283 -10.6737     89.1700     39.1091   8.0610083384e+01   5.6853567008e+01    0.3180736    0.1885599 -36.46 0.0009127354    1.601    0.375
       284  -9.9265     73.5532     31.5876   8.2892724339e+01   6.1003297815e+01    0.2325028    0.1988321  32.81  0.001388806    1.233    0.189
       285  -9.7079     80.0590     26.1328   7.8233128217e+01   6.0708882644e+01    0.3535188    0.2210803 -58.40  0.001567255    2.574    0.611
       286  -9.9921     85.0203     35.0000   8.0320342226e+01   5.8343889371e+01    0.2818431    0.1517892  48.71 0.0006713551    2.009    0.502
       287 -12.2918     81.6027     37.9801   8.2686545152e+01   5.8473743907e+01    0.7822271    0.3875449 -42.60  0.002630693    1.947    0.486
       288 -11.0563     78.1734     32.1573   8.1484402626e+01   6.0087971639e+01    0.5116174    0.2726697 -13.27  0.001867153    3.433    0.709
       289  -9.4350    249.7003     38.3219   5.0105120135e+01   1.7638147879e+01    0.1430612   0.08947355 -55.17 0.0003989282    1.626    0.385
       290  -9.5833     61.9430     37.7756   8.9783715794e+01   6.1790361387e+01    0.1751222    0.1550222 -26.29 0.0002684358    1.016    0.016
       291 -10.4624    165.8952     36.6887   6.0833062281e+01   3.8994018321e+01    0.3274124    0.1855811 -84.50   0.00114423    3.006    0.667
       292 -11.1749     10.4416     34.5454   1.1099380987e+02   6.7887987188e+01    0.3710085    0.2311739   4.50   0.00200215    1.999    0.500
       293 -10.2494      3.1630     37.1202   1.1502101548e+02   6.7763822922e+01    0.2429298     0.160351 -48.73  0.001087621    1.208    0.172
       294 -11.1492      6.3134     30.6980   1.1184528380e+02   6.8921800986e+01    0.4360844      0.19264 -42.76  0.001546679    1.873    0.466
       295 -10.4569    149.4881     34.8766   6.3316834183e+01   4.3532678821e+01    0.5868614    0.1866834  47.14  0.001843209    3.180    0.686
       296  -9.0022    127.3384     36.2872   6.8722176479e+01   4.8901135232e+01    0.1554859    0.1093853  25.21 0.0003557605    1.635    0.389
       297  -9.7170     60.4325     33.5430   8.8679518737e+01   6.2790695732e+01    0.1305383    0.1146023 -28.11 0.0001176161    1.042    0.040
       298  -9.5911    206.2705     33.6868   5.3759923673e+01   2.8761757057e+01    0.1499199    0.1026308 -57.47 0.0001719453    1.552    0.356
       299 -10.2409    129.7950     32.8220   6.6827320945e+01   4.8798656464e+01    0.2223174    0.1949899  10.37 0.0009361904    1.171    0.146
       300 -12.4301    226.4858    246.2847   9.6810483270e+01  -4.0051033343e+00    0.5847517    0.3565123  22.90  0.004084821    1.349    0.259
       301 -10.7104     18.5030     31.3823   1.0624195859e+02   6.7970285907e+01    0.3202252    0.2550432  22.27  0.002232918    1.511    0.338
       302  -9.9043     21.2465     28.2973   1.0387880711e+02   6.8362952659e+01    0.1471424    0.1262174 -66.30  0.001023137    1.326    0.246
       303  -9.6529    145.1361     32.1488   6.3223089383e+01   4.5024647462e+01    0.1961388    0.1733345 -68.95 0.0003093541    1.258    0.205
       304 -10.1447     56.1843     31.1139   8.9380138070e+01   6.3853314700e+01     0.278272    0.1510412 -33.75  0.001371768    1.738    0.425
       305 -10.6483     42.5170     31.7913   9.5423944282e+01   6.5533598930e+01    0.1895093    0.1656446   2.53 0.0004039571    1.208    0.172
       306 -11.3547    177.5734     30.2595   5.6771295904e+01   3.6726406895e+01    0.4443237    0.2536834 -46.67  0.001892454    1.854    0.461
       307 -10.1104     49.7051     31.3379   9.2157303770e+01   6.4710942961e+01    0.2219441    0.1709973  56.37 0.0006512025    1.844    0.458
       308 -10.8842     50.6690     28.0368   9.0378568375e+01   6.5178675365e+01    0.2387961     0.187995 -23.19 0.0002104205    1.141    0.123
       309 -10.1533    139.9258     29.3801   6.3289990985e+01   4.6726951967e+01    0.3938955    0.1952879  -5.96  0.001293474    3.470    0.712
       310  -9.9792    119.8369     28.3606   6.7488568759e+01   5.1832328243e+01      0.33718    0.2123019  16.40  0.001002649    2.117    0.528
       311 -10.2046    153.5453     28.8965   6.0412388479e+01   4.3263991819e+01    0.2360048    0.2036438 -71.34 0.0006278234    1.280    0.219
       312 -11.4322    214.0792     26.9587   5.0884467618e+01   2.7567607175e+01    0.4080833      0.25533 -58.47  0.001182497    1.712    0.416
       313 -11.0392     70.2267     26.2541   8.1806816913e+01   6.2459429221e+01    0.3744001    0.2993795  43.63  0.002198461    1.396    0.283
       314 -10.2050    247.8732     27.1708   4.7491306079e+01   1.9349961781e+01    0.2017251    0.1586225 -55.72  0.000296962    1.186    0.157
       315  -9.9470    135.1034     22.6170   6.1751445110e+01   4.8813330929e+01    0.5014158    0.3345121  81.01  0.002265765    1.866    0.464
       316 -10.4516    147.6374    245.1933   1.0959823113e+02   7.8491570637e+00    0.1273788     0.103085 -29.78 0.0009518199    1.760    0.432
       317 -10.4202    129.2873     19.3323   6.1709599937e+01   5.0675693218e+01    0.2249255    0.1918656   6.65 0.0006236445    1.207    0.172
       318 -10.0770     24.9075     26.9802   1.0164060942e+02   6.8301665617e+01    0.1807517    0.1453367 -39.49    0.0005009    1.014    0.013
       319  -9.8104    146.0065     26.0491   6.0829916217e+01   4.5589672412e+01    0.2118419    0.2082899  55.49            0    1.033    0.032
       320 -10.6898     87.0009     24.5018   7.5194407095e+01   5.9610824336e+01    0.4359366     0.292663  79.04  0.001898931    2.836    0.647
       321 -11.3160     84.8926     20.4292   7.4055237969e+01   6.0619402045e+01    0.4781308    0.3282829  23.15  0.002478049    1.571    0.364
       322 -12.1209     74.3553    238.2573   1.2140103480e+02   1.9178010148e+01    0.4943173    0.3082832  77.21  0.003521735    1.544    0.352
       323 -10.8890     65.2620     21.2253   8.1409436204e+01   6.4101299947e+01     0.292208     0.234469  18.53 0.0007464947    1.247    0.198
       324 -12.3600      5.8864    245.0174   1.3262473104e+02   2.5709851090e+01    0.6928589     0.268455  89.65  0.004669035    2.310    0.567
       325  -9.4245    115.5313    244.5275   1.1495876959e+02   1.2649712405e+01    0.1098319   0.08115408  50.05 0.0003162135    1.030    0.029
       326  -9.4741     63.1724    243.8321   1.2362534924e+02   1.9717374428e+01    0.1235752     0.105162  57.68 0.0004697857    1.332    0.250
       327  -9.9397    109.6896    242.8148   1.1579264060e+02   1.3722444604e+01    0.2102676    0.1004144  57.86 0.0009490548    1.970    0.492
       328  -9.3921     16.5491     26.5601   1.0554875024e+02   6.9077050692e+01    0.1180532   0.09201865 -42.86 0.0001233095    1.008    0.008
       329 -10.9138     10.0762     25.1478   1.0828356248e+02   6.9810028533e+01    0.2535188    0.1827292 -17.69  0.001070294    1.464    0.317
       330 -10.9026     10.1724     15.4272   1.0471740296e+02   7.1681242875e+01    0.2134287    0.1466193 -30.23 0.0005560857    1.273    0.215
       331 -10.2125      8.2886     20.5373   1.0762513410e+02   7.0829473103e+01    0.2880127    0.1259466 -53.98 0.0009506747    1.715    0.417
       332 -11.4244     37.6525    242.8360   1.2766855353e+02   2.2822575052e+01    0.3687721     0.111161  41.07  0.002082783    2.480    0.597
       333  -9.5387      1.4183     25.0019   1.1260030520e+02   7.0335780525e+01    0.2933167   0.05866877 -57.82  0.001237005    2.922    0.658
       334  -9.6908    237.4636     25.4837   4.8032716903e+01   2.1973721234e+01    0.1362616    0.1227178 -53.28 6.898615e-05    1.009    0.009
       335 -10.7446    197.0987     25.0653   5.2390593494e+01   3.2178424568e+01    0.2119847    0.2077708 -65.68 0.0004222654    1.034    0.033
       336  -9.3949    112.0054     25.0049   6.8121166895e+01   5.4131272904e+01     0.175691    0.1564783 -13.42 0.0005012144    1.101    0.092
       337 -10.1982    173.5587     24.3493   5.5463497740e+01   3.8510366317e+01    0.2865186    0.1691008  61.57 0.0007252765    1.604    0.377
       338  -9.8717     93.8145     24.3040   7.2964509752e+01   5.8246753267e+01    0.1977431    0.1696497 -28.85 0.0006544462    1.163    0.140
       339 -10.1576     54.3535     23.8216   8.6986828538e+01   6.5389471164e+01    0.2298964     0.175913  17.96 0.0007283366    1.374    0.272
       340  -9.2843     97.4540     23.5071   7.1526105254e+01   5.7587960527e+01     0.142196    0.1259754   9.01 0.0001763694    1.063    0.059
       341  -9.2854     36.0035     22.7785   9.4675007099e+01   6.7957315556e+01    0.2027526    0.1348644  14.48  0.001193985    1.726    0.421
       342  -9.6924     28.7264     21.5149   9.7623358127e+01   6.8967099374e+01    0.3145201    0.1316324 -29.47  0.001305254    3.191    0.687
       343  -9.6517    120.4801     21.0995   6.4410555996e+01   5.2629815432e+01     0.210968    0.1403186 -23.85 0.0005753935    1.524    0.344
       344  -9.7517    113.6727     20.5375   6.5838493021e+01   5.4326164317e+01    0.2508923    0.1650109 -47.09  0.001182442    1.773    0.436
       345 -10.3955    161.9002     20.0883   5.5865772697e+01   4.2113146271e+01    0.2153625    0.1910597 -67.03   0.00115936    1.191    0.160
       346 -10.2230     45.7128     20.3849   8.9162322808e+01   6.7179098498e+01    0.2931289    0.1173724  37.87  0.001328575    2.781    0.640
       347 -10.3816    226.8321     18.9810   4.7343735111e+01   2.5272277094e+01    0.2721444    0.1866633  81.66 0.0006216689    1.495    0.331
       348 -10.2753     33.6916     17.3106   9.3359161043e+01   6.9188919926e+01    0.3064301    0.1592847 -52.49  0.001575527    2.054    0.513
       349  -9.5635     35.5685     14.5787   9.1168848688e+01   6.9438638701e+01    0.1901294    0.1523343 -25.28 0.0006293174    1.012    0.012
       350 -10.2200    217.5587     16.4872   4.7580598868e+01   2.7855468250e+01    0.3349293    0.1108686  63.48  0.001237103    2.755    0.637
       351  -9.6720    108.3366     17.5877   6.5949259640e+01   5.5939344743e+01    0.1962042    0.1232846  45.35 0.0007567198    1.514    0.339
       352  -9.4777    241.7300     16.6932   4.5395687325e+01   2.1932073064e+01    0.1246652    0.1008097  26.30 0.0001636055    1.539    0.350
       353 -10.4733     35.6832    239.6705   1.2782761944e+02   2.3532464470e+01    0.1892129    0.1730068 -15.49  0.001602845    2.160    0.537
       354 -10.7143    156.3336    240.8465   1.0764264661e+02   7.0878204075e+00     0.177689    0.1373687 -83.40  0.001248816    1.919    0.479
       355 -10.1016     89.0333    240.9628   1.1913171189e+02   1.6842112213e+01    0.1412406    0.1267336  19.08  0.001122353    1.695    0.410
       356  -9.7137     46.9515    241.4861   1.2611625179e+02   2.1993481687e+01    0.1416349   0.07615498  44.97  0.000329385    1.483    0.326
       357  -9.1820     50.3101    240.3160   1.2550859764e+02   2.1789870319e+01   0.08113989   0.07758734  52.08 0.0004038294    1.635    0.389
       358 -10.4060    195.7741    238.3231   1.0068978819e+02   1.3394375606e+00    0.2439405    0.1481721  31.72  0.001507678    1.313    0.238
       359 -10.4400    181.0080    248.5183   1.0441523088e+02   2.4388043986e+00    0.2170496    0.1117148 -25.18  0.001193928    3.324    0.699
       360 -10.3307     30.7849     12.9120   9.2737861799e+01   7.0270130850e+01    0.1838102    0.1512853 -13.13 0.0004379736    1.110    0.099
       361  -9.8352     15.1456     14.1458   1.0149610422e+02   7.1546772194e+01    0.1461181    0.1206753 -55.02 0.0004305407    1.313    0.238
       362  -9.8478     49.7999     15.3008   8.4943370428e+01   6.7443737081e+01    0.2179984     0.175226  28.87  0.001391574    1.339    0.253
       363  -9.8230     24.0417    232.4398   1.2935439282e+02   2.5917117957e+01    0.1575817     0.113662  60.75 0.0006665535    1.135    0.119
       364 -10.4517     31.3563    237.3927   1.2840902847e+02   2.4357846989e+01    0.2067758    0.1227589  72.16  0.000998331    1.294    0.227
       365 -10.3361     29.1771    232.9104   1.2854926090e+02   2.5307837865e+01    0.2449116     0.118718  57.04  0.001477315    1.459    0.315
       366 -10.3787    159.8932    235.8801   1.0645280902e+02   7.1744983102e+00    0.1754165    0.1289972  30.44 0.0006787162    1.273    0.214
       367  -9.4139    231.3156    235.3244   9.4506123487e+01  -3.6616958084e+00    0.1143013   0.06599221  17.47 0.0004916639    1.667    0.400
       368  -9.9782    177.6654    234.8799   1.0328456022e+02   4.5335813197e+00    0.2011528    0.1234879  34.85 0.0008857918    1.304    0.233
       369 -11.2164    153.4945    234.0077   1.0733727902e+02   8.4117884240e+00    0.2095889    0.1852215 -17.68  0.001064641    1.502    0.334
       370  -9.9430     85.9653    232.9502   1.1901668612e+02   1.8480504304e+01    0.1797201   0.09781371  62.79 0.0006077649    1.653    0.395
       371  -9.0002     38.6519    232.6982   1.2699621182e+02   2.4321854233e+01   0.08064301   0.07879719  54.43 0.0006575531    1.690    0.408
       372  -9.9294     79.9347    231.4963   1.1994440553e+02   1.9512394852e+01    0.1628175   0.08168919  45.69 0.0004717249    1.526    0.345
       373 -10.8802      1.3833    244.8085   1.3328395133e+02   2.6159398477e+01    0.2126383   0.07166491 -82.35 0.0006973721    2.714    0.632
       374  -9.7717    156.6418    245.7379   1.0814252635e+02   6.4284184880e+00    0.1089904   0.07075983  26.86 0.0003038073    1.627    0.386
       375 -10.2364     66.7315    226.8387   1.2188423495e+02   2.1965772145e+01    0.2861113     0.136056  57.23  0.001143726    1.686    0.407
       376  -9.9521    190.5147    226.4507   9.9964309420e+01   3.5263111139e+00    0.1829406    0.1151763 -35.60 0.0006610518    1.991    0.498
       377  -9.2246    140.4757    227.4632   1.0886221154e+02   1.1338427543e+01    0.1177479   0.08962668  49.36 0.0008084034    1.056    0.053
       378 -10.0038    129.7721    226.8442   1.1070179623e+02   1.3083432876e+01    0.2438534    0.1159964  57.34  0.001247445    2.247    0.555
       379  -9.8807     87.5161    227.4872   1.1829277716e+02   1.9133959216e+01    0.1122004   0.08352536  58.18 0.0008103343    1.002    0.002
       380 -11.0462      5.1332    226.2784   1.3212604216e+02   2.8763382501e+01    0.2632615   0.06550281  52.93  0.001490889    2.486    0.598
       381 -10.8967    120.0407    226.4872   1.1240497429e+02   1.4614989830e+01    0.1743005   0.08968467  43.83 0.0004102025    1.514    0.339
       382 -10.6681    123.5546    221.5887   1.1124260446e+02   1.4827312547e+01    0.4408377    0.2114138  49.28  0.002429815    1.684    0.406
       383  -9.8520    181.0000    224.9564   1.0139919177e+02   5.2292934835e+00    0.1564996    0.0678357 -41.68 0.0008014691    2.936    0.659
