#   1 NUMBER                 Running object number                                     
#   2 MAG_AUTO               Kron-like elliptical aperture magnitude                    [mag]
#   3 X_IMAGE                Object position along x                                    [pixel]
#   4 Y_IMAGE                Object position along y                                    [pixel]
#   5 X_WORLD                Barycenter position along world x axis                     [deg]
#   6 Y_WORLD                Barycenter position along world y axis                     [deg]
#   7 A_WORLD                Profile RMS along major axis (world units)                 [deg]
#   8 B_WORLD                Profile RMS along minor axis (world units)                 [deg]
#   9 THETA_WORLD            Position angle (CCW/world-x)                               [deg]
#  10 FWHM_WORLD             FWHM assuming a gaussian core                              [deg]
#  11 ELONGATION             A_IMAGE/B_IMAGE                                           
#  12 ELLIPTICITY            1 - B_IMAGE/A_IMAGE                                       
         1  -9.6467    163.7548     35.0787   2.9017989453e+02   6.3796626890e+00   0.02727252   0.01612731 -47.92  0.001998398    1.722    0.419
         2  -8.3803    120.4721      8.6821   2.9052986470e+02   6.9471748748e+00   0.01238684  0.008366412  -2.40  0.001205004    1.880    0.468
         3  -7.8272    175.3139      8.3119   2.8987965029e+02   6.6151033753e+00  0.006974785  0.005023477 -24.76 0.0005540727    1.635    0.388
         4  -8.6436    248.6177      5.7881   2.8899954899e+02   6.1931699520e+00   0.01474837  0.007690886 -11.00 0.0009647654    4.361    0.771
         5  -9.2791     21.8161    239.1678   2.9309695753e+02   4.9055264324e+00   0.01500101   0.01040153 -70.10 0.0008966377    1.558    0.358
         6 -17.7197     73.0430    238.2410   2.9248726541e+02   4.6042994953e+00    0.1934045    0.1568996  35.03  0.007423227    1.202    0.168
         7  -8.7904    120.0441    202.8050   2.9171808057e+02   4.7241745200e+00   0.02202306    0.0140056  85.40    0.0019499    2.262    0.558
         8  -9.0765    114.9848    197.4415   2.9174516769e+02   4.8166247799e+00   0.03015286   0.01606824  79.69  0.002082597    4.116    0.757
         9  -7.8203    175.0106    203.3115   2.9107320920e+02   4.3822473945e+00  0.009134444  0.008472241  32.76 0.0004730236    1.056    0.053
        10  -8.9341    138.6202    200.3224   2.9148395747e+02   4.6391368412e+00   0.01776826   0.01220261  87.40  0.001422243    1.906    0.475
        11  -7.6565    147.8161    195.2002   2.9134440152e+02   4.6416714758e+00  0.009379796  0.007674312 -19.97 0.0005270267    1.349    0.259
        12  -7.6843    178.2636    228.3455   2.9118711045e+02   4.0752209285e+00   0.00693533  0.004910748 -31.38 0.0004974214    1.604    0.376
        13  -7.8200    132.2929    194.2815   2.9152184713e+02   4.7471242376e+00  0.008852642  0.007420988  65.79 0.0004745883    1.317    0.240
        14  -8.8426    167.2210    227.5074   2.9131209715e+02   4.1523843585e+00   0.01283515   0.01133327 -72.58 0.0008319318    1.189    0.159
        15  -9.9979    189.4031    190.2339   2.9082404568e+02   4.4441124503e+00   0.01479893   0.01213367  65.51 6.404542e-05    1.361    0.265
        16  -8.0330    109.0831    189.6831   2.9176764881e+02   4.9417000292e+00   0.01127382  0.007769042  45.07  0.001167805    1.482    0.325
        17  -9.1479      9.7387    226.9474   2.9316553312e+02   5.1192393331e+00    0.0211977   0.01105145 -40.61  0.001459181    2.191    0.543
        18  -9.8117    185.2733    223.2806   2.9107375692e+02   4.0904149896e+00   0.03330968  0.008996745 -64.79  0.002051992    4.393    0.772
        19  -7.8032    215.4067    184.8212   2.9048477426e+02   4.3468522616e+00  0.009736811  0.005856403 -48.64 0.0004913044    1.684    0.406
        20  -9.5755    134.1138    230.9367   2.9172303672e+02   4.3154326903e+00   0.02010171   0.01207861 -34.62  0.001883146    1.982    0.495
        21 -12.8717     56.5903    211.2303   2.9251767338e+02   5.0145938172e+00   0.02552349   0.02149108 -85.62 0.0007386951    1.314    0.239
        22  -9.1022     65.5695    174.0451   2.9218617232e+02   5.3866941078e+00   0.01368089   0.00919784  14.48 0.0009492515    1.624    0.384
        23  -7.9947    139.0139    178.5244   2.9134677735e+02   4.8868115491e+00   0.01044403  0.008655242 -59.95 0.0006437412    1.228    0.185
        24  -9.8653     24.2684    172.9578   2.9266720596e+02   5.6507069951e+00   0.03123862   0.01715808  -4.46  0.002352344    3.196    0.687
        25  -8.8519     17.8488    174.3999   2.9275175146e+02   5.6731997941e+00   0.01108607    0.0090918 -20.48 0.0007832566    1.342    0.255
        26  -7.8818     16.0397    250.0837   2.9323103856e+02   4.8153280775e+00  0.009630073  0.009327884 -81.67 0.0006742546    1.069    0.064
        27  -8.7969    195.9817    170.7765   2.9062803169e+02   4.6269272664e+00    0.0157217   0.01361843 -18.69  0.001027082    1.234    0.190
        28  -9.9265     72.1991    168.7939   2.9207602763e+02   5.4065372033e+00   0.02607952   0.01440957  12.88  0.002292222    2.235    0.553
        29  -9.1351    112.9117    169.1853   2.9159789845e+02   5.1535160936e+00    0.0122786  0.009101206  21.55 0.0009235912    1.358    0.264
        30  -9.5069     19.3142    166.8797   2.9268886381e+02   5.7506120120e+00   0.02572653   0.01623385 -33.84  0.002495446    1.857    0.462
        31  -8.3665     81.1460    167.8183   2.9196448662e+02   5.3631556080e+00   0.01027394  0.008935099  55.36 0.0005925212    1.203    0.168
        32  -7.9971    166.7450    235.6273   2.9136703944e+02   4.0621592647e+00   0.01153877  0.008222236  85.85   0.00116432    1.787    0.440
        33  -7.9772    117.5933    166.9257   2.9152891814e+02   5.1508353708e+00   0.01100118  0.008675111  50.12 0.0005890204    1.321    0.243
        34  -8.9235     59.2885    167.4002   2.9221998567e+02   5.5012474341e+00   0.01681966   0.01022988  23.49  0.001644909    1.664    0.399
        35  -9.9677     52.9291    164.6389   2.9227831093e+02   5.5716941777e+00   0.04026714   0.01355404  23.38    0.0023151    3.368    0.703
        36  -8.2097     59.0537    164.0000   2.9220211449e+02   5.5417026967e+00   0.01319382   0.00678889  26.05 0.0007324922    1.931    0.482
        37  -8.7247    123.4504    168.6293   2.9147017419e+02   5.0954906655e+00   0.01496125   0.01343785  64.60  0.001471743    1.184    0.155
        38 -10.3785     72.9739    161.6972   2.9202377554e+02   5.4832557858e+00   0.05221985   0.02275831   7.04  0.002907641    5.921    0.831
        39  -9.9334     80.6270    162.2652   2.9193687600e+02   5.4300502529e+00    0.0225465   0.01617329 -49.29   0.00242339    1.408    0.290
        40  -9.9951     73.7522    157.5502   2.9198939345e+02   5.5260993957e+00   0.01884697   0.01423938 -46.53  0.001050873    1.348    0.258
        41  -9.7684     77.9474    157.0660   2.9193691818e+02   5.5060626202e+00   0.01831971   0.01391758 -32.97  0.001995804    1.435    0.303
        42 -10.1126     36.5995    157.4963   2.9242780264e+02   5.7531321794e+00   0.03396442   0.01472149 -61.00  0.002856198    2.314    0.568
        43  -8.3640     64.4555    159.4535   2.9211072401e+02   5.5609525570e+00  0.006622811  0.006426796  39.69 0.0008069733    1.028    0.028
        44  -8.5151     57.3576    157.3527   2.9218177951e+02   5.6283302364e+00   0.01431937    0.0106429  -5.90  0.001306533    1.592    0.372
        45  -8.6604    109.6580    156.8813   2.9156146998e+02   5.3145680558e+00   0.01242395   0.00938703  36.85 0.0007444877    1.291    0.225
        46  -8.0477    120.2204    156.4670   2.9143429856e+02   5.2547712593e+00   0.01607083  0.005952425  44.56    0.0011743    2.994    0.666
        47  -7.3130    116.3363    154.6458   2.9146905450e+02   5.2994058217e+00  0.007281912  0.004950625  62.14 0.0007043515    1.797    0.444
        48 -10.6133     99.3370    150.2828   2.9164315925e+02   5.4533255811e+00   0.03144143   0.02811319 -42.72  0.002208439    1.138    0.121
        49  -9.8271    184.1119    213.0868   2.9102544338e+02   4.2144301661e+00   0.01946393    0.0155769  69.05  0.002166202    1.433    0.302
        50  -8.6004     65.4464    155.1823   2.9207308025e+02   5.6039274017e+00   0.01250582  0.009218084  25.05 0.0006803504    1.340    0.254
        51  -8.6465    112.0884    151.3556   2.9149917085e+02   5.3631138301e+00   0.01069929  0.008485204   0.28 0.0009232633    1.400    0.286
        52  -6.8988    152.3118    211.2970   2.9138926169e+02   4.4295164632e+00   0.00689065  0.005041289 -23.79 0.0007010436    1.599    0.375
        53 -10.8288     68.6210    143.1080   2.9196222128e+02   5.7231255174e+00   0.03672194   0.02454796  36.25  0.003827364    1.448    0.309
        54  -9.2642     72.9327    138.4838   2.9188318574e+02   5.7498850003e+00   0.01489723   0.01031287  34.79   0.00106318    1.397    0.284
        55  -9.6058     71.6404    134.7611   2.9187581422e+02   5.8004828012e+00    0.0177543    0.0118845  46.84  0.001187979    1.556    0.358
        56  -9.1738     44.7562    146.7737   2.9226636739e+02   5.8265219512e+00   0.02387863  0.009875826  21.53  0.001840989    2.742    0.635
        57  -7.4204     89.5355    146.5952   2.9173644899e+02   5.5554879344e+00  0.006610955  0.006360735  27.19 7.842726e-05    1.018    0.018
        58  -7.3827     84.6613    146.3236   2.9179234778e+02   5.5883595001e+00  0.007173412  0.004952738  60.27 0.0001849986    1.721    0.419
        59  -9.9253     11.4071    207.1108   2.9302587601e+02   5.3368389957e+00   0.03505217   0.02021469  32.25  0.003109314    1.658    0.397
        60  -8.0109     96.9117    142.8955   2.9162685780e+02   5.5528956184e+00   0.01072136  0.007664253  60.19 0.0006384674    1.629    0.386
        61  -7.0984    203.2826    138.6671   2.9034625144e+02   4.9502908576e+00  0.006875322  0.005058456  65.08 0.0002253332    1.614    0.380
        62  -9.1895    133.4681    137.3676   2.9116169820e+02   5.3928512743e+00   0.01215697   0.01116067  -7.91 0.0002220578    1.125    0.111
        63  -8.4690    109.1552    136.2812   2.9144206027e+02   5.5539767155e+00   0.01156303    0.0096127  50.70 0.0004815971    1.246    0.197
        64  -8.1032     49.7528    135.9902   2.9214183875e+02   5.9198290261e+00   0.01676008  0.008021342  27.32  0.001277007    2.047    0.511
        65  -7.5219     78.6585    135.7184   2.9179874509e+02   5.7466783343e+00  0.006929832  0.005054704 -20.38 0.0003091287    1.631    0.387
        66  -8.2874    198.0918    126.0400   2.9033040066e+02   5.1268656527e+00   0.00969805  0.009312765 -13.97 0.0003008575    1.053    0.051
        67  -8.4363     58.1261    124.7465   2.9197457017e+02   5.9978056036e+00    0.0166767  0.009472035  12.68  0.001323774    2.142    0.533
        68  -8.4079    130.5213    122.3378   2.9110491820e+02   5.5832588435e+00    0.0109393  0.009725554   8.57 0.0002636313    1.149    0.130
        69  -7.4755     72.5061    120.4406   2.9177848713e+02   5.9595004473e+00  0.006624497  0.006433839  25.49 8.607324e-05    1.010    0.009
        70 -10.0877    243.8539    117.2554   2.8973759065e+02   4.9466343457e+00   0.01352112   0.01185785  19.21 0.0004488959    1.135    0.119
        71  -8.8582    191.3267    233.6716   2.9106564260e+02   3.9342073633e+00   0.01516076  0.007507233 -53.89  0.001358766    1.978    0.494
        72  -8.7901     61.3777    107.8451   2.9183334424e+02   6.1718748808e+00   0.02126944   0.01226297 -28.31  0.001862406    2.356    0.575
        73  -7.6306     32.2312    107.6498   2.9217665968e+02   6.3517224980e+00  0.009351595   0.00629088  16.52 0.0009393052    1.588    0.370
        74  -7.7333    189.9929    103.9896   2.9029131312e+02   5.4292688837e+00  0.007864188  0.007735235  16.71 0.0003297999    1.006    0.006
        75  -7.3123     59.3349    100.6759   2.9181386030e+02   6.2665666682e+00  0.007151375  0.004960021  60.47 0.0007050983    1.712    0.416
        76  -8.2243    246.3114     98.0110   2.8959107261e+02   5.1519618627e+00   0.01347735  0.009561697  65.45 0.0009937758    1.721    0.419
        77  -8.2791    193.8983     98.7193   2.9021307974e+02   5.4657067959e+00  0.009454647  0.008442621  26.62 0.0004391019    1.096    0.088
        78  -8.0308     27.3333     99.3987   2.9218440033e+02   6.4761932473e+00   0.01326362  0.006610904  20.97  0.001137399    2.179    0.541
        79  -7.6010    213.5316     77.4398   2.8985158616e+02   5.5889663112e+00  0.006637958  0.006407517  -2.37 2.930557e-05    1.039    0.037
        80  -7.1864     71.3428     71.7027   2.9149545760e+02   6.5255528451e+00  0.007084558  0.004928113  58.16 0.0007033815    1.667    0.400
        81  -7.2905     19.7022     70.2817   2.9209754002e+02   6.8565721048e+00  0.006755914   0.00498399  59.24  0.000187794    1.542    0.352
        82  -9.0902    158.9373     60.8373   2.9039421407e+02   6.1141871015e+00   0.01038255  0.008781551 -26.23 0.0005391701    1.265    0.209
        83 -10.1830    149.2582     58.4554   2.9049394847e+02   6.2008063462e+00   0.01668891   0.01430687  66.29  0.001891876    1.275    0.216
        84  -9.4882    144.5844     59.2793   2.9055417561e+02   6.2200072389e+00   0.01704173   0.01128192   2.77  0.001655507    1.882    0.469
        85  -8.3629    196.1261     55.9272   2.8992532892e+02   5.9422370654e+00   0.00957356  0.009213973 -24.75  0.000305051    1.052    0.050
        86  -9.7170    133.9345    246.2748   2.9181823355e+02   4.1405519657e+00   0.02816995   0.01105696 -56.20  0.001858272    2.434    0.589
        87 -10.4041    160.9506     42.4923   2.9025833237e+02   6.3119687718e+00   0.02273361    0.0159938 -39.84  0.002276708    1.515    0.340
        88 -10.8856    156.7604     51.1133   2.9036050166e+02   6.2389249379e+00   0.02226614   0.01825926 -80.50  0.002316388    1.345    0.257
        89 -10.7471    161.2237     47.6862   2.9028685601e+02   6.2508092681e+00   0.02182082   0.01754129   4.01  0.002450212    1.352    0.260
        90  -9.2881    250.5199     41.2047   2.8919404339e+02   5.7763717000e+00   0.01208247   0.00771822 -57.56 0.0002674395    1.567    0.362
        91  -8.3274    136.0747     46.0564   2.9057391446e+02   6.4236257707e+00  0.009746042  0.009545026  -4.74 0.0003595206    1.021    0.020
        92  -7.4348    244.6722     30.7253   2.8919877946e+02   5.9322543787e+00  0.006819407  0.005065177 -19.94 0.0002535965    1.588    0.370
        93 -10.1900    145.1370     22.2744   2.9032148888e+02   6.6404417512e+00   0.01265454   0.01063605 -57.40 0.0004006237    1.206    0.171
        94  -7.4472    155.9916     17.4766   2.9016391900e+02   6.6288028232e+00  0.009165228  0.004996626  50.97 -3.615324e-05    2.140    0.533
        95  -9.0403    249.9736     15.4543   2.8904279317e+02   6.0742905589e+00   0.01095885  0.009039209 -60.41  0.001079419    1.236    0.191
        96  -8.6650    138.5350    243.5401   2.9174743218e+02   4.1438224276e+00   0.01998505  0.008439038 -62.34  0.001638418    2.428    0.588
        97  -8.7560     13.4948    242.8462   2.9321732163e+02   4.9138838730e+00   0.02326782   0.01019466 -56.88   0.00198498    2.210    0.548
        98 -10.0881    156.9916     45.4944   2.9032343101e+02   6.3018651728e+00   0.01847929   0.01373818  17.46  0.002001173    1.392    0.281
