#   1 NUMBER                 Running object number                                     
#   2 MAG_AUTO               Kron-like elliptical aperture magnitude                    [mag]
#   3 X_IMAGE                Object position along x                                    [pixel]
#   4 Y_IMAGE                Object position along y                                    [pixel]
#   5 X_WORLD                Barycenter position along world x axis                     [deg]
#   6 Y_WORLD                Barycenter position along world y axis                     [deg]
#   7 A_WORLD                Profile RMS along major axis (world units)                 [deg]
#   8 B_WORLD                Profile RMS along minor axis (world units)                 [deg]
#   9 THETA_WORLD            Position angle (CCW/world-x)                               [deg]
#  10 FWHM_WORLD             FWHM assuming a gaussian core                              [deg]
#  11 ELONGATION             A_IMAGE/B_IMAGE                                           
#  12 ELLIPTICITY            1 - B_IMAGE/A_IMAGE                                       
         1 -14.9425     70.3290    147.4586   5.7488326438e+01   3.6117851910e+01     3.714792     1.774234  83.75   0.01006809    5.178    0.807
         2 -13.7789    214.3469     54.9480   2.2296157029e+00   2.5395837023e+01     1.030709    0.9094191  -9.75   0.00483975    1.415    0.293
         3 -14.2764    228.2905     45.6569   3.5879136540e+02   2.3847290511e+01    0.8442872    0.7592274  42.85  0.005186262    1.498    0.333
         4  -9.9337     72.6630      6.3263   8.6198174855e+00   6.6315313725e+01    0.1399543    0.1012006 -68.84 0.0007051598    1.723    0.420
         5 -11.2137      2.4718      2.6078   5.1767785337e+01   7.9847520470e+01    0.2639006    0.1819251 -39.48  0.001273097    1.297    0.229
         6  -9.7457     97.1345    241.5634   6.1898706393e+01   1.1945998129e+01    0.1939425      0.08708 -65.49  0.000949064    2.999    0.667
         7 -10.8876     75.2488    248.1749   6.7246121422e+01   1.3400869729e+01    0.4545051    0.1526487 -54.80  0.002087477    3.645    0.726
         8 -15.9535     56.9426    234.2133   7.0319669474e+01   1.8025269862e+01     4.903964     3.249662 -50.60   0.02569024    1.962    0.490
         9 -15.2908     10.1886    206.3598   7.9911400721e+01   2.8485467371e+01     1.272028    0.7016529  12.85  0.006438399    2.183    0.542
        10 -10.3732    185.4382    237.9692   4.3398380788e+01   1.7037364644e+00    0.1504192    0.1022307 -32.19 0.0004669483    1.560    0.359
        11 -10.2317    103.8564    237.8475   6.0056960986e+01   1.1754774117e+01    0.1820875    0.1488753  10.46 0.0006040706    1.236    0.191
        12 -10.2096    216.0114    237.2618   3.7928646181e+01  -1.5676392297e+00    0.1511232    0.1097159   1.74 0.0006014406    1.016    0.015
        13 -10.5568     73.4672    234.5524   6.6576479263e+01   1.6055492071e+01    0.2126354    0.1762299  46.09 6.208946e-05    1.088    0.081
        14 -10.7239     72.5770    231.5183   6.6532053944e+01   1.6730569619e+01    0.2347471    0.1866118  -4.03 0.0009071804    1.577    0.366
        15 -12.7619    127.1005    229.1603   5.3988895191e+01   1.0266703756e+01    0.4902572    0.3236632  14.42  0.002840229    1.473    0.321
        16 -11.8248    147.7690    228.1758   4.9461188667e+01   7.7416711013e+00    0.2434629    0.2294873 -13.55  0.001756521    1.273    0.215
        17 -11.7059     72.4517    226.1257   6.6108803460e+01   1.7779566641e+01    0.2936557    0.2044233  51.09 0.0008097976    1.297    0.229
        18 -11.2203    174.9684    223.2954   4.3306373146e+01   5.0117051171e+00    0.1916363    0.1522357   2.04 0.0005744805    1.058    0.055
        19 -15.0115      6.8603    187.5799   8.0061201758e+01   3.3018895567e+01     1.904851     1.151799  70.98   0.01064073    1.445    0.308
        20  -9.4284    118.4802    221.4730   5.4961900631e+01   1.2740244682e+01    0.1289598    0.1067398  27.84 8.943143e-05    1.018    0.018
        21 -16.4672     25.1359    180.5231   7.4747044130e+01   3.3107163144e+01      9.01908     2.719079  82.21   0.02621815    5.336    0.813
        22 -10.3825    211.0000    198.7477   3.2835308332e+01   4.0179571355e+00    0.1891607    0.1440058 -17.70 0.0004833715    1.125    0.111
        23 -12.5226     96.3475    197.2324   5.7213132067e+01   2.0530636139e+01     0.486752    0.2644379  42.38  0.002311093    1.650    0.394
        24 -12.4028    112.7828    196.1140   5.2972620697e+01   1.8387343010e+01    0.5592632    0.2940082   6.80  0.001936744    3.879    0.742
        25 -11.5533     69.0983    193.6206   6.3853449004e+01   2.5026687995e+01    0.5889847    0.3124889  75.48  0.002457806    2.684    0.627
        26 -12.4804    102.6978    194.8164   5.5295850799e+01   2.0129243183e+01    0.5974287    0.2249459  25.50  0.002141244    2.959    0.662
        27 -10.4173    193.2121    194.6160   3.5317934668e+01   6.9434658986e+00    0.2257677    0.1532383 -69.82 0.0009596311    4.324    0.769
        28 -10.3355     73.1345    190.2445   6.2409700787e+01   2.5262966887e+01    0.2133197    0.1885886 -45.87 0.0006138583    1.314    0.239
        29 -12.1741    107.9475    188.9758   5.3156607052e+01   2.0586751402e+01    0.3568225    0.2282366 -44.39  0.001773682    1.753    0.430
        30  -9.6191    208.5141    188.9998   3.1609647072e+01   5.7399755060e+00    0.1691676   0.08752033 -17.25 0.0004314275    2.345    0.574
        31 -15.3759      3.7444    240.9627   8.2360578555e+01   2.1989567441e+01     1.418883    0.6853924 -65.41   0.00728332    2.612    0.617
        32  -9.9780     94.4662    183.5045   5.5866992458e+01   2.3788302314e+01    0.2472343    0.1725251  64.10 0.0006546018    1.673    0.402
        33 -10.4449    100.9828    183.4900   5.4150904801e+01   2.2818749307e+01     0.212579    0.1275945  33.73 -0.0001498718    1.497    0.332
        34 -11.1910    116.3370    181.7597   4.9947928361e+01   2.0830645278e+01     0.245831    0.1955089  28.08 0.0008961454    1.163    0.140
        35 -10.0896     82.5814    180.2563   5.8627825133e+01   2.6257300208e+01    0.2888922    0.1882751  18.85  0.001187239    1.688    0.408
        36 -10.7471    172.1770    174.1806   3.5807176122e+01   1.3394547566e+01    0.2714763    0.2194575  13.48  0.001601419    1.172    0.147
        37 -12.1535     52.2235    138.0072   6.2015538920e+01   4.1107625361e+01    0.5259801    0.4402962  31.74   0.00156781    1.214    0.176
        38 -13.8591     75.8023    133.6040   5.3309300351e+01   3.8887750142e+01     2.702099     1.355003  78.85  0.002851534    6.029    0.834
        39 -12.5367     66.7143    125.9746   5.4958931768e+01   4.2313016663e+01    0.7005822    0.6135454 -58.90  0.002416424    1.153    0.132
        40 -12.5180     71.5051    167.9564   6.0123621264e+01   3.0766484357e+01     1.014861    0.4909286  87.09  0.002673358    3.843    0.740
        41 -10.4716    164.7105    246.9735   4.8493597826e+01   2.8943752730e+00    0.1535959    0.1245012   4.46  0.000421703    1.114    0.102
        42 -12.4839     61.2261    157.4233   6.1804310478e+01   3.4821565385e+01    0.4433339       0.4065  36.70 0.0008099479    1.103    0.093
        43 -10.9297    179.4723    165.1298   3.2627656592e+01   1.3831961886e+01    0.4743823    0.3204392 -69.51  0.002116616    2.926    0.658
        44  -9.6083    110.5151    167.0700   4.9041316867e+01   2.4982607755e+01    0.2040231    0.1468348 -59.05  0.000388736    1.510    0.338
        45 -10.0643    101.7099    167.0319   5.1411838164e+01   2.6424037244e+01    0.1967547     0.188084 -60.23 0.0002726843    1.117    0.104
        46  -9.5399     96.8659    162.8568   5.2064870652e+01   2.8180319525e+01    0.1972418    0.1631088  62.98 0.0002545398    1.275    0.215
        47 -11.0179    238.6418    161.8427   2.1931775769e+01   5.6764750738e+00    0.2196456    0.1376075   6.82   0.00128323    1.905    0.475
        48 -15.5776     15.5628    242.7870   7.9906589856e+01   2.0605214690e+01     1.476326    0.9103451  32.56  0.008292878    1.330    0.248
        49 -11.5126     78.1931    146.1330   5.4786793003e+01   3.5271705918e+01    0.3599144    0.3281373   8.41 0.0006079447    1.220    0.181
        50  -9.2689    123.1812    150.8152   4.2674534741e+01   2.6465570672e+01    0.1915804    0.1694545  -2.91 0.0003217327    1.227    0.185
        51 -10.8196    134.0143    146.1300   3.8935732763e+01   2.5518857933e+01    0.9348853     0.212918 -54.52  0.001871849    8.645    0.884
        52  -9.4759     86.4024    149.5398   5.2847704848e+01   3.3110791211e+01    0.1504545    0.1407726  64.10 0.0001759711    1.038    0.037
        53 -11.5781     37.1611    142.6822   6.7762510937e+01   4.1618393791e+01     0.638455     0.320624  82.13  0.002145802    2.375    0.579
        54  -9.9670     40.5819    140.5014   6.6339484935e+01   4.1830748810e+01    0.1921983    0.1450518   7.97  9.83982e-05    1.577    0.366
        55 -11.1540    109.0013    145.2068   4.5412972338e+01   3.0311699390e+01    0.3155444    0.2847879  33.79 0.0006599718    1.084    0.078
        56  -9.8408    112.5901    143.8227   4.4127602180e+01   2.9990378660e+01    0.2272574    0.1997827  68.61 0.0002807286    1.232    0.188
        57 -12.0863     81.8622    142.2254   5.2947376894e+01   3.5690763632e+01    0.4862787    0.3565779 -77.84  0.001018637    1.504    0.335
        58 -11.0907     96.1907    134.4088   4.6974354501e+01   3.5229752783e+01    0.4841664    0.3566777 -12.23  0.002112151    1.919    0.479
        59 -12.3506     55.7649    161.4286   6.3996933561e+01   3.4506734333e+01    0.4638079    0.3309116 -25.26  0.002209569    1.908    0.476
        60 -12.5189     44.2917    133.6063   6.4144425417e+01   4.3270637333e+01    0.5404167    0.4178216 -65.02  0.001022495    1.270    0.213
        61  -9.7359     36.9832    134.6758   6.6867954923e+01   4.3801352233e+01    0.2817296    0.1630417  11.58  0.001199927    2.129    0.530
        62 -10.2812     36.9962    131.4949   6.6460470656e+01   4.4666310786e+01    0.2870657    0.1543231  73.15 0.0008613786    2.206    0.547
        63 -12.2139     82.9943    132.1042   5.0662380003e+01   3.8100955418e+01    0.3059172    0.2871287 -61.60 0.0004886779    1.088    0.081
        64 -10.9375    105.5639    130.5702   4.3332160246e+01   3.4453658236e+01    0.3856118    0.3197135 -53.75  0.001020661    1.224    0.183
        65 -10.2217    107.7476    126.4123   4.1752792849e+01   3.5041847126e+01    0.2864849    0.2184132  12.82  0.001028532    1.655    0.396
        66 -11.4011     94.0216    121.7541   4.4892683072e+01   3.8783823338e+01    0.3428698    0.2887294   0.81 0.0006539883    1.448    0.309
        67 -11.4696     36.4165    124.7602   6.5775107852e+01   4.6572016424e+01    0.2828821    0.2634759   8.17 0.0002284807    1.206    0.171
        68 -13.9869     58.1693    144.9749   6.1040834323e+01   3.8473309757e+01     1.026651    0.7362663  -7.36  0.001297475    1.922    0.480
        69 -11.9152     27.9545    118.1997   6.8119501247e+01   4.9225136342e+01    0.4854479    0.2732181  34.88  0.002196068    1.741    0.426
        70  -9.9733     65.2450    118.0872   5.3932806615e+01   4.4641488694e+01     0.213902    0.1930451 -80.96 0.0003562531    1.091    0.083
        71 -10.8683     46.7559    115.2168   6.0342637034e+01   4.7995182429e+01    0.2489959    0.1893142  43.83 0.0003517499    1.307    0.235
        72 -10.3971    243.4985    114.4358   1.2085705927e+01   1.1725573062e+01    0.1211642   0.09589899 -34.00 7.572828e-05    1.030    0.029
        73 -11.3201     17.1164    111.0172   7.1549352725e+01   5.2115640620e+01     0.490867    0.1727329  55.21  0.001618547    3.475    0.712
        74 -12.2125     33.0569    111.6290   6.5172665112e+01   5.0539486345e+01     0.621316    0.2789401  55.82  0.001383727    2.697    0.629
        75  -9.8674     20.0297    108.5154   7.0059941109e+01   5.2580696559e+01    0.2052638     0.140744  23.07  0.000680888    1.553    0.356
        76 -15.3382     37.7980    173.5647   7.0619344615e+01   3.3539125590e+01     3.235124     1.429943  77.27   0.01241023    2.851    0.649
        77 -11.5356     24.1496    104.8584   6.7850047883e+01   5.3247634467e+01    0.3203146    0.3072854 -39.45 0.0007806462    1.124    0.110
        78 -10.3084    105.0229    116.0412   4.0104895047e+01   3.8073588838e+01    0.2298591    0.2240651  73.16 0.0003030389    1.008    0.008
        79 -11.1248     14.9489    100.2924   7.1188406952e+01   5.5220149471e+01    0.3392593    0.1765711  42.58  0.001147443    1.960    0.490
        80  -9.9601     38.4788     97.9192   6.0518683287e+01   5.3717076248e+01    0.2180752     0.140876 -68.59 0.0004282241    1.477    0.323
        81  -9.6831    101.7850     88.3711   3.3548904522e+01   4.5263564635e+01    0.2139433    0.1492558  36.62 0.0003202481    1.529    0.346
        82 -11.3459     53.8674     87.5445   5.1417589156e+01   5.4465313363e+01    0.3183486    0.2076371 -83.49   0.00133337    1.960    0.490
        83  -9.5239     90.2230     87.4437   3.7108449288e+01   4.7935973644e+01     0.223585    0.1468869  54.86  0.000935232    1.642    0.391
        84 -11.8837     30.1189     85.0228   6.1726916046e+01   5.8107388909e+01     0.337659    0.2444664  48.81            0    1.474    0.322
        85  -9.1328    140.4243     86.4891   2.2461123963e+01   3.6829539313e+01    0.1540919    0.1442623 -67.56 0.0001249941    1.038    0.036
        86  -9.6469     38.8012     86.3972   5.7926623864e+01   5.6787289872e+01    0.1937935    0.1443307   6.10 0.0003484827    1.556    0.357
        87 -10.6206     46.9362     79.6230   5.2424902520e+01   5.7517249463e+01    0.2737557    0.1970149 -48.12 0.0008499589    1.357    0.263
        88  -9.3102    137.4763     73.5314   1.9260977531e+01   4.0006442109e+01    0.1540868    0.1441101 -75.71 0.0008091988    1.029    0.028
        89  -9.9567     51.1848     70.2120   4.7630813581e+01   5.9264694470e+01    0.2029396    0.1727739  66.92 0.0004271648    1.330    0.248
        90 -12.4470    204.0929     61.3456   4.8972498234e+00   2.6623053743e+01    0.3914303    0.3447624 -85.12  0.001129057    1.182    0.154
        91 -16.5409      5.7875    216.5505   8.1286390821e+01   2.6674969308e+01     3.344467     1.314247  21.98   0.01596856    2.485    0.598
        92  -9.9940    185.3008    244.6683   4.4329728035e+01   8.4485741026e-01   0.09761113   0.08169843  37.00  0.000696003    1.650    0.394
        93  -9.4141     19.3187     65.6211   6.3077838376e+01   6.4208526937e+01    0.1493068    0.0999612  63.24 0.0001022103    1.818    0.450
        94 -11.6938     13.4579     60.0030   6.5193777210e+01   6.6088633048e+01    0.3452621    0.2318414 -51.48 0.0006582315    1.334    0.250
        95 -12.6839      7.7475     59.5751   6.8533575210e+01   6.6543365941e+01    0.4945539    0.3562934  63.46  0.001553469    1.599    0.375
        96 -11.5182      2.1911     57.1087   7.1462607219e+01   6.7432228163e+01    0.2865131    0.2485725 -75.02 0.0009126267    1.099    0.090
        97 -10.2903     77.9894     54.5017   3.0122020301e+01   5.7762374334e+01    0.3032552    0.1901177 -79.73  0.001034771    3.383    0.704
        98 -11.3597     16.5255     50.7277   6.0912119822e+01   6.8190428922e+01    0.3127251    0.2004443  40.68  0.001161483    1.745    0.427
        99  -9.9349     41.1166     61.7387   4.9934701913e+01   6.2803125906e+01    0.2190947    0.1879735  55.75  0.001162319    1.297    0.229
       100  -9.4027     46.2833     50.6294   4.3095851870e+01   6.4620577808e+01    0.1438337    0.1149078  82.20 0.0007016227    1.701    0.412
       101 -11.2242      4.0786     40.8148   6.6737060576e+01   7.1408611730e+01    0.3536311    0.2031799  -6.19  0.001781487    1.874    0.466
       102 -11.0821     89.5447     65.0839   2.9913275765e+01   5.3056015799e+01     0.640371    0.4004485 -89.22  0.002118551    3.487    0.713
       103  -9.9990     31.5128     32.5101   4.3858756511e+01   7.0703148350e+01    0.1356495    0.1249811  -9.57 2.981284e-06    1.013    0.013
       104 -11.7207      4.1187     26.9563   6.2456826485e+01   7.4653043158e+01    0.3088884    0.2365374   8.18 0.0006674758    1.335    0.251
       105 -11.2749      2.4331     22.6816   6.2350585790e+01   7.5705624715e+01    0.2780928    0.1679452 -63.47  0.001055282    1.574    0.365
       106 -10.6811     22.0000     26.9777   4.7869461257e+01   7.3071589693e+01    0.2176489   0.07180877 -54.18 0.0008074888    2.978    0.664
       107 -10.7655    250.4449     24.2192   3.5266080382e+02   2.2267322036e+01    0.2894504   0.07743514 -33.95  0.001304604    2.641    0.621
       108 -10.2126     60.7234     21.2731   2.1501857044e+01   6.7306803943e+01    0.2272545     0.209499  83.69 0.0006439186    1.253    0.202
       109 -10.3362    147.0013    242.6686   5.1456514029e+01   5.6197589130e+00     0.171159    0.1230577  22.77  0.000534429    1.093    0.085
