#   1 NUMBER                 Running object number                                     
#   2 MAG_AUTO               Kron-like elliptical aperture magnitude                    [mag]
#   3 X_IMAGE                Object position along x                                    [pixel]
#   4 Y_IMAGE                Object position along y                                    [pixel]
#   5 X_WORLD                Barycenter position along world x axis                     [deg]
#   6 Y_WORLD                Barycenter position along world y axis                     [deg]
#   7 A_WORLD                Profile RMS along major axis (world units)                 [deg]
#   8 B_WORLD                Profile RMS along minor axis (world units)                 [deg]
#   9 THETA_WORLD            Position angle (CCW/world-x)                               [deg]
#  10 FWHM_WORLD             FWHM assuming a gaussian core                              [deg]
#  11 ELONGATION             A_IMAGE/B_IMAGE                                           
#  12 ELLIPTICITY            1 - B_IMAGE/A_IMAGE                                       
         1 -14.7531    166.7049     40.1676   7.6640416147e+01   3.8680857440e+01      1.39104     1.057035   3.24  0.004049997    1.418    0.295
         2 -14.5495    182.9670      7.6286   6.2828078653e+01   3.8096596013e+01     1.509859     0.993538  56.27   0.00606672    1.452    0.311
         3 -10.0422    150.6019    247.5005   1.2359677577e+02   9.1443239843e+00    0.1025999   0.07593678  40.24 0.0001369645    1.030    0.029
         4 -19.9768     67.5041    171.6406   1.3093152916e+02   3.2026079313e+01     14.84297     5.772058 -69.77   0.07303337    2.646    0.622
         5 -10.9287    169.7737    195.3861   1.1384627290e+02   1.2883045099e+01    0.1710018   0.09585206  35.00 0.0009391484    1.546    0.353
         6 -10.5931     22.9862    182.7071   1.4051568964e+02   3.4623468251e+01    0.1314471    0.1157723  76.07 0.0004519857    1.266    0.210
         7 -10.5825     32.4482    188.5109   1.3911176769e+02   3.2697684029e+01    0.1635157      0.13474  43.93  0.000540357    1.378    0.274
         8 -12.9663     28.5936    184.0057   1.3955146669e+02   3.3873787335e+01    0.3768119    0.2200223  62.54 0.0009601892    1.384    0.277
         9 -10.1015    131.8140    236.3759   1.2555244862e+02   1.3088017687e+01    0.1231881   0.07798617  39.74 0.0002455363    1.236    0.191
        10 -11.0116    153.7256    184.8903   1.1527912040e+02   1.7055978788e+01    0.2104431    0.1750632 -80.73   0.00134846    1.603    0.376
        11 -12.7929    207.4265    178.3946   1.0421653664e+02   8.7939241082e+00     0.525327    0.3463639  10.34  0.002736647    1.636    0.389
        12 -10.6677    219.2975    177.3431   1.0194878649e+02   6.8876094275e+00    0.1310922   0.08235315  12.46  0.000222258    1.669    0.401
        13 -10.9816    170.4948    185.0688   1.1211797342e+02   1.4223416117e+01    0.2247601    0.1812873  59.34 0.0007313897    1.442    0.307
        14 -13.0781    195.7195    170.0211   1.0481054447e+02   1.1962480945e+01    0.4985861    0.3972681 -38.21  0.001800459    1.487    0.327
        15 -11.4418      8.2063    175.7262   1.4289236729e+02   3.7150652079e+01    0.1598763    0.1176612  56.37 0.0003896338    1.224    0.183
        16 -11.7940    203.4424    171.8653   1.0374037039e+02   1.0339442184e+01     0.369823    0.2785583  -8.90  0.001943745    1.371    0.271
        17 -12.9150    137.2635    171.1005   1.1641749083e+02   2.2018908341e+01    0.5899239    0.3784431  57.81  0.003202971    1.693    0.409
        18 -11.6831    125.7006    171.9525   1.1891485360e+02   2.3755441639e+01    0.2593707    0.2113643 -76.86  0.001082744    1.410    0.291
        19 -11.7222    193.8025    164.9582   1.0422046109e+02   1.3018049680e+01    0.2941433     0.263879  45.56  0.001231874    1.267    0.211
        20 -12.3399    142.5230    167.3747   1.1474631619e+02   2.1769087913e+01    0.3038944    0.2389905  86.09  0.001372425    1.682    0.405
        21 -10.5303    201.4521    166.2125   1.0304308791e+02   1.1457439902e+01     0.164388    0.1224811 -42.61 0.0007076015    1.663    0.399
        22 -10.5620    201.2097    162.2050   1.0231809617e+02   1.2053974223e+01    0.3099556     0.198578  19.38  0.001325346    1.655    0.396
        23 -10.3243    135.1749    234.6293   1.2481910968e+02   1.2847784523e+01   0.08947143   0.06945918  75.05 0.0004317503    1.558    0.358
        24 -10.5580    222.5770    161.7923   9.8416994166e+01   8.2406787942e+00    0.2082975    0.1502559 -31.64 0.0008335122    1.533    0.348
        25 -11.9753    114.5286    161.1781   1.1965331818e+02   2.7472852467e+01    0.4377859    0.2289412  59.36   0.00161646    2.382    0.580
        26 -10.4732    219.1482    224.1325   1.0960801375e+02   1.7707151625e+00     0.134856    0.1134721  30.60 0.0004246514    1.308    0.235
        27 -14.8208    132.3845    144.3839   1.1290485454e+02   2.7648488522e+01     1.243203    0.6527773 -58.01  0.004838287    2.303    0.566
        28 -11.9188    161.8824    153.7802   1.0835714691e+02   2.0626709076e+01    0.3493285    0.2738092  80.70  0.001878959    1.847    0.459
        29 -10.7320    110.2716    222.9588   1.2790423892e+02   1.7860667967e+01    0.1317094    0.1137522  60.70 0.0003949619    1.139    0.122
        30 -10.8044    174.7878    148.9184   1.0477759023e+02   1.9000657403e+01    0.2335045    0.1943555 -62.05 0.0008012893    1.575    0.365
        31 -13.7443    143.9395    143.9502   1.1027205002e+02   2.5651664451e+01    0.8366497    0.3932101 -56.82  0.003352571    2.910    0.656
        32 -11.7647    116.2075    212.0364   1.2576582041e+02   1.8654203077e+01    0.2081468    0.1532755  85.01   0.00119909    1.622    0.383
        33 -10.0534    111.5727    213.4945   1.2674688189e+02   1.9080340784e+01    0.1294261   0.09734519  83.30 0.0001194001    1.507    0.337
        34 -13.3648    135.5641    127.2916   1.0877558142e+02   3.0336434195e+01    0.5514555    0.2554963 -50.80  0.002270243    2.334    0.572
        35 -12.5122    135.2542    121.0532   1.0748874361e+02   3.1607712339e+01    0.4393465    0.2116689 -51.64  0.001799135    2.279    0.561
        36 -10.1738    171.7838    137.8059   1.0308146683e+02   2.1413968347e+01    0.1807693    0.1668376  76.20 0.0005652269    1.324    0.245
        37 -11.0250    109.5420    210.4758   1.2680288818e+02   1.9819902833e+01    0.1845128     0.119145  46.82 7.812939e-05    1.239    0.193
        38 -11.6916    160.3109    127.9205   1.0334622213e+02   2.5408504503e+01    0.3332847    0.2632083 -49.97  0.001564949    1.408    0.290
        39  -9.5901    107.6252    206.8804   1.2677945546e+02   2.0642194283e+01    0.2001694    0.1467446  86.75 0.0004602301    1.561    0.359
        40 -11.8702    163.8440    203.1802   1.1605271052e+02   1.2764921275e+01    0.2154585    0.1705661  52.85  0.000321503    1.294    0.227
        41 -11.3922    157.6913    202.0183   1.1700879406e+02   1.3900001951e+01    0.4365925     0.275842  69.13  0.002279565    2.671    0.626
        42 -12.4731    134.8402    112.7050   1.0567003059e+02   3.3325310346e+01    0.4565083    0.1783157 -45.72  0.001689245    2.587    0.613
        43 -10.7868    154.6740    196.2210   1.1675652400e+02   1.5208504356e+01    0.3234063    0.2158768  77.94  0.001680683    2.737    0.635
        44 -10.3701    139.3182    200.9636   1.2024834635e+02   1.6917365551e+01    0.1573789    0.1318961  88.78  0.000497791    1.470    0.320
        45 -10.6684    167.7149    112.7117   9.8152304951e+01   2.6578165044e+01    0.2893824    0.1876932  70.79  0.001173903    2.527    0.604
        46 -13.4590    113.9087    110.1666   1.1029268278e+02   3.7750042621e+01    0.4784937    0.3081521  61.66  0.002208161    1.971    0.493
        47  99.0000     13.5669    242.2901   1.4457779749e+02   2.5807089919e+01    0.2520876    0.1383777 -78.39  0.002116957    1.888    0.470
        48 -10.7028    205.4815    110.1737   8.9963872092e+01   1.8833520167e+01    0.2591852    0.1970179  40.35 0.0006270148    1.287    0.223
        49 -11.4061    119.1882    243.6035   1.2829196562e+02   1.3859039328e+01    0.1351952    0.1010621  55.86 0.0005380046    1.154    0.133
        50 -12.7067    180.5311    193.4334   1.1158523217e+02   1.1379917974e+01    0.3083647    0.2488064 -76.62  0.001909442    2.036    0.509
        51 -13.2927    174.8771    193.2472   1.1258692934e+02   1.2339729270e+01    0.4752289    0.3482374 -66.01  0.002056541    2.197    0.545
        52 -13.3732    175.4250    186.1393   1.1136762272e+02   1.3237576425e+01    0.5075628    0.3538222 -64.17  0.002580357    2.355    0.575
        53 -12.6557    166.9895    188.0066   1.1323846472e+02   1.4387224997e+01    0.3530745    0.3377245  39.33  0.001419801    1.181    0.153
        54 -11.8180    163.4714    188.4636   1.1396965668e+02   1.4906061723e+01    0.2396475    0.2343627  70.42   0.00115895    1.236    0.191
        55 -11.9977    133.6387    249.5408   1.2650413359e+02   1.1205313232e+01    0.1659781    0.1379206 -48.80    0.0014236    1.671    0.402
        56 -14.4112    154.7280     55.2260   8.4259843992e+01   3.9473464157e+01     1.317158     1.019798  45.26  0.002997708    1.291    0.225
        57 -12.1628    125.0142    247.2842   1.2767825057e+02   1.2626403870e+01    0.2082417    0.1311018 -57.69  0.001561317    2.134    0.531
        58 -12.8698    170.5875     32.5539   7.3291468587e+01   3.8669074731e+01    0.4449733    0.3704604   6.00 0.0009186162    1.222    0.182
        59 -10.6864     13.5441     59.9458   1.3062522545e+02   6.1254185015e+01    0.1659093    0.1403177 -64.73 0.0004280444    1.093    0.085
        60 -11.0763    138.2156     31.5979   7.9425324203e+01   4.7054525455e+01    0.3442145    0.2540035  75.94  0.001604009    1.721    0.419
