#   1 NUMBER                 Running object number                                     
#   2 MAG_AUTO               Kron-like elliptical aperture magnitude                    [mag]
#   3 X_IMAGE                Object position along x                                    [pixel]
#   4 Y_IMAGE                Object position along y                                    [pixel]
#   5 X_WORLD                Barycenter position along world x axis                     [deg]
#   6 Y_WORLD                Barycenter position along world y axis                     [deg]
#   7 A_WORLD                Profile RMS along major axis (world units)                 [deg]
#   8 B_WORLD                Profile RMS along minor axis (world units)                 [deg]
#   9 THETA_WORLD            Position angle (CCW/world-x)                               [deg]
#  10 FWHM_WORLD             FWHM assuming a gaussian core                              [deg]
#  11 ELONGATION             A_IMAGE/B_IMAGE                                           
#  12 ELLIPTICITY            1 - B_IMAGE/A_IMAGE                                       
         1 -14.4921    186.1063     94.3730   8.2787876571e+01   2.5059265160e+01     6.063809     2.310541 -51.29    0.0148592    3.144    0.682
         2 -13.3230    172.2764     65.5503   7.7905616501e+01   3.3455897806e+01     1.770914    0.8647245 -54.05  0.001589229    2.514    0.602
         3 -15.7262    227.2934     47.8878   6.5280500017e+01   2.3096893168e+01     7.819853     2.106461 -48.65   0.02693464    3.609    0.723
         4 -15.6311    241.3550     15.6453   5.7172343237e+01   2.4248540189e+01     2.974193    0.9277651  64.17   0.01311895    2.877    0.652
         5 -14.2007    145.7109     41.3026   7.6246650501e+01   4.3406045291e+01     3.945057     1.599744  55.02  0.002720254    2.164    0.538
         6 -13.5300    247.8083     44.4624   6.2304355306e+01   1.9105485356e+01    0.9440359    0.4678899 -46.74  0.004819002    1.756    0.431
         7 -13.7068    249.1933      2.6100   5.4092025051e+01   2.4109497246e+01    0.5811944    0.3779453  77.75  0.001280768    1.374    0.272
         8 -15.0331    208.8960     63.0238   7.1170763746e+01   2.5056953932e+01     11.17626     3.288814 -52.40   0.03113054    5.017    0.801
         9 -14.3810    248.5771     24.9588   5.8364282651e+01   2.1567457909e+01    0.8503776    0.5345066 -36.45  0.004108003    1.760    0.432
        10 -11.1869    119.3248      9.7303   7.1805881938e+01   5.2892880284e+01    0.6022398    0.3214593  39.85  0.002907855    1.784    0.440
        11 -10.9276    151.0661      7.6111   6.5569837660e+01   4.5865885132e+01    0.6079689    0.1800465 -28.20  0.002359382    3.689    0.729
        12  -9.5514    141.9007     10.7068   6.7927176900e+01   4.7712175132e+01    0.2542697     0.216406 -62.66 0.0004982807    1.337    0.252
        13  -9.1970    139.1906      6.9215   6.7269763116e+01   4.8675030969e+01    0.2116366    0.1703878 -30.06 0.0005496621    1.457    0.314
        14  -8.9841    199.9920      5.9642   5.9007041973e+01   3.4562865959e+01    0.3006398    0.1529628 -31.91 0.0009354774    2.243    0.554
        15 -10.0726    172.6983      3.4516   6.1491924636e+01   4.1173380294e+01    0.4653911    0.2115345 -63.68  0.001949344    3.146    0.682
        16 -10.5401    183.0302      3.1859   6.0200127640e+01   3.8778646238e+01    0.4537549    0.2783633  82.29  0.001941576    1.440    0.306
        17  -9.7959    215.6242    168.3158   9.4256957839e+01   3.9708510796e+00    0.3178078    0.2394718  67.05 0.0009347296    1.766    0.434
        18 -10.1421    211.8397    166.3123   9.4567040529e+01   5.0972586951e+00     0.312078    0.2319081  63.12 0.0009612843    1.691    0.409
        19  -9.8959    230.8924    167.3357   9.1182103162e+01   1.2651058327e+00    0.2643863    0.1829965 -47.80  0.001338781    1.457    0.314
        20 -10.8192    249.7069    158.1010   8.5974885594e+01  -4.5926110861e-01    0.3954583    0.2709192 -25.90  0.001509174    1.459    0.315
        21  -9.1973     72.3187    249.3549   1.3733147834e+02   1.3340612523e+01    0.1063088     0.096939 -30.88 0.0007046125    1.750    0.429
        22 -10.9397    178.8391    144.2364   9.6479626500e+01   1.6547361556e+01    0.5022252    0.3620524 -84.62  0.002118684    2.020    0.505
        23 -10.2022    174.4953    144.4892   9.7492776224e+01   1.7446563806e+01    0.3177249    0.2627206 -64.98  0.001136267    1.302    0.232
        24 -10.6295    157.6745    140.9037   1.0049605412e+02   2.1932567979e+01    0.4310993    0.2746257 -66.68  0.001702433    2.067    0.516
        25 -10.1309    192.1183    144.0427   9.3612281130e+01   1.3687606263e+01    0.3000559    0.2254601  62.06 0.0006662983    1.500    0.333
        26  -8.0546    106.7200    142.5879   1.1371500270e+02   3.1957964677e+01    0.1591074    0.1160371 -25.95 0.0006973852    1.799    0.444
        27 -11.3847     68.3995    144.7170   1.2445110518e+02   3.7656856147e+01    0.6832678    0.4290723  67.07  0.002288139    2.065    0.516
        28 -10.6523    168.1517    138.6331   9.7545100969e+01   2.0122515475e+01    0.4221835    0.2920553  75.98  0.001525868    2.039    0.510
        29 -10.8685    211.1573    136.6945   8.8159857292e+01   1.1083314486e+01    0.4079884    0.3177728   1.81  0.001759825    1.731    0.422
        30 -10.9429    188.2469    137.8472   9.2984479007e+01   1.5828317376e+01    0.3417133    0.2671901  50.61  0.001432586    1.317    0.241
        31 -10.5914    173.5630    137.0034   9.5947778949e+01   1.9272075172e+01    0.4028387    0.2537236 -59.02   0.00164117    1.829    0.453
        32  -9.4541    145.3316    135.6637   1.0221832429e+02   2.5803511129e+01    0.2886949    0.1907479 -60.37 0.0007779772    1.683    0.406
        33 -11.5245    159.9115    128.8002   9.7074393769e+01   2.4116833228e+01    0.5368053    0.4403757  18.76  0.002535016    1.487    0.328
        34 -10.7212    135.6624    126.2715   1.0235437593e+02   3.0014513303e+01     1.088938    0.3394912 -53.09  0.002972585    3.963    0.748
        35  -9.7382    134.5319    104.4948   9.7036227834e+01   3.5034004360e+01    0.3830033    0.1503498 -41.60  0.001292285    2.593    0.614
        36 -10.0590    134.6618    113.3316   9.9335794633e+01   3.3109536515e+01    0.3233974    0.1641911 -47.70  0.001194468    1.963    0.490
        37 -10.0830    135.0000    109.4860   9.8243740042e+01   3.3869017157e+01    0.4564757    0.2108067 -48.98  0.001664535    2.215    0.549
        38  -9.6957    172.2702    125.7272   9.3519496217e+01   2.1981489770e+01    0.2902931    0.1902956 -47.35 0.0007859407    1.503    0.335
        39  -8.9045    109.0036    245.9509   1.2995441513e+02   8.3731599456e+00    0.1564513    0.1318962  63.70 0.0007559118    1.034    0.033
        40  -9.1949    151.4892    122.5370   9.7515092059e+01   2.7378748963e+01    0.1563869    0.1535683 -77.83 0.0001929973    1.008    0.008
        41 -10.4690    140.4841    120.6944   9.9747998998e+01   3.0221901557e+01    0.5310569     0.328221  80.96  0.001752221    3.331    0.700
        42 -11.2455    167.5748    114.2247   9.1696328072e+01   2.5483847451e+01    0.5750644    0.4658173 -29.86  0.001243246    1.350    0.259
        43 -11.9539    247.1761    236.5466   1.0154692857e+02  -1.2642964843e+01    0.2344917    0.2051061  -6.25 0.0003412795    1.192    0.161
        44 -10.1095    175.6069    116.0087   9.0390176466e+01   2.3252305916e+01    0.3802571    0.2700309 -87.53  0.001268922    1.991    0.498
        45  -9.7842    157.5751    113.7020   9.3836833160e+01   2.7900243180e+01    0.3581437    0.2365267  87.64  0.001329655    2.562    0.610
        46  -9.7525    126.0492    110.0616   1.0072024784e+02   3.5663633673e+01    0.2369858    0.2270996 -64.13  0.000452495    1.048    0.046
        47  -9.9410    223.1398    101.8411   7.8052322972e+01   1.5150952030e+01    0.2720947    0.1863533 -44.60 0.0005397495    1.348    0.258
        48  -9.9228    159.9816    214.9350   1.1491230704e+02   5.4995819749e+00    0.2033272    0.2000381 -51.82 0.0003341567    1.106    0.096
        49  -9.1681    141.8216    103.9184   9.5050064118e+01   3.3536976563e+01    0.2378968    0.2135998   1.00 0.0008565391    1.273    0.215
        50  -9.9123    123.1773    102.2062   9.9386163072e+01   3.7955009992e+01    0.4366193    0.2335463  24.96  0.001448543    3.271    0.694
        51 -10.0629    147.6366     99.2701   9.2385383155e+01   3.3171283232e+01    0.3216173    0.2893339 -79.55 0.0009081498    1.189    0.159
        52 -10.7589     34.9628    213.7730   1.4119857178e+02   2.5643160930e+01    0.3776224     0.131033  53.26   0.00125115    2.734    0.634
        53 -13.4295     10.6074    194.4280   1.4436436203e+02   3.2481315807e+01    0.9332065    0.6713457 -85.48  0.003998114    1.080    0.074
        54  -9.5627    134.1626     96.0418   9.4828423559e+01   3.6862481201e+01    0.2506602    0.2251446  68.85 0.0003928372    1.179    0.152
        55  -9.5052    210.9238     95.0484   7.8478040341e+01   1.9130113365e+01    0.2173149    0.1972142 -72.12 0.0003071819    1.030    0.029
        56 -10.8018    158.0090     92.1091   8.8045707313e+01   3.2172005531e+01    0.5134626    0.4299059   3.28     0.002519    1.511    0.338
        57 -10.1257    191.5045    192.3764   1.0406642616e+02   3.9638225816e+00    0.5954465     0.345759 -72.22   0.00185373    4.799    0.792
        58 -10.3811     70.5226    160.4180   1.2661489086e+02   3.3521669927e+01     0.458965    0.2877466  52.88  0.002234932    1.696    0.410
        59 -10.5514    211.0993     85.8842   7.6270862860e+01   2.0729770064e+01    0.3729403    0.3116441 -72.11  0.001273819    1.159    0.137
        60  -8.5110    108.1189    157.7985   1.1650181634e+02   2.8032908229e+01    0.1889122    0.1729042 -27.72 0.0002929232    1.260    0.206
        61 -10.4319    141.4037     88.8819   9.1034513856e+01   3.6651517477e+01    0.3419815    0.3082769  81.18    0.0012292    1.193    0.161
        62 -11.7917    156.1527     82.2686   8.5771308381e+01   3.4457727467e+01    0.4254449    0.3902492  71.89 0.0005710987    1.080    0.074
        63  -9.6205    151.5578     81.7647   8.6658969562e+01   3.5634788775e+01    0.3394598    0.2527143 -51.03  0.001104806    1.403    0.287
        64 -11.3551    202.3527     80.0636   7.6303019530e+01   2.3786414275e+01     1.395172    0.4249526 -51.96   0.00323148    4.847    0.794
        65 -12.1350    191.1994     76.9249   7.7428709674e+01   2.6981924008e+01     1.834494    0.5413978 -42.64  0.005948319    3.228    0.690
        66 -11.1272    189.9977     70.2092   7.5937468310e+01   2.8402298107e+01    0.3216419    0.2755239  22.89    0.0017101    1.502    0.334
        67 -11.6031    194.7230     67.2080   7.4389325825e+01   2.7757086963e+01    0.5529281    0.3985713  43.19  0.001527515    1.606    0.377
        68  -8.8559    140.6153     78.2804   8.8217747219e+01   3.8813414126e+01    0.1537791    0.1173514  89.94 0.0006200849    1.728    0.421
        69 -10.9356    151.4029     70.6767   8.3570746710e+01   3.7625838137e+01    0.5457396    0.4020217 -48.44  0.002700051    1.423    0.297
        70  -9.3062    146.4941     72.5213   8.5193150000e+01   3.8466477804e+01    0.2850081    0.2521513 -42.93  0.001169337    1.169    0.144
        71 -10.5983    143.9630     68.4848   8.4604657367e+01   3.9744917525e+01    0.4087009    0.3264464 -72.69  0.001671003    1.502    0.334
        72  -8.6238    110.0126     74.6480   9.5082191318e+01   4.6122438269e+01    0.1992108    0.1818725  32.03 0.0005734547    1.072    0.067
        73 -10.0909      3.8348     74.8420   1.3058798405e+02   5.9771905427e+01    0.2725596    0.1177471 -12.75  0.001264595    3.454    0.710
        74 -10.4167    191.7267    151.9677   9.5491458819e+01   1.2122143354e+01    0.5406006    0.2780952 -57.81  0.001948693    2.589    0.614
        75  -8.3238    120.9713     67.4794   8.9923319802e+01   4.5092122788e+01    0.2019002    0.1377377  49.38  0.000179576    1.430    0.301
        76  -8.7249    118.3498     64.1259   8.9578217095e+01   4.6218258225e+01    0.1970984    0.1284685 -47.20 0.0004224243    1.696    0.410
        77 -11.5574     27.4483    187.8676   1.4031351433e+02   3.2284111645e+01    0.4204969    0.1674767  47.16   0.00200332    2.440    0.590
        78 -10.8390    144.3589     59.2564   8.1821256276e+01   4.1144834611e+01    0.3469913      0.27916 -50.61 0.0007661966    1.339    0.253
        79 -10.1669    134.0000    147.4534   1.0775003441e+02   2.5473183459e+01     0.821444    0.2109503 -51.03  0.002211955    4.012    0.751
        80  -8.7366     72.8092     58.1573   1.0126084133e+02   5.5752686564e+01    0.1828685    0.1730509 -31.90 0.0005114859    1.228    0.186
        81  -8.9508    203.9707    152.5190   9.3117302807e+01   9.4285543299e+00    0.2206441    0.1486683  46.04 0.0005628354    1.545    0.353
        82  -8.8404     82.8359     51.8284   9.5864122949e+01   5.5120849932e+01    0.1727415    0.1541294 -49.28 0.0005302513    1.375    0.273
        83  -9.5023    178.6313     50.5646   7.2795720061e+01   3.4205168907e+01    0.3858154    0.2971571 -89.18  0.002054569    1.342    0.255
        84 -13.3156     43.1259    172.6185   1.3510180434e+02   3.4115112290e+01    0.8401955    0.7812327 -32.62  0.001902356    1.407    0.289
        85 -10.5325    220.7688    147.0415   8.8680689174e+01   7.0632002843e+00    0.3877413    0.2993722   3.93 0.0009695562    1.689    0.408
        86  -8.6658    153.1075     19.7960   6.8669798868e+01   4.4196972939e+01    0.1857701    0.1559457  89.00 0.0003400993    1.199    0.166
        87 -13.1045     52.6721    164.8807   1.3177229370e+02   3.4823392918e+01    0.9112023    0.7681848 -64.23  0.003220179    1.148    0.129
        88 -11.8419     23.6915    174.8026   1.3980124735e+02   3.5685777304e+01    0.4533955    0.2371684 -64.49  0.002443515    1.610    0.379
        89  -9.0728    174.0208    151.8005   9.9269074849e+01   1.5963903682e+01    0.3803241    0.1882541 -45.42  0.001060682    1.999    0.500
        90  -9.1411    200.5877    174.0162   9.8450107095e+01   5.8059226050e+00    0.4280714    0.1848334 -33.67   0.00150414    2.812    0.644
        91  -8.8301    101.0124    175.9748   1.2165056049e+02   2.4917123854e+01     0.198092    0.1826186  86.29            0    1.008    0.008
        92 -10.2732    235.2489    173.9028   9.1754358406e+01  -7.1969980268e-01    0.3351506     0.229528  54.56  0.001223593    1.813    0.448
        93  -9.1168    244.2124    172.5899   8.9893611072e+01  -2.0586140902e+00    0.1882529    0.1243618  28.14 0.0009557101    1.727    0.421
