#   1 NUMBER                 Running object number                                     
#   2 MAG_AUTO               Kron-like elliptical aperture magnitude                    [mag]
#   3 X_IMAGE                Object position along x                                    [pixel]
#   4 Y_IMAGE                Object position along y                                    [pixel]
#   5 X_WORLD                Barycenter position along world x axis                     [deg]
#   6 Y_WORLD                Barycenter position along world y axis                     [deg]
#   7 A_WORLD                Profile RMS along major axis (world units)                 [deg]
#   8 B_WORLD                Profile RMS along minor axis (world units)                 [deg]
#   9 THETA_WORLD            Position angle (CCW/world-x)                               [deg]
#  10 FWHM_WORLD             FWHM assuming a gaussian core                              [deg]
#  11 ELONGATION             A_IMAGE/B_IMAGE                                           
#  12 ELLIPTICITY            1 - B_IMAGE/A_IMAGE                                       
         1 -13.7988    244.8517    158.0215   9.1849037588e+01   1.7716257804e+00     2.634698     0.791955 -42.32  0.009126491    3.659    0.727
         2 -14.2228    202.3518     16.9537   6.3334545462e+01   3.2346042099e+01     2.518299       1.5259  28.86   0.01073079    2.508    0.601
         3 -13.4929    207.5136     10.6677   6.1155290011e+01   3.1752734377e+01     1.000036    0.6900524  29.95  0.001522884    1.999    0.500
         4 -12.1698      2.3056      5.4072   1.1526275709e+02   7.3504102018e+01    0.6318901    0.2940947 -36.70   0.00385658    1.624    0.384
         5 -11.7732      2.0224     15.2797   1.1977275478e+02   7.1913052323e+01    0.5705585    0.1213889 -52.55  0.002315951    3.702    0.730
         6 -10.6026    222.4944    244.9662   1.1162004029e+02  -6.4143372608e+00    0.2263424     0.129168  23.92  0.001067991    1.550    0.355
         7  -9.2712    205.3264    250.3038   1.1536603062e+02  -4.5158939894e+00    0.1178588   0.07452286  15.02 0.0007033381    1.645    0.392
         8  -9.8031    184.0139    250.5358   1.1913403292e+02  -1.3215683063e+00    0.1761832   0.09254848  37.60 0.0003518599    1.510    0.338
         9 -12.7816    124.4792    232.9552   1.2781423383e+02   1.0672646792e+01     1.098403    0.3884169  42.99  0.004928782    2.300    0.565
        10 -10.4590    136.2970    227.9374   1.2493187960e+02   9.6253246937e+00    0.3496725     0.189959 -43.25  0.001822088    2.354    0.575
        11 -11.9320    150.0030    248.8069   1.2500526744e+02   4.1896410715e+00    0.8065806    0.3694015  56.70  0.003668583    2.922    0.658
        12 -11.1838    143.2434    249.1823   1.2627244262e+02   5.1830929564e+00    0.4617561    0.2984334 -84.64  0.001787237    2.685    0.628
        13 -10.8998    135.7040    241.0477   1.2668163080e+02   7.5968121690e+00    0.2363934    0.2228563  72.84  0.001005885    1.201    0.167
        14 -11.8822    135.4717    236.3477   1.2615330831e+02   8.3799537131e+00    0.4022103    0.3515302 -10.15   0.00126722    1.522    0.343
        15 -10.2973    122.9910    249.9704   1.3001391690e+02   8.1593224702e+00    0.3549686    0.1965004  48.33  0.002105171    1.444    0.307
        16  -9.9058    126.8410    249.1244   1.2922897271e+02   7.7078127455e+00    0.2860225    0.1646946  57.28 0.0009707017    1.692    0.409
        17 -10.8293    115.3596    250.2738   1.3141430484e+02   9.2532142985e+00    0.4429747    0.1802058  38.61  0.002221502    2.122    0.529
        18 -11.8283    109.6735    246.7279   1.3207381812e+02   1.0660704778e+01     0.527625    0.4485517  89.16  0.003698815    1.283    0.221
        19 -11.4833    121.9379    244.9013   1.2965511773e+02   9.1143024523e+00    0.5865535    0.2277171  41.01  0.002861226    2.090    0.522
        20 -11.5255    126.3601    240.5289   1.2835045556e+02   9.1353780667e+00    0.3692027    0.3347222  64.31  0.001955777    1.148    0.129
        21 -11.5320     96.4745    239.2176   1.3372264678e+02   1.3843488824e+01    0.4204731    0.2642145 -86.53  0.001871439    1.882    0.469
        22 -11.2513    101.9957    242.2376   1.3301330795e+02   1.2528635146e+01    0.5684944    0.2798983 -87.01  0.002477632    3.916    0.745
        23 -10.6764    104.3192    237.8917   1.3214401835e+02   1.2919912993e+01    0.3949546    0.1872612  51.38  0.002096787    1.792    0.442
        24 -11.3609     98.3353    246.6007   1.3409909687e+02   1.2334155367e+01    0.4740453    0.2337331  45.78  0.002374968    1.595    0.373
        25  -9.8337     88.2678    250.6746   1.3625108270e+02   1.3084545220e+01    0.3940754   0.08670451  40.14  0.001551331    3.630    0.725
        26 -10.5065     88.7304    247.2228   1.3586655506e+02   1.3591379680e+01    0.3146501    0.1686175  43.39   0.00155977    1.531    0.347
        27 -10.3986     81.7701    247.0676   1.3708137236e+02   1.4578233462e+01    0.3128493    0.1615065 -73.29  0.001844411    2.200    0.545
        28  -9.6082     79.3593    243.2058   1.3717885648e+02   1.5563390276e+01    0.1981702     0.123261  76.07            0    1.607    0.378
        29  -8.6400     74.8820    250.5063   1.3856209974e+02   1.4929207579e+01    0.2228399   0.09236477  39.12  0.001188484    2.144    0.534
        30 -11.1448     59.8610    245.0992   1.4073933569e+02   1.7793453627e+01    0.3673759    0.2300199  87.48 0.0009181577    1.532    0.347
        31 -10.1271     63.1982    249.8726   1.4051443238e+02   1.6554810436e+01    0.1729888    0.1700195 -37.94  0.001284275    1.637    0.389
        32 -11.1239     67.3458    244.0806   1.3936614251e+02   1.7011255628e+01    0.4238865    0.2024792  32.05  0.002225855    2.609    0.617
        33 -12.1192     50.9835    237.8932   1.4176027602e+02   2.0161542513e+01     0.981308    0.5472786  88.36  0.004608748    1.740    0.425
        34 -13.9327     14.8573    169.0153   1.4355122642e+02   3.7915210018e+01     1.462174     1.339148  40.18   0.01116848    1.429    0.300
        35 -13.3060      9.7138    190.2342   1.4611476867e+02   3.3864607632e+01     1.174571    0.7314411 -64.78  0.007822728    1.651    0.394
        36 -13.5683      2.4525    219.4725   1.4902092291e+02   2.8759935074e+01     1.645044    0.5796137 -84.24  0.009020735    2.430    0.589
        37 -13.6258      9.9542    206.4209   1.4703927877e+02   3.0575791370e+01     1.629795    0.8842464  32.29   0.01035532    2.179    0.541
        38 -14.0281     27.2891    247.3143   1.4630741925e+02   2.1234141438e+01     1.635493     0.825407  52.60   0.01114752    1.479    0.324
        39 -13.0540     38.2305    245.1683   1.4439899155e+02   2.0384397425e+01     1.045063    0.4796973 -73.23  0.006500401    2.154    0.536
        40 -14.2075      5.9942    246.0722   1.4961124653e+02   2.3641954255e+01     1.178316    0.7142735 -84.91  0.009123221    1.466    0.318
        41 -12.7923     14.1160    238.9172   1.4801199311e+02   2.4083987467e+01    0.4294613     0.271974  54.26  0.001101813    1.274    0.215
        42 -12.7974     41.5584    228.5001   1.4276248143e+02   2.2997694891e+01    0.3075448    0.2725438 -60.17 0.0008131455    1.618    0.382
        43 -14.7160     47.5039    219.3382   1.4101678361e+02   2.4028302583e+01     1.869427     1.367211  31.13   0.01083597    1.749    0.428
        44 -11.1899    133.5511    249.2517   1.2803189352e+02   6.6649950920e+00    0.6092854    0.2148093  49.03  0.002756257    2.534    0.605
        45 -10.9911     89.8570    237.5163   1.3477045061e+02   1.5086877068e+01    0.2974653    0.2015582 -85.58  0.001608551    1.592    0.372
        46  -9.3522     86.2977    237.3029   1.3540163252e+02   1.5627291099e+01    0.1664498    0.1088653  63.72 0.0003232743    1.335    0.251
        47 -10.4412    152.6576    243.5805   1.2387126375e+02   4.5400891147e+00    0.1954027    0.1515755 -56.65  0.001305754    1.628    0.386
        48 -10.5591    165.7830    235.2303   1.2033416920e+02   3.6773100933e+00      0.24257    0.2040802  33.74  0.001038694    1.040    0.039
        49 -10.1531    161.7862    232.7469   1.2073475127e+02   4.6999830209e+00    0.1972748    0.1425458  67.27 0.0009771988    1.809    0.447
        50  -9.4859     78.0516    233.3906   1.3655380741e+02   1.7466003252e+01    0.1646848    0.1419253 -83.94 0.0004492547    1.278    0.218
        51 -11.2667    156.5817    231.7252   1.2157277842e+02   5.7068411886e+00    0.2332847    0.2098726  14.38  0.000683195    1.213    0.176
        52 -10.9664     98.4937    231.5152   1.3256662343e+02   1.4888680711e+01    0.2579357    0.2288131 -59.79 0.0008859657    1.410    0.291
        53  -8.6898    110.3258    233.6688   1.3057010238e+02   1.2739935655e+01    0.1808468    0.1002878 -76.37 0.0007483165    2.458    0.593
        54 -10.7441    112.6026    230.1807   1.2974681326e+02   1.2994409905e+01    0.3427315    0.1745009  47.47 0.0008667035    1.629    0.386
        55 -11.1952    106.0249    229.2089   1.3089108691e+02   1.4169646479e+01    0.4565812    0.2046301  44.59  0.001209645    1.836    0.455
        56 -11.9798    245.0921    241.1915   1.0723921794e+02  -9.1913744622e+00    0.3030144    0.1901027   9.18  0.001961803    1.465    0.317
        57 -11.2347    141.8397    230.1125   1.2415449021e+02   8.3670954803e+00    0.3755918    0.2082654 -46.01    0.0019377    2.196    0.545
        58  -9.7512     83.5061    238.4119   1.3601199703e+02   1.5823496934e+01    0.1828476    0.1342595  55.50 0.0004974709    1.081    0.075
        59 -10.4558    243.5925    231.2291   1.0587003594e+02  -7.8682040578e+00    0.1578972   0.09544281 -15.06 0.0009582558    1.667    0.400
        60  -9.2196     56.9460    230.6665   1.4016886298e+02   2.0735361200e+01     0.273214    0.1119474  49.88  0.001468789    1.947    0.486
        61 -10.4081     84.6745    229.5188   1.3496281712e+02   1.7243404544e+01    0.2300333     0.199334  28.30 0.0007438735    1.506    0.336
        62 -10.7513     77.5963    221.0425   1.3548138198e+02   1.9805924225e+01    0.3009143    0.1764838  65.31  0.001315502    1.620    0.383
        63 -10.8697     80.4650    227.4136   1.3555092544e+02   1.8218546472e+01     0.284251    0.2484328 -15.88 0.0009127167    1.875    0.467
        64  -9.9882     78.6958    224.6921   1.3562468238e+02   1.8968179783e+01        0.197    0.1888098  46.62 0.0007521493    1.379    0.275
        65  -9.4675    179.8253    228.5988   1.1675639159e+02   2.3627305979e+00    0.2137634    0.1640336 -88.40 0.0009444761    2.258    0.557
        66 -10.5548    165.6727    226.7278   1.1914242302e+02   4.9830027181e+00    0.3440026    0.2364335 -66.24  0.001820662    2.158    0.537
        67 -11.2001    161.0742    223.2802   1.1951679590e+02   6.2913790486e+00    0.5174151    0.2971566  24.93  0.001869818    2.105    0.525
        68 -10.7862    165.3082    242.0579   1.2135521223e+02   2.7572865213e+00     0.263412    0.1667946  30.64 0.0004421817    1.447    0.309
        69 -10.9811    245.3421    227.6021   1.0497420151e+02  -7.6984020471e+00    0.2122376    0.1789601  85.71  0.001278282    2.849    0.649
        70  -9.7906    197.6041    226.8432   1.1320230237e+02  -2.8766106551e-01    0.2533839    0.2048209  88.37  0.001496911    2.212    0.548
        71  -9.3414    190.8130    228.1650   1.1465452676e+02   6.2877599524e-01    0.1628186    0.1250301  15.15 0.0002827276    1.271    0.213
        72 -10.3536     92.6019    225.9972   1.3310770195e+02   1.6745733536e+01    0.2583061     0.155545  54.35 0.0009674796    1.409    0.290
        73 -11.5900     99.0144    223.5175   1.3160784180e+02   1.6250177910e+01    0.4622277    0.2709152  44.14    0.0011922    1.462    0.316
        74  -9.8265    147.3376    225.2365   1.2244225413e+02   8.2637536119e+00    0.1882903    0.1406028  40.98 0.0002759769    1.136    0.120
        75  -9.5573    149.6966    222.6539   1.2162469350e+02   8.2972062741e+00    0.2222088    0.1706651  -4.00 0.0006569386    1.826    0.452
        76 -10.4133    132.6085    224.2654   1.2516628395e+02   1.0845464461e+01    0.2327027    0.1901465  19.75 0.0008479477    1.455    0.313
        77 -10.3701    129.5670    221.2400   1.2536397648e+02   1.1864508357e+01    0.2728193    0.1849328  76.48  0.001484194    1.919    0.479
        78 -10.9004    117.2556    224.3353   1.2816184743e+02   1.3294745663e+01    0.2455627    0.1916124  42.78 0.0003519897    1.165    0.142
        79 -11.5763    141.9931    221.6805   1.2298889685e+02   9.7428162608e+00    0.3649879    0.2862885  37.68 0.0002933755    1.150    0.131
        80 -11.1536    138.3207    214.0719   1.2264751743e+02   1.1674124025e+01    0.5209078    0.3011615  35.71  0.001279953    1.645    0.392
        81 -10.9159     73.0370    209.9579   1.3526764924e+02   2.2583181925e+01    0.4371965     0.285034  28.68  0.001746959    1.953    0.488
        82 -10.9419     70.7266    220.3158   1.3672707243e+02   2.0882885448e+01    0.4395383    0.2747087 -69.29   0.00270931    1.646    0.393
        83 -10.3438     68.0869    214.8782   1.3672435233e+02   2.2285486007e+01    0.2316954    0.1565994  80.05 0.0007842968    1.379    0.275
        84  -9.9961    246.1762    218.6024   1.0329786434e+02  -6.7515590525e+00     0.171785   0.09154315  26.94 0.0008558762    1.714    0.417
        85  -8.9353     83.5951    242.2279   1.3633797479e+02   1.5150233036e+01    0.1307224    0.1035145 -66.81 0.0004724643    1.500    0.333
        86 -10.3077     22.6387    215.5205   1.4529145777e+02   2.7545485002e+01    0.3769961    0.2454885  88.57  0.002217186    1.254    0.203
        87 -10.4158    110.6414    222.1841   1.2919255502e+02   1.4715962528e+01     0.319458    0.2016244 -55.82  0.001668228    1.819    0.450
        88  -9.1438     93.9363    216.9798   1.3187417384e+02   1.8226291770e+01    0.2011364       0.1247  69.98 0.0007451202    1.712    0.416
        89  -8.7897    190.6655    215.2955   1.1262486578e+02   2.5276303657e+00    0.1204613   0.09730007  63.90 0.0005659802    1.645    0.392
        90  -9.7016     88.1933    212.9944   1.3257029844e+02   1.9837461561e+01    0.2093945    0.1465512  83.17 0.0005053263    1.456    0.313
        91 -10.6562    105.3546    219.3641   1.2989606091e+02   1.6050127299e+01    0.3488292    0.2039677  73.57 0.0005088557    2.210    0.547
        92  -9.9363    102.1995    211.8925   1.2963177448e+02   1.7941632529e+01     0.319806    0.1400987  53.24   0.00144505    2.232    0.552
        93  -9.6938     33.5558    211.4767   1.4302548277e+02   2.7168519133e+01    0.1793517   0.09972389  39.40   0.00046614    1.792    0.442
        94 -10.4541    109.1223    207.7515   1.2770414616e+02   1.7650013412e+01    0.3169519    0.1837346 -69.78  0.001168686    2.015    0.504
        95  -9.5237    134.6698    208.3247   1.2255719652e+02   1.3325221638e+01    0.2484624     0.186885  -2.54  0.001315497    2.074    0.518
        96  -9.2763    119.9121    208.5363   1.2559935625e+02   1.5753746077e+01    0.1950119    0.1139792  41.70 0.0003391156    1.527    0.345
        97 -12.4101     93.6290    202.6971   1.3026249897e+02   2.1057026642e+01    0.4952559    0.4223715 -83.18  0.003212719    1.171    0.146
        98 -10.3990    102.9472    202.7498   1.2833151403e+02   1.9605653056e+01    0.4309279     0.261189  57.44  0.001945009    1.585    0.369
        99 -10.7527     99.1442    196.6063   1.2832706307e+02   2.1437351275e+01    0.5310164    0.2558072  42.50  0.001841705    1.884    0.469
       100 -11.3628    247.8778    205.5149   1.0068525922e+02  -5.3784650468e+00    0.4361026    0.2401119  17.58  0.002275472    2.003    0.501
       101 -10.2854    175.2588    205.3353   1.1393344441e+02   6.7630446126e+00    0.3128939    0.2103064 -12.55  0.001547664    2.118    0.528
       102  -9.6731    178.2938    204.7003   1.1323045845e+02   6.3313570820e+00    0.2090041    0.1769734  26.76 0.0002184434    1.071    0.066
       103 -11.2157    172.8405    239.7651   1.1966344712e+02   1.8849305356e+00    0.3010781    0.2348035 -59.08  0.001971443    1.745    0.427
       104  -9.5373    125.9427    205.6923   1.2396570844e+02   1.5288063989e+01    0.1901141    0.1500766  48.57 0.0005100159    1.115    0.103
       105  -9.0571    149.2147    205.1431   1.1911647972e+02   1.1389679726e+01    0.2274296    0.1485732   0.06 0.0009677233    3.051    0.672
       106  -9.0012    166.9439    203.2147   1.1522812007e+02   8.5936658345e+00    0.1801444    0.1511744  38.20 0.0002947687    1.059    0.055
       107  -9.5784    133.1369    202.7303   1.2204727849e+02   1.4623148303e+01    0.2058832    0.1922658 -72.02 0.0006123103    1.174    0.148
       108  -9.9538    138.0596    201.6415   1.2086292053e+02   1.3975925280e+01    0.2079858    0.1918932 -47.85 0.0003269628    1.227    0.185
       109  -9.8360     64.0962    202.1477   1.3627386201e+02   2.5359290269e+01    0.2332561    0.1623509  35.01 0.0003209133    1.615    0.381
       110 -10.4183     32.9364    201.9269   1.4243987627e+02   2.9150444120e+01    0.1678343     0.130224  77.96 0.0003087517    1.025    0.024
       111 -10.0573    197.5398    200.7331   1.0881910779e+02   3.5728137484e+00    0.2656847    0.1989128  50.27 0.0009353381    1.463    0.316
       112 -10.8273    115.2411    200.2365   1.2542001389e+02   1.8119377292e+01    0.2259396    0.2156857  64.09  0.000245857    1.124    0.111
       113 -10.4569    120.1242    199.4168   1.2427675393e+02   1.7467793410e+01    0.3608095    0.2170147  63.77  0.001180887    1.948    0.487
       114  -9.0960    169.5814    200.2693   1.1420451906e+02   8.6268421365e+00    0.1612929    0.1276093 -27.47 0.0002925569    1.433    0.302
       115  -9.9502     44.0519    199.2999   1.4004291298e+02   2.8435049024e+01    0.2595403    0.1962717  50.96  0.001166524    1.278    0.217
       116 -11.1991    249.1173    194.7138   9.8475690822e+01  -4.1631703008e+00    0.3252379    0.2758204 -32.52  0.002161597    1.411    0.291
       117  -9.9033     85.9866    196.8827   1.3115073132e+02   2.3384480583e+01    0.3766091    0.1667923 -64.58  0.001512797    2.327    0.570
       118 -10.2672     56.2459    194.1013   1.3707741484e+02   2.8039912246e+01    0.3158485    0.2043308 -87.37 0.0008460892    1.435    0.303
       119  -9.7484    134.1544    197.8920   1.2109941732e+02   1.5362434696e+01    0.1998091    0.1670506  70.34 0.0003225993    1.241    0.194
       120  -9.1576    133.5248    194.4526   1.2069521994e+02   1.6133180995e+01    0.2215635    0.1788775   6.35 0.0007384054    1.656    0.396
       121 -11.6186     66.6413    195.0315   1.3500772909e+02   2.6495252195e+01    0.3771396    0.2739118 -43.72  0.001372469    1.910    0.476
       122 -10.3045    112.9852    193.5699   1.2494741530e+02   1.9819971243e+01    0.4397726    0.2412569 -62.09  0.001181654    1.994    0.498
       123  -9.2990     31.1542    195.2229   1.4227131355e+02   3.0720752842e+01    0.2324639    0.1159615  54.94  0.001052866    1.760    0.432
       124  -9.6681    159.3792    194.0119   1.1520913352e+02   1.1577337438e+01    0.3049546    0.1777041  54.25  0.001425892    1.871    0.466
       125 -10.9211    119.1760    191.6338   1.2332825781e+02   1.9170343847e+01    0.5106494    0.3519126 -86.76 0.0008942148    1.845    0.458
       126  -9.0710     82.3787    194.4508   1.3161943345e+02   2.4417887772e+01    0.1910992    0.1164211  40.88 1.857126e-05    1.583    0.368
       127 -11.0397     53.5720    198.0430   1.3801104283e+02   2.7550040366e+01    0.5764512    0.1650146  43.95  0.002471626    2.891    0.654
       128  -9.8213     72.9250    193.0771   1.3346575508e+02   2.6049649804e+01    0.1866049    0.1574818  75.44            0    1.011    0.011
       129 -10.5294     38.8101    192.2762   1.4049096531e+02   3.0498799733e+01    0.2012965    0.1673642 -73.43 0.0002286357    1.295    0.228
       130  -9.3658     41.3412    188.0354   1.3959231889e+02   3.1111247245e+01    0.2866893    0.1670065  81.05 0.0009495164    1.626    0.385
       131  -9.4366     26.1627    192.9531   1.4308529131e+02   3.1715269827e+01    0.1773074    0.1194506  78.49 0.0006262048    1.199    0.166
       132 -10.0661     20.3354    191.5842   1.4413491647e+02   3.2585141110e+01    0.2590589    0.1421051  80.54  0.001548888    1.584    0.369
       133 -10.1962    191.4377    191.3864   1.0829329717e+02   6.1646198371e+00    0.2597406    0.2237256  13.78 0.0005999856    1.102    0.093
       134  -9.5352    172.9826    192.0799   1.1208988349e+02   9.4291284435e+00    0.2156493     0.160357   4.29 0.0009029397    1.697    0.411
       135  -9.1602    135.2832    190.0893   1.1962111142e+02   1.6671490756e+01    0.1776356    0.1679645  80.73 0.0003704597    1.086    0.079
       136 -10.0180     32.0341    189.7471   1.4165439430e+02   3.1773020925e+01    0.3050347     0.213082  31.78  0.001968864    1.751    0.429
       137 -11.0057    249.6741    187.5496   9.7015299921e+01  -3.2878133898e+00    0.3626546    0.2337558 -18.94  0.002080311    1.452    0.311
       138 -10.3383     76.8638    187.4942   1.3195631533e+02   2.6680967988e+01    0.3846348    0.2011074 -78.46  0.001823898    2.159    0.537
       139 -11.9149     72.2255    187.4426   1.3295736840e+02   2.7343283146e+01    0.3265463    0.3033544 -46.31 0.0006012932    1.399    0.285
       140  -8.4082     45.2984    187.6284   1.3872787479e+02   3.0742094144e+01    0.1322223   0.07453856  71.68 0.0001865852    1.741    0.425
       141 -11.1313    141.6978    182.9980   1.1704394370e+02   1.6905655428e+01    0.4666974    0.3704835  30.66 0.0006603311    1.305    0.234
       142 -11.0484     24.9994    184.3373   1.4265054100e+02   3.3647895982e+01     0.352897     0.159084  46.40  0.001867936    2.015    0.504
       143  -9.2123     36.9135    184.4135   1.4018711956e+02   3.2381290483e+01    0.1723771    0.1060053  41.70 0.0002201398    1.638    0.390
       144  -9.3577     86.4516    183.1931   1.2929297358e+02   2.6202002635e+01    0.2339164     0.164836  11.07  0.001147149    2.421    0.587
       145  -9.1881     53.5331    182.2567   1.3642770019e+02   3.0913541340e+01     0.254464    0.1789412 -16.79  0.001286662    2.941    0.660
       146  -9.8769     30.2402    183.1253   1.4146805353e+02   3.3371481824e+01    0.2336285    0.1312358  82.54 0.0009528527    1.636    0.389
       147 -12.5067    248.3737    171.8908   9.4133605830e+01  -8.8205414280e-01     0.827234    0.4796602 -24.43  0.004320811    1.634    0.388
       148 -10.5005    193.8486    245.2925   1.1665856826e+02  -2.1577255292e+00    0.2092732    0.1560273 -34.98 0.0009901342    1.615    0.381
       149 -11.3863    248.3613    142.2932   8.7906458276e+01   3.5446180470e+00    0.6185486    0.3906546 -12.25  0.002696265    1.817    0.450
       150 -12.6451    248.5169    134.0875   8.6078569498e+01   4.7857564518e+00      1.22532    0.6412773 -30.70  0.005748272    1.741    0.426
       151  -9.5663     65.9430    181.9839   1.3368246701e+02   2.9378967439e+01    0.1865937    0.1604122  77.29 0.0002914071    1.038    0.036
       152 -10.1625    130.6746    180.4197   1.1901314106e+02   1.9430379626e+01     0.381161    0.1869209  58.98   0.00144949    2.793    0.642
       153 -12.7518    248.2975    101.3511   7.8665961410e+01   9.9452669461e+00    0.8838672    0.5386512 -32.37  0.004411971    1.469    0.319
       154  -9.5932    174.6546    179.8651   1.0948820363e+02   1.1296516284e+01    0.3590651     0.151578  46.30  0.001420166    2.298    0.565
       155  -8.8233    170.0332    180.0047   1.1047076153e+02   1.2152534840e+01    0.1620747    0.1539492  23.70 0.0009580349    1.027    0.027
       156  -8.4232    104.2552    180.6662   1.2494915411e+02   2.3942188475e+01    0.1361115   0.09757717  79.20 0.0003071417    1.565    0.361
       157  -8.8504    207.3370    179.2563   1.0290262954e+02   5.2398532455e+00    0.1379666   0.09764888  13.31  0.000302508    1.574    0.365
       158  -9.9268    109.1826    178.2251   1.2346065113e+02   2.3643335939e+01    0.2214454    0.2055077  81.67 0.0004350721    1.043    0.041
       159  -9.2170     48.0065    179.6064   1.3734948210e+02   3.2159880234e+01    0.1675858    0.1106197  42.53 0.0005044813    1.534    0.348
       160 -11.5075     81.2486    175.6253   1.2943172775e+02   2.8627129399e+01     0.450268      0.32657  45.42  0.001556319    1.349    0.259
       161  -9.8000     77.4003    175.6713   1.3031573969e+02   2.9176785681e+01    0.2054065    0.1623234  86.69 0.0006180102    1.178    0.151
       162  -9.4604    114.9922    176.5049   1.2186855186e+02   2.3018355275e+01    0.2318837     0.145824 -68.03 0.0006449401    1.790    0.441
       163 -11.7589     68.7031    173.2345   1.3198044599e+02   3.0936714972e+01    0.5270519    0.2367309 -54.15  0.001381026    2.295    0.564
       164 -10.8608     68.8950    166.8415   1.3108868052e+02   3.2347687924e+01    0.2530432    0.2157788 -60.00 0.0003545702    1.257    0.204
       165  -8.3118    121.6835    175.7098   1.2022164238e+02   2.2014951859e+01    0.1325675    0.1117331  -2.60 0.0003078973    1.595    0.373
       166  -8.6072    107.6580    173.2946   1.2301808478e+02   2.4960288283e+01    0.1449475    0.1000381  71.08 0.0002272462    1.660    0.397
       167 -10.8210     96.0042    157.3338   1.2311015993e+02   3.0446439049e+01    0.4191374    0.2519176 -62.86  0.001098969    1.652    0.395
       168  -9.7803     95.2686    172.8174   1.2579986178e+02   2.7097955519e+01    0.2460547    0.1706327  60.68 0.0006780606    1.442    0.306
       169  -9.5337     91.1108    172.7844   1.2675615546e+02   2.7760528429e+01    0.2682683    0.2017588 -30.39 0.0009427549    1.912    0.477
       170 -10.9805     89.6092    160.6852   1.2522480658e+02   3.0707817527e+01    0.4649779    0.2524033 -67.49  0.002112435    1.917    0.478
       171  -9.7921     93.5003    169.4207   1.2568708515e+02   2.8130289993e+01    0.2184324    0.1924103 -59.50 5.364728e-05    1.203    0.169
       172 -12.5284     87.6694    166.7999   1.2665385963e+02   2.9627289107e+01    0.7379827    0.5636158 -50.44  0.004121574    1.427    0.299
       173 -11.2495     28.6623    171.1077   1.4073927870e+02   3.6149444282e+01    0.4089601    0.3038457  88.27  0.001332026    1.085    0.078
       174  -8.7151    167.0000    170.0465   1.0917645181e+02   1.4610023339e+01    0.2267652   0.08199405 -44.70 0.0007966437    2.902    0.655
       175  -8.9507    100.5116    170.4910   1.2421926455e+02   2.6762334920e+01    0.1385568     0.124609  76.75 -0.0001415255    1.019    0.018
       176 -10.5621     43.5699    169.1893   1.3722697136e+02   3.4982208735e+01    0.3906138     0.302273 -85.34  0.001684774    1.090    0.083
       177 -10.0883     48.2709    168.8136   1.3611661166e+02   3.4523585990e+01    0.2948269    0.1718244  45.56  0.001627839    1.680    0.405
       178  -9.4985    126.6065    167.7915   1.1770722489e+02   2.2803836223e+01    0.1947633    0.1342634 -67.36 0.0007173677    1.642    0.391
       179  -9.7689    107.4344    168.0806   1.2220794743e+02   2.6135342362e+01    0.2321122    0.1928508  25.93 0.0003512567    1.415    0.293
       180  -9.1055     58.4976    167.4940   1.3360355355e+02   3.3570725275e+01    0.1304804    0.1091073  84.52 0.0008105464    1.024    0.023
       181  -8.7449    136.2475    165.3125   1.1503667262e+02   2.1528737777e+01    0.1352774    0.1129424 -13.91 0.0002069181    1.513    0.339
       182  -9.3374     53.9625    164.6159   1.3430341989e+02   3.4789052967e+01    0.1978804    0.1446826 -75.68 0.0004254711    1.210    0.173
       183  -9.2618    154.7433    161.7739   1.1017495903e+02   1.8660022123e+01    0.1909516    0.1672277 -89.09 0.0003713583    1.321    0.243
       184  -9.2373     36.9325    162.5365   1.3802432521e+02   3.7209612265e+01    0.1641303    0.1140883  43.65 0.0005654049    1.506    0.336
       185 -11.1726     73.6443    157.9707   1.2868085254e+02   3.3713143678e+01    0.4468781    0.3218343 -69.49  0.001916238    1.288    0.224
       186 -10.1006     78.9700    158.9008   1.2752416249e+02   3.2730926669e+01    0.2053261    0.1815995 -89.82 0.0005898572    1.011    0.011
       187 -12.0190     33.5192    147.4783   1.3713638921e+02   4.1008080796e+01    0.4823558    0.2600492  75.77  0.002388761    2.119    0.528
       188 -12.8510     32.2189    140.3306   1.3659265974e+02   4.2794671748e+01    0.5834175    0.4124575 -71.54  0.002420589    1.181    0.153
       189 -13.7842     24.3534    155.4294   1.4020353700e+02   4.0075466288e+01     1.553913    0.8739811  42.55  0.009015686    1.835    0.455
       190 -11.0480     18.8300    148.1120   1.4077178136e+02   4.2233600639e+01    0.2137152    0.1842075  17.41 0.0005085876    1.580    0.367
       191  -9.5991    134.4787    155.9008   1.1360365912e+02   2.3864886695e+01    0.2147997    0.1439454 -51.24 0.0003526882    1.525    0.344
       192  -9.2089    228.4340    155.1332   9.4026624329e+01   5.2183897034e+00    0.2076432    0.1259989 -33.26 0.0006575523    1.558    0.358
       193  -8.4603    175.7240    155.2739   1.0426097358e+02   1.5695976593e+01     0.136916    0.1166714  88.51 0.0001836091    1.491    0.329
       194 -10.6173    113.7579    151.0195   1.1760249226e+02   2.8820209955e+01    0.3891679    0.2957242 -50.91 0.0008880303    1.328    0.247
       195 -11.2306    100.3644    151.0019   1.2090770900e+02   3.1166110015e+01    0.5611585    0.4629454  14.80  0.002996322    1.563    0.360
       196 -10.1222     53.0296    146.2850   1.3209719090e+02   3.9135974716e+01    0.2138946    0.1839238  54.71 0.0007840923    1.224    0.183
       197  -9.9924     60.2607    150.9908   1.3095413348e+02   3.7138215960e+01    0.3954102    0.1834129  61.43   0.00144656    2.962    0.662
       198 -10.7768     55.8201    150.2492   1.3195734520e+02   3.7869795330e+01      0.31898    0.2889081  85.09  0.001285662    1.086    0.080
       199 -13.1011     67.4456    144.1958   1.2808775175e+02   3.7780961609e+01    0.7837586    0.5742271  89.06   0.00429092    1.399    0.285
       200 -12.3111     73.6329    140.0992   1.2578956381e+02   3.7882879829e+01    0.6975635    0.5072456  87.92   0.00244603    1.491    0.329
       201 -10.0032    138.7013    138.9011   1.0898575504e+02   2.6695771212e+01    0.3226985          0.2  39.90  0.001414588    1.650    0.394
       202 -10.6452    134.0000    145.0029   1.1145363594e+02   2.6315155719e+01    0.5623621    0.1894707 -51.51  0.001821866    3.137    0.681
       203 -10.4986    133.1407    140.3753   1.1065459790e+02   2.7496091351e+01    0.4464872    0.3100046 -58.09   0.00133646    1.518    0.341
       204  -8.8843    122.0248    148.0269   1.1498458174e+02   2.7963549326e+01    0.1710954    0.1643527 -87.86 0.0009588358    1.012    0.012
       205  -9.7434    103.4379    145.7899   1.1915315577e+02   3.1833359206e+01    0.2900684    0.2106068 -45.83 0.0009490979    1.442    0.307
       206  -9.0276     52.5014    158.4746   1.3387713824e+02   3.6370509229e+01    0.1289292    0.1101208 -86.50 1.079509e-05    1.031    0.030
       207 -11.8090      2.7449    138.6306   1.4373381177e+02   4.5633255675e+01    0.3491084    0.1888292 -88.46  0.001983875    1.556    0.358
       208 -12.6231      4.2334    144.7318   1.4391545234e+02   4.4157307661e+01    0.5939708    0.4292098  27.12  0.004069109    1.772    0.436
       209 -10.4508    236.4102    145.8605   9.0637692169e+01   5.2020767373e+00     0.312693    0.2167843  40.28 0.0007655974    1.509    0.337
       210  -9.8591    158.9942    145.0707   1.0566138720e+02   2.1195791327e+01    0.2142715    0.2104221  37.64            0    1.007    0.006
       211  -8.7433     93.4803    145.4988   1.2162346468e+02   3.3576442804e+01    0.1442594    0.1287514  87.23 0.0004326643    1.077    0.071
       212 -10.0242     42.0756    140.6479   1.3410995786e+02   4.1707365389e+01    0.2343846     0.133906  51.27  0.001223415    1.852    0.460
       213 -12.3468     12.6037    137.2958   1.4118854039e+02   4.5212012836e+01    0.3778732    0.1857689  61.21  0.001959404    2.247    0.555
       214 -11.8184     16.4714    139.9498   1.4050499347e+02   4.4295922986e+01    0.2807044    0.1731883 -68.26  0.001208737    1.331    0.249
       215 -11.4667     60.3283    137.5220   1.2886666576e+02   4.0292996500e+01    0.3254465    0.2619052  80.39 0.0009795146    1.233    0.189
       216 -11.3335     47.5948    138.3064   1.3234498697e+02   4.1645662951e+01    0.4257261    0.2139585  23.32  0.001954984    2.723    0.633
       217 -12.5115     13.5455    153.7178   1.4254381575e+02   4.1415956223e+01    0.3868337    0.3323058  89.29  0.001846369    1.139    0.122
       218 -10.4569    111.3919    136.2230   1.1518048064e+02   3.2602865541e+01    0.4276094    0.3144863  29.56  0.001552826    1.564    0.361
       219 -12.1372      2.2338    125.7095   1.4263635266e+02   4.8589667669e+01    0.7083005    0.1930345 -80.45  0.002626359    3.710    0.730
       220 -12.2262     45.6329    131.7968   1.3189363288e+02   4.3401210645e+01    0.5276314    0.3782894  68.07  0.003014095    1.487    0.328
       221  -8.8982    122.7027    128.2953   1.1051726113e+02   3.2241888692e+01    0.1498208    0.1179767  85.95  0.000200843    1.567    0.362
       222 -12.1945     20.9727    133.9474   1.3869973954e+02   4.5302526874e+01    0.3824097    0.1957826 -87.28  0.001565116    1.918    0.479
       223 -12.0715     31.3205    127.0031   1.3506799473e+02   4.5996402405e+01    0.3790005    0.2310557  50.03  0.001566774    1.796    0.443
       224 -10.4453    209.8659    125.7511   9.0684958528e+01   1.3951239175e+01    0.2874067    0.2307679 -36.56 0.0004973631    1.190    0.160
       225 -11.4799     36.6943    124.6922   1.3325846918e+02   4.6018733243e+01     0.392963    0.2131887  82.48  0.001792362    2.437    0.590
       226 -12.2438     38.4344    121.5213   1.3228375938e+02   4.6591031994e+01     0.698818    0.3455337  87.45  0.002802874    3.122    0.680
       227 -12.9009     14.8377    126.6101   1.3944021992e+02   4.7494146120e+01    0.4980515    0.2563285 -68.41  0.002753603    1.524    0.344
       228 -13.1547     24.1833    121.3045   1.3623542780e+02   4.7969719916e+01    0.5883766    0.4763657   7.75  0.001717304    1.654    0.396
       229 -11.2548      9.2599    127.3809   1.4099051042e+02   4.7730558829e+01    0.1922839    0.1411759  52.09  0.001276211    1.488    0.328
       230  -9.5129     86.5755    125.9946   1.1960752009e+02   3.9247998938e+01    0.3517885     0.212265  13.05  0.001365243    3.080    0.675
       231 -10.7049     58.9824    125.0322   1.2709673020e+02   4.3423060850e+01    0.4092719    0.1860077  31.63  0.001175044    2.526    0.604
       232 -10.5696     54.9284    120.8520   1.2748781788e+02   4.4915571989e+01    0.2854005    0.2006778  30.85  0.001035932    1.650    0.394
       233 -12.2164     15.4054    114.8508   1.3781779190e+02   5.0169343742e+01    0.3932284    0.1913515 -64.22 0.0007243913    1.594    0.373
       234 -12.1266      9.4237    118.8911   1.3998424783e+02   4.9666911768e+01    0.4052691    0.2163037 -42.15  0.002205614    2.172    0.540
       235  -9.6425     86.2954    116.4765   1.1761986346e+02   4.1518497547e+01    0.3125765    0.1922212 -63.04  0.001128542    1.649    0.394
       236 -11.4779     31.2298    117.0969   1.3363968449e+02   4.8329330548e+01    0.4177284    0.1884822 -46.79  0.001941937    2.283    0.562
       237 -11.0115    249.4673    150.9470   8.9597164045e+01   2.0254102026e+00     0.563981    0.2791011 -38.05  0.002649753    1.880    0.468
       238 -10.9588    168.0278    113.2140   9.5934096787e+01   2.5672228771e+01    0.3721813    0.3027029 -73.55 0.0008150251    1.489    0.329
       239 -10.1121     50.1065    112.9243   1.2742318983e+02   4.7359319023e+01    0.1991286    0.1737167 -69.42 0.0004385901    1.021    0.021
       240 -11.9832     67.5318    128.0312   1.2526572858e+02   4.1588585496e+01    0.4649924    0.3748073 -86.59  0.001409953    1.240    0.194
       241  -9.2961    203.4947    111.5154   8.8368793979e+01   1.7885140995e+01    0.1497617    0.1413283 -12.85 0.0001537733    1.053    0.050
       242  -9.0655     83.7141    111.0465   1.1711819543e+02   4.3194045110e+01    0.1991684    0.1709363 -54.47 0.0002858818    1.077    0.071
       243 -10.1620     69.9704    111.2705   1.2119976586e+02   4.5206215800e+01    0.1826821     0.176834 -87.56 0.0002918834    1.092    0.084
       244 -10.8807     31.4060    110.7630   1.3258186971e+02   4.9797349886e+01    0.2649089    0.1875989  53.34 0.0007256846    1.610    0.379
       245 -10.8485     57.6054    109.9729   1.2460919277e+02   4.7155129625e+01    0.3452679    0.2057657  21.44  0.001661832    2.195    0.544
       246 -10.2057     62.3350    107.0549   1.2257058451e+02   4.7233284975e+01    0.2022728    0.1626496 -63.73 0.0006965554    1.125    0.111
       247 -11.3062     27.3633    106.2266   1.3304254560e+02   5.1215256749e+01    0.2600235    0.2269925  76.49   0.00174232    1.232    0.188
       248 -12.0718     19.0744    104.4367   1.3525638760e+02   5.2302474766e+01     0.357595    0.2819092 -27.89   0.00233609    1.522    0.343
       249  -9.6259     33.0092     99.9882   1.3020986516e+02   5.2160827797e+01    0.1628034    0.1189762 -63.63 0.0003842223    1.134    0.118
       250  -8.9300     85.9756     97.0198   1.1297704682e+02   4.6029153882e+01    0.1666348    0.1556217 -48.00            0    1.008    0.008
       251  -8.5153     80.2842     97.7273   1.1488957832e+02   4.6790610810e+01    0.1344848    0.1098293  85.97 0.0002171658    1.502    0.334
       252  -9.6221     72.1042     90.1782   1.1548053809e+02   4.9737865765e+01    0.2021853    0.1736618 -29.58 0.0002652936    1.179    0.152
       253  -9.7017     31.1929     90.4041   1.2893484945e+02   5.4531113186e+01    0.1547117    0.1166207  43.45 0.0005763267    1.578    0.366
       254 -13.1997    248.3531    113.7962   8.1528516398e+01   7.9905336121e+00     1.509586    0.8624691 -20.38  0.006872012    1.984    0.496
       255  -9.2642     24.2010     88.1917   1.3081514483e+02   5.5628775696e+01    0.1600818    0.1325593 -88.93 0.0003649141    1.292    0.226
       256 -10.5461    169.6031    248.6336   1.2144944904e+02   1.1598172874e+00    0.2904885    0.1772807  19.99 0.0008356359    1.992    0.498
       257 -10.5818    115.7803    240.0597   1.3025538807e+02   1.0834944266e+01     0.211638    0.1884812  59.79 0.0007195885    1.126    0.112
       258 -10.2249    200.1271    245.9850   1.1564983819e+02  -3.2056631704e+00    0.2078139    0.1361703  55.04 0.0009884483    2.035    0.509
