#   1 NUMBER                 Running object number                                     
#   2 MAG_AUTO               Kron-like elliptical aperture magnitude                    [mag]
#   3 X_IMAGE                Object position along x                                    [pixel]
#   4 Y_IMAGE                Object position along y                                    [pixel]
#   5 X_WORLD                Barycenter position along world x axis                     [deg]
#   6 Y_WORLD                Barycenter position along world y axis                     [deg]
#   7 A_WORLD                Profile RMS along major axis (world units)                 [deg]
#   8 B_WORLD                Profile RMS along minor axis (world units)                 [deg]
#   9 THETA_WORLD            Position angle (CCW/world-x)                               [deg]
#  10 FWHM_WORLD             FWHM assuming a gaussian core                              [deg]
#  11 ELONGATION             A_IMAGE/B_IMAGE                                           
#  12 ELLIPTICITY            1 - B_IMAGE/A_IMAGE                                       
         1 -12.4275    247.7975     41.3041   3.3109165187e+01   2.1153514664e+01     0.688952    0.3690866 -61.92  0.003959973    1.692    0.409
         2 -12.2151    243.3366     25.1664   3.0381062512e+01   2.3985629370e+01    0.3684778    0.3010452 -41.74  0.002210395    1.371    0.270
         3 -11.0648    249.2957      7.2141   2.6679217758e+01   2.4883309474e+01     0.788644    0.1843462 -39.96  0.003701147    3.080    0.675
         4 -10.9302    246.0672     11.1618   2.7588495735e+01   2.5058473011e+01    0.6445644   0.08836497 -40.45  0.002602105    3.967    0.748
         5 -11.9960    242.2602     13.4202   2.8250289542e+01   2.5529468151e+01    0.6615453    0.1360962 -45.48  0.002870118    3.250    0.692
         6 -10.7815    249.5758     18.8526   2.8765865282e+01   2.3547153811e+01    0.5035515     0.125816 -42.41  0.002335675    2.853    0.650
         7 -11.4360    223.0672     22.8839   3.1527903634e+01   2.8244670943e+01    0.2868347    0.2395658 -89.30  0.001729877    1.144    0.126
         8 -11.5995    237.6718     17.3948   2.9314483910e+01   2.5967501103e+01    0.4895869   0.05885322 -44.12  0.001822634    4.244    0.764
         9 -11.2382    241.1935      3.1520   2.6425559438e+01   2.6825847331e+01    0.4330902    0.2299694 -59.93  0.002768727    1.513    0.339
        10  -9.3634    139.3581      9.0608   3.7408617022e+01   4.8332548207e+01    0.1664331    0.1528843 -83.66 0.0007598207    1.130    0.115
        11  -9.1393     17.4807      8.6725   7.4924496247e+01   7.2044748376e+01    0.2215091    0.1184427  26.05  0.001326239    1.673    0.402
        12  -9.4962     97.8733      7.5152   4.4442637522e+01   5.7913811192e+01    0.1903228    0.1713425  15.68 0.0003756411    1.193    0.162
        13  -9.2057    189.8042      7.0463   3.1019267700e+01   3.7000799423e+01    0.1845731    0.1317659 -68.13 0.0005321628    1.262    0.208
        14  -9.4691    110.9726      4.9901   4.0848883714e+01   5.5194851406e+01    0.1520476    0.1241638  57.65 0.0009802943    1.020    0.020
        15  -9.0156    165.0427      4.5505   3.2901102107e+01   4.2792418511e+01    0.1755299   0.08702797 -80.38 0.0004750535    2.420    0.587
        16  -8.8612    143.3329      3.6596   3.5289926609e+01   4.7865994016e+01    0.1291722   0.08305471 -70.06 0.0007051431    1.750    0.428
        17  -9.3341    221.2308      1.9300   2.7459011353e+01   3.0859278357e+01     0.159516     0.128559  30.48  0.001089583    2.025    0.506
        18  -8.5024    174.6387      2.2745   3.1336607740e+01   4.0817606427e+01    0.1266886   0.07599475 -73.25 0.0006464007    1.660    0.397
        19  -8.6307    153.3382      2.6704   3.3751323582e+01   4.5637815414e+01    0.1292483   0.08061617 -70.20 0.0007051909    1.735    0.424
        20  -8.6370     54.6814      1.3122   5.4090625724e+01   6.7172045883e+01    0.1015182   0.09439272 -86.85 0.0003190137    1.646    0.392
        21 -10.0141     77.8640    185.5638   9.9831535886e+01   2.5875350852e+01    0.2917516    0.2433371  33.80 0.0008275404    1.223    0.182
        22  -9.4962    224.1958    184.2366   6.5555636808e+01   1.8914974414e+00    0.1727979    0.1531271 -46.66 0.0009139667    1.359    0.264
        23  -9.2105    241.9731    182.1580   6.2052415258e+01  -3.4004796951e-01    0.1836403    0.1568797  84.80  0.001089393    2.067    0.516
        24  -8.1561    101.0055    175.9851   9.2092264145e+01   2.4702826549e+01    0.1683892    0.1650447  46.27            0    1.019    0.019
        25  -9.1138    245.4249    168.7608   5.8897363714e+01   1.4128009126e+00    0.2514888    0.1053652 -42.49  0.001130926    2.063    0.515
        26  -8.6440    212.0000    168.9547   6.4755060957e+01   6.5887650569e+00    0.2293913   0.07164898 -41.88 0.0005673748    2.879    0.653
        27  -9.4295    241.3593    152.9016   5.6408761713e+01   4.7321817598e+00    0.2155189    0.1479233 -49.23  0.001196047    1.459    0.315
        28  -9.0704    221.4220    152.2168   5.9576293309e+01   8.1030971101e+00    0.1977707    0.1171139 -47.62 0.0009472963    1.636    0.389
        29  -9.8994    229.2055    149.7086   5.7728068421e+01   7.2502865411e+00    0.4267363    0.1832083 -28.43  0.001573804    3.043    0.671
        30  -9.7599    244.6727    149.7148   5.5254946584e+01   4.7648391561e+00    0.2516117    0.1769854 -66.01  0.001325893    2.089    0.521
        31  -9.8709    234.6941    146.9920   5.6271087730e+01   6.8285074304e+00     0.319642    0.1856361 -42.01  0.001627949    1.474    0.321
        32  -9.2673    224.0138    146.8488   5.8006243887e+01   8.6417162961e+00    0.2137798    0.1639261 -86.78  0.001089412    2.094    0.522
        33  -9.7765    243.9081    140.8147   5.3582309311e+01   6.4113197475e+00    0.2633048    0.1502779 -56.48  0.001250303    2.177    0.541
        34  -9.2772    242.6005    134.7953   5.2556326339e+01   7.6567214906e+00    0.1946384    0.1038519 -46.86 0.0009511099    1.676    0.404
        35  -9.1465    225.3311    133.6652   5.5001734822e+01   1.0800851380e+01     0.137651    0.1017947 -67.31 0.0007052177    1.730    0.422
        36  -8.7970    198.5373    132.0330   5.9332532960e+01   1.6096568817e+01    0.2087167    0.1170045 -59.96 0.0008089382    2.500    0.600
        37  -9.4477    247.7250    130.1779   5.0878374417e+01   7.6067858213e+00    0.2173554    0.1427418 -52.17  0.001202321    1.484    0.326
        38  -9.2521    192.5204    129.5526   5.9913891448e+01   1.7765580534e+01    0.2817557    0.1256738 -50.88  0.001035893    2.450    0.592
        39 -10.0409    241.0350    126.6767   5.1124522277e+01   9.3104263686e+00    0.2941372    0.1799296 -60.54  0.001449161    2.047    0.512
        40  -9.3144    179.7911    125.5763   6.1523380175e+01   2.1141134730e+01    0.2053844    0.1452276  61.26 0.0009462822    1.695    0.410
        41  -8.7702    249.5256    124.4825   4.9480617484e+01   8.2700269817e+00    0.1297954    0.1059074 -39.66 0.0002924771    1.016    0.016
        42  -8.7570    188.3259    123.6422   5.9354934744e+01   1.9771308154e+01    0.1532589    0.1141562 -73.77 4.293796e-05    1.778    0.438
        43  -9.4671    231.8251    120.3113   5.1153315404e+01   1.2010927504e+01    0.1960822    0.1470636 -47.29  0.001025249    1.173    0.147
        44  -9.8083     18.2842    118.9484   1.0739513396e+02   4.9561572145e+01    0.2199752     0.199494  80.33 0.0004004863    1.210    0.173
        45  -8.6369    209.4600    118.4908   5.4318280798e+01   1.6520991231e+01    0.1419449    0.1259875 -46.21 0.0001529906    1.026    0.025
        46  -8.7719    218.5112    109.4886   5.0839915219e+01   1.6381973469e+01    0.1383439    0.1209483 -48.34 0.0008104363    1.014    0.014
        47  -8.3952    160.6895    108.6581   6.1425042672e+01   2.8626446919e+01    0.1551982    0.1211534   0.06 0.0007045279    1.696    0.410
        48  -9.2923    229.8559    102.6569   4.7678045960e+01   1.5398515849e+01     0.266203    0.1689473 -48.37 0.0009964914    1.380    0.275
        49  -8.6421    200.6192    103.1828   5.2304930595e+01   2.1087768458e+01    0.1966413    0.1276255 -32.11 0.0006069806    1.588    0.370
        50  -9.2972    221.3003     97.9607   4.7877076260e+01   1.7829550908e+01    0.1998163    0.1527196 -45.36 0.0005658115    1.144    0.126
        51  -8.6893    202.6603     98.3157   5.0828078371e+01   2.1530239772e+01    0.1460999    0.1037113 -71.68 0.0007048076    1.703    0.413
        52  -8.1575    145.7343     95.6475   6.1400886124e+01   3.4520462503e+01    0.1516489    0.1199178  -2.88 0.0005518812    1.622    0.384
        53  -8.5808    207.2886     94.6097   4.9228830387e+01   2.1216860443e+01    0.1484869   0.09748266 -64.76 0.0006003263    1.764    0.433
        54 -10.2802    241.7247     92.2614   4.3929024755e+01   1.4908732608e+01    0.2720548    0.1266024 -51.01  0.001272555    1.981    0.495
        55  -8.4875    164.3326     93.3122   5.6655516386e+01   3.0785721625e+01    0.1495784    0.1182397  11.68 0.0007044317    1.678    0.404
        56  -8.5546    247.5123     92.4959   4.3275125016e+01   1.3831784880e+01    0.1278196    0.1035118 -51.81 0.0008104836    1.018    0.018
        57 -10.1150    236.9795     89.9887   4.4047957900e+01   1.6145370192e+01    0.2648742    0.1564422 -44.17  0.001059552    1.423    0.297
        58 -10.7106    235.1774     86.1761   4.3473908636e+01   1.7089908860e+01    0.3517706    0.1477825 -41.91  0.001597487    1.997    0.499
        59  -9.8789     24.5796     90.2947   9.9750219814e+01   5.6068767528e+01    0.2538822    0.1874363 -34.35 0.0005622517    1.226    0.184
        60  -8.6190    226.4619     88.4887   4.5090245843e+01   1.8391269298e+01    0.1350154    0.1112369 -58.18 9.648444e-05    1.081    0.075
        61  -9.9681    240.0449     86.0455   4.2850781097e+01   1.6200326443e+01    0.2724563    0.1397977 -60.50  0.001262481    2.270    0.559
        62  -8.5545    170.6810     83.3294   5.2777812792e+01   3.1148052616e+01    0.1514261     0.109878 -73.64 0.0007047571    1.687    0.407
        63 -10.1903    229.6732     79.7839   4.2804270450e+01   1.9150854836e+01    0.3215896    0.1104043 -51.54  0.001194713    3.113    0.679
        64  -8.9840    159.4644     80.5432   5.4250027268e+01   3.4194926978e+01    0.2663464    0.1436763 -26.06  0.001035442    2.445    0.591
        65  -8.7162    201.4142     78.2085   4.6303878270e+01   2.5194855544e+01    0.2042013    0.1123314 -49.63 0.0009451841    1.726    0.421
        66  -9.3923    166.8187     77.5038   5.1980937256e+01   3.3029437482e+01    0.2844718    0.1948178 -20.86  0.001319187    1.858    0.462
        67  -9.1304    244.1117     76.7643   4.0479639475e+01   1.6876703582e+01    0.2588965    0.1582122 -69.43  0.001394796    1.846    0.458
        68  -8.2451    174.4905     77.5129   5.0558477396e+01   3.1275842351e+01    0.1431191    0.1327465 -74.01 5.172437e-05    1.035    0.034
        69  -9.6050    211.1891     76.1443   4.4422071550e+01   2.3454748315e+01    0.1952259    0.1422332 -63.63  0.001074146    1.347    0.258
        70  -8.2107    106.2973     80.3040   6.7384206520e+01   4.6080664003e+01    0.1498049    0.1148449   3.63 0.0003364769    1.584    0.369
        71  -9.3365    248.3574     74.1631   3.9495855562e+01   1.6488794172e+01    0.1874547   0.08804629 -47.84 0.0009444068    1.751    0.429
        72 -10.0305    196.2867     71.9152   4.5574016752e+01   2.7311024177e+01     0.379713    0.2829555  12.14  0.001882214    2.181    0.542
        73  -8.8112    239.3111     72.6300   4.0169693021e+01   1.8393906399e+01     0.136521   0.07973587 -63.01 0.0007035349    1.770    0.435
        74  -8.1012    140.3240     72.3220   5.6063861342e+01   4.0019098686e+01    0.1495923     0.113943  17.71 0.0002966881    1.681    0.405
        75 -10.2490    221.8434     71.1592   4.1914385007e+01   2.2035779274e+01    0.2042642    0.1527928 -62.17 0.0007418672    1.226    0.184
        76  -8.1611    239.3111     76.6230   4.0991561846e+01   1.7792219987e+01    0.1375349    0.0806435 -62.90 0.0007028834    1.790    0.441
        77  -8.6907    163.0000     70.9635   5.0955164581e+01   3.4995464091e+01    0.2357798   0.08035634 -36.74 0.0008057557    2.965    0.663
        78  -9.4756    214.4750     69.9861   4.2590660519e+01   2.3726023222e+01    0.2010884    0.1157238 -42.50 0.0006938122    1.563    0.360
        79  -9.6163    203.3650     66.0474   4.3171660181e+01   2.6678042651e+01    0.2900228    0.1424865 -44.64  0.001291103    1.857    0.461
        80  -8.5710    208.4997     63.4930   4.1896743202e+01   2.5960321964e+01    0.1324525    0.1150445 -67.37 0.0001422744    1.011    0.011
        81  -8.3929    197.3217     63.6654   4.3450152000e+01   2.8352246310e+01    0.1438016   0.09355997 -68.54  0.000705016    1.706    0.414
        82 -11.9046    240.0813     59.6703   3.7443486831e+01   2.0132457437e+01    0.4169513    0.2655398 -75.06  0.002405772    1.651    0.394
        83  -9.2743     22.5386     59.9640   9.2761994757e+01   6.2914974504e+01    0.3990209    0.1288688 -35.38  0.001456057    3.389    0.705
        84  -9.5310    206.5297     58.9332   4.1106421405e+01   2.7049617229e+01    0.2828788    0.1294114 -29.98  0.001198897    2.601    0.615
        85 -12.7471    238.4118     41.3355   3.3922807893e+01   2.2933731190e+01    0.7775922    0.2436078 -47.72   0.00346214    2.603    0.616
        86 -10.2899    250.4742     56.0104   3.5712893593e+01   1.8699393669e+01     0.277828     0.200466 -22.51  0.001214517    1.902    0.474
        87  -9.2217    249.1625     51.9846   3.5051396322e+01   1.9490078825e+01    0.3293098    0.1253968 -53.01  0.001545051    2.354    0.575
        88 -10.6053    246.5172     47.4966   3.4415726166e+01   2.0583540304e+01    0.3644867    0.2190854 -80.85  0.002136511    1.753    0.430
        89  -8.6101    168.3105    249.7037   8.8236599571e+01  -1.2123561122e+00    0.1176797   0.09486984  50.83  0.000235884    1.595    0.373
        90 -10.4227    227.0905     56.4775   3.8144704435e+01   2.3126202610e+01    0.2611985    0.1549581 -48.97  0.001450061    1.452    0.311
        91  -9.2062     10.4548     55.9940   9.7273947387e+01   6.4651950365e+01    0.2393382    0.1424735 -16.87  0.001091796    1.643    0.391
        92  -9.0561    244.4678     52.4738   3.5577594449e+01   2.0299243706e+01    0.1824103   0.08844002 -47.95 0.0002105795    1.686    0.407
        93 -10.7823    243.4822     55.4598   3.6262673691e+01   2.0075550002e+01    0.2526903    0.1489306  76.89  0.001451542    1.842    0.457
        94  -8.7975    163.6741     53.0042   4.5958358603e+01   3.7577164394e+01    0.2336695   0.08063125 -51.82 0.0007050718    4.320    0.769
        95 -10.2185    227.6646     51.9626   3.7131547822e+01   2.3638509298e+01    0.1792179    0.1369623 -55.18 0.0006325424    1.116    0.104
        96 -11.3652    232.4607     48.5671   3.5940491203e+01   2.3144693246e+01    0.4507106    0.2104934 -29.78  0.002111474    2.606    0.616
        97 -10.6617    243.4114     42.2132   3.3657467153e+01   2.1861807690e+01     0.397797    0.0963612 -48.03  0.001578049    3.297    0.697
        98  -8.7368    172.2283     49.9956   4.3758328882e+01   3.6006633297e+01    0.1762459    0.1622575 -71.86            0    1.053    0.050
        99  -8.7962    101.2697     49.4439   5.8725457064e+01   5.2395139019e+01    0.1871482    0.1301195  58.76 0.0009366799    1.547    0.354
       100  -9.9744    228.4794     36.5071   3.3843182376e+01   2.5507939357e+01     0.189228    0.1149293 -25.09  0.001022235    2.190    0.543
       101  -8.6101    194.3335     33.3323   3.6642772246e+01   3.3135748207e+01    0.1223829   0.09455713  37.98 0.0003839834    1.730    0.422
       102  -8.2668     26.7032     33.6750   8.1451593899e+01   6.7356213248e+01    0.1290774   0.07842417 -13.98 0.0002520327    1.626    0.385
       103  -8.5733    177.5471    242.4724   8.5220986492e+01  -1.3210636604e+00    0.1294235    0.1077112   8.92 0.0001379373    1.003    0.003
       104 -10.7263    226.8870     29.9182   3.2638164782e+01   2.6640557843e+01    0.2487509     0.161168 -41.67 0.0009795304    1.461    0.316
       105 -11.1194    230.8369     27.8589   3.1886405805e+01   2.6096724222e+01    0.2054482    0.1541086  88.89  0.001391457    1.216    0.177
       106  -9.1742    126.9510     30.8425   4.6256970055e+01   4.9043392541e+01    0.3404722    0.1588876  75.20  0.001278059    3.119    0.679
       107 -11.1950    229.6289     23.2658   3.1067830005e+01   2.6877704742e+01    0.2767695    0.1660381 -23.96  0.001556007    2.307    0.567
       108  -9.1121    155.5374    241.3596   8.9687712431e+01   2.0430503712e+00    0.2096605    0.1316059 -53.66  0.001020487    1.950    0.487
       109  -8.9012    184.9900    241.4841   8.3537083580e+01  -2.2030718599e+00    0.1715182    0.1000674  49.20 0.0008099204    2.504    0.601
       110  -9.5084    193.9698    238.4932   8.1237815445e+01  -2.9622424708e+00    0.1712675    0.1010287  49.24 0.0008101686    2.596    0.615
       111 -11.1224    250.4230     25.7515   2.9976296898e+01   2.2587646954e+01    0.3982817    0.1660261 -31.33  0.001977935    2.822    0.646
       112 -10.0995    203.6747    232.6196   7.8333099956e+01  -3.3478876281e+00    0.2287459    0.2172348  34.91 0.0003721824    1.490    0.329
       113 -10.4156     30.3137     28.3590   7.7408793325e+01   6.7770738176e+01    0.2377177    0.1779861   1.62 0.0007562581    1.114    0.102
       114  -8.5772     42.2099     27.9304   7.1571646232e+01   6.6240238059e+01    0.1533545    0.0918857 -33.30 0.0005210174    1.659    0.397
       115  -8.8456     68.3964     24.7102   5.9680550254e+01   6.2281123517e+01    0.2246348    0.1155474 -33.83  0.001121031    2.116    0.527
       116  -8.7734    206.4731    226.4839   7.6735584412e+01  -2.7405692495e+00    0.1296671    0.1067054  -2.73 0.0008098036    1.016    0.016
       117  -9.1905    218.4969    224.9901   7.4161783869e+01  -4.1279267258e+00    0.2228449    0.1645697  67.20  0.001051459    3.534    0.717
       118 -10.8605    234.7707     19.9786   3.0023524413e+01   2.6239717565e+01    0.1673701    0.1395036 -78.57  0.000763563    1.123    0.109
       119  -8.8997     84.5675     21.4776   5.3200885450e+01   5.9453044336e+01    0.1279103    0.1104817  34.35 0.0001226052    1.030    0.029
       120  -8.0716      9.3113     18.3083   8.4284090770e+01   7.1525294444e+01    0.1216716   0.06883068 -15.42 0.0003062998    1.621    0.383
       121  -9.6819     56.0141    216.8605   1.0912988081e+02   2.1315670136e+01     0.212771    0.1656153 -80.40 0.0007748165    1.254    0.203
       122  -8.6482    101.8903    214.7018   9.7994748331e+01   1.5485891346e+01    0.2294219    0.1154678  11.66 0.0003640148    4.558    0.781
       123  -8.9890    226.2336    213.1798   7.0620598910e+01  -3.2765595807e+00    0.1593227    0.1458105 -25.49  0.001060601    1.358    0.263
       124  -8.7295    208.6901    212.3390   7.3795395561e+01  -6.9593547936e-01    0.1160621    0.1084486 -84.56 0.0007044433    1.688    0.407
       125  -8.5882    241.6822    210.3196   6.7343579260e+01  -4.8425220837e+00    0.1068805    0.0978243 -50.78 0.0007041549    1.661    0.398
       126  -8.6402    200.3619    210.6992   7.5146873122e+01   8.0636974728e-01    0.1217709    0.1087663  67.61 0.0007035835    1.722    0.419
       127  -8.4973    250.6346    202.2675   6.4363976791e+01  -4.7238804880e+00     0.102338   0.09772872 -56.42 0.0005254175    1.654    0.395
       128  -8.5558    228.3561    201.6933   6.8126366208e+01  -1.6889795324e+00    0.1131192    0.1053866 -78.47  0.000505052    1.722    0.419
       129  -8.9622    132.8189    199.0262   8.8045990501e+01   1.4029137056e+01    0.1896719    0.1796179   3.65  0.001073833    1.031    0.031
       130  -9.8233    222.9379    188.1280   6.6540800412e+01   1.3994073119e+00    0.1799181    0.1688665 -30.42            0    1.281    0.219
       131  -8.6597    215.2294    186.9893   6.7754529222e+01   2.7696163902e+00    0.1788111    0.1008343 -38.90 0.0006767585    1.601    0.375
