#   1 NUMBER                 Running object number                                     
#   2 MAG_AUTO               Kron-like elliptical aperture magnitude                    [mag]
#   3 X_IMAGE                Object position along x                                    [pixel]
#   4 Y_IMAGE                Object position along y                                    [pixel]
#   5 X_WORLD                Barycenter position along world x axis                     [deg]
#   6 Y_WORLD                Barycenter position along world y axis                     [deg]
#   7 A_WORLD                Profile RMS along major axis (world units)                 [deg]
#   8 B_WORLD                Profile RMS along minor axis (world units)                 [deg]
#   9 THETA_WORLD            Position angle (CCW/world-x)                               [deg]
#  10 FWHM_WORLD             FWHM assuming a gaussian core                              [deg]
#  11 ELONGATION             A_IMAGE/B_IMAGE                                           
#  12 ELLIPTICITY            1 - B_IMAGE/A_IMAGE                                       
         1 -15.5876    175.5154     88.1820   5.9180249083e+01   2.8677481430e+01     4.245345     3.597697 -15.80   0.02163366    1.363    0.267
         2 -12.3633    128.3726     72.2005   6.5179825653e+01   4.2807540265e+01    0.8016064    0.4262121 -27.98  0.003103882    2.284    0.562
         3 -14.6239    156.2412     83.1327   6.1804460943e+01   3.4211065377e+01     1.783338     1.223238  -8.21  0.007344759    2.232    0.552
         4  -9.7822     40.9281     14.0120   7.2239368947e+01   6.8592676312e+01    0.1846845     0.141862   5.93 0.0004215454    1.058    0.055
         5 -11.6813    166.5459    248.7528   9.4661392368e+01  -8.4303977095e-01    0.4712825    0.3280224  25.37  0.002839063    1.256    0.204
         6 -10.5939    167.9062    242.6573   9.3508525164e+01  -8.7899669509e-02    0.2471253    0.1853111  33.26  0.000658271    1.139    0.122
         7 -10.4051    159.9746    243.9580   9.5300859293e+01   9.2438234300e-01     0.194874    0.1692104  28.92 0.0008085693    1.054    0.051
         8  -9.8888    250.1932    241.7842   7.7897984017e+01  -1.1466514797e+01    0.1676092    0.1071483  -0.70  0.001076323    1.356    0.263
         9 -10.6819    236.9143    240.0809   7.9927759318e+01  -9.5938729315e+00    0.3247418    0.1461314  29.56  0.001717028    2.017    0.504
        10  -8.8765    100.4996    234.5240   1.0645525000e+02   1.1822276900e+01    0.1289215    0.1104192  50.88 -4.828212e-05    1.024    0.024
        11 -10.8148    237.2461    231.7254   7.8462348804e+01  -8.5255764324e+00    0.1969568    0.1718028   3.76  0.001036419    1.274    0.215
        12  -9.0025    170.7704    232.2245   9.1346790581e+01   1.1708922007e+00    0.1717772    0.1338219   7.77 0.0002342284    1.302    0.232
        13 -11.5615    247.1836    228.8263   7.6222508747e+01  -9.4249092263e+00     0.320907    0.2280378   8.94  0.002130775    1.184    0.155
        14  -9.3695     73.4444    229.2901   1.1159904399e+02   1.6772491840e+01    0.2301508   0.09940296  37.36 0.0008239851    2.065    0.516
        15 -10.5363    164.6148    226.3393   9.1699042487e+01   3.1633366578e+00    0.3787736    0.3031169  21.01  0.002253687    1.150    0.130
        16  -9.8383    160.5110    226.9872   9.2661682895e+01   3.7161867996e+00    0.2501081    0.2080225  12.86  0.001063774    1.179    0.152
        17  -9.3363    130.2243    228.3480   9.9319185074e+01   8.3823623282e+00    0.1773256    0.1641943  21.43  0.001120585    1.127    0.113
        18 -10.4572     87.5570    227.3697   1.0839991763e+02   1.5164762672e+01    0.3428853    0.2589021 -21.92  0.001873001    2.117    0.528
        19  -9.8416     50.3784    227.5943   1.1623234189e+02   2.0142404225e+01    0.2578716   0.05591135  45.72 0.0009523057    3.445    0.710
        20  -8.9162    171.1204    225.6718   9.0236270301e+01   2.2251315082e+00    0.1746446    0.1456849  23.58  0.000313129    1.046    0.044
        21 -10.3601     99.4228    225.7908   1.0565622397e+02   1.3719907410e+01    0.3074442    0.2287114  30.27  0.001330454    1.390    0.281
        22 -11.1989    125.6456    221.3759   9.9336202291e+01   1.0470723363e+01    0.4243077    0.3508447 -33.36  0.001650079    1.438    0.305
        23  -8.8702    157.4675    221.5341   9.2449126113e+01   5.1928332628e+00    0.1351385    0.1192285  26.16 0.0001081456    1.005    0.005
        24  -9.2047     83.8214    220.6149   1.0845217802e+02   1.7110535694e+01    0.1982586    0.1002381  47.02 0.0009464414    1.741    0.426
        25  -9.1380     75.0328    220.2164   1.1032623942e+02   1.8447760143e+01    0.1731816   0.09578986  37.42  0.000845579    1.683    0.406
        26  -9.9155     99.9734    216.9454   1.0443426541e+02   1.5461668775e+01     0.310188     0.212692  40.76  0.001518866    1.318    0.241
        27  -8.7220    144.2949    217.6100   9.4680027119e+01   8.1219806416e+00    0.1377978    0.1039535  72.52  0.000701106    1.780    0.438
        28  -9.8058     62.5357    217.5144   1.1276118332e+02   2.0727886094e+01    0.2425415   0.08726346  45.29  0.001033465    2.366    0.577
        29 -10.0019    131.6570    214.6687   9.7021597190e+01   1.0813721673e+01    0.4310956    0.1747062  32.04  0.001614704    2.595    0.615
        30  -9.2085     57.3277    212.6422   1.1341706216e+02   2.2469910470e+01    0.1425247   0.08077104  66.32 0.0006732612    1.783    0.439
        31  -9.4167     87.2516    210.4022   1.0647724197e+02   1.8800313825e+01    0.2550403     0.125108  33.16  0.001133338    2.057    0.514
        32  -8.8341    135.9939    208.9782   9.5166414730e+01   1.1229525693e+01    0.1608872    0.1569624  40.51 0.0004312979    1.067    0.063
        33  -9.4013     47.3176    209.6440   1.1532109139e+02   2.4383991933e+01    0.1401453   0.07856327  66.78 0.0007045452    1.750    0.429
        34 -10.5503    101.5968    206.9407   1.0273453394e+02   1.7349819916e+01    0.5326021     0.256501  38.45  0.002351349    1.902    0.474
        35 -10.3776    124.0019    205.9556   9.7422563892e+01   1.3889677451e+01    0.1961656    0.1815581  46.68            0    1.009    0.009
        36 -10.4507     57.1178    205.7095   1.1277116833e+02   2.4042230504e+01    0.2623233    0.1619808  60.95 0.0009384419    1.525    0.344
        37  -9.5123    133.4421    204.5053   9.5029334321e+01   1.2584589575e+01    0.3037784    0.1308789  37.02  0.001208884    2.163    0.538
        38 -13.1367    247.9299    196.3668   7.0220167794e+01  -4.9057901651e+00     1.196624    0.6193944 -48.93   0.00557769    2.722    0.633
        39 -12.8638    248.7213    162.3294   6.3400272608e+01   3.6095648285e-01     1.217637    0.8232063 -44.40   0.00679154    1.475    0.322
        40 -12.1487    248.2266    170.6896   6.5168142058e+01  -9.2526648195e-01    0.6578417    0.4725392 -15.68   0.00382511    1.312    0.238
        41  -9.5252     73.4960    202.4887   1.0867366645e+02   2.2564574900e+01    0.1359369    0.1177164  70.28 0.0004862769    1.013    0.013
        42  -9.6354     49.0139    202.0225   1.1422607199e+02   2.5894078129e+01    0.2218473    0.1289452  66.71  0.001134621    1.704    0.413
        43 -12.1715     90.1417    198.9925   1.0432358119e+02   2.0907500620e+01    0.5062273    0.3609979  36.33  0.001550061    1.388    0.279
        44  -9.8793    153.3163    199.8204   8.9728675757e+01   1.0067327114e+01    0.4870838    0.2381916  26.35  0.001865518    2.571    0.611
        45 -10.0316    127.0183    197.8979   9.5440004335e+01   1.5091494997e+01    0.3078617    0.2871937  -1.16  0.001688556    1.183    0.154
        46 -10.5932    115.0103    198.5265   9.8364636734e+01   1.7004326342e+01    0.5887216    0.2473883  35.34  0.002295026    2.323    0.569
        47 -10.0143     61.1844    199.1866   1.1114806623e+02   2.5000255194e+01    0.1960586    0.1369887  65.91 0.0007110137    1.350    0.259
        48  -9.1132    180.2383    198.6399   8.3630047573e+01   5.5479595019e+00    0.2071497    0.1220993  27.61 0.0009476149    1.752    0.429
        49 -10.0312    173.2026    195.2444   8.4505215522e+01   7.4317165437e+00    0.4176023    0.2204923 -34.00  0.001782212    2.146    0.534
        50 -11.3347    104.3711    194.7101   1.0031131633e+02   1.9622206882e+01     0.359591    0.2689773  43.30  0.001892168    1.256    0.204
        51 -11.6323     66.9434    194.9706   1.0931212875e+02   2.5205097862e+01    0.3893144    0.2341201  66.28  0.001668476    1.779    0.438
        52 -11.5453     78.5754    193.4192   1.0633831431e+02   2.3923855097e+01    0.3014735    0.2400436  70.21  0.001262004    1.199    0.166
        53 -10.2433     43.8669    193.2803   1.1453985459e+02   2.8528072978e+01    0.3034589    0.1632268  86.89  0.001450686    1.976    0.494
        54 -12.1293     95.3500    173.8922   9.9246302410e+01   2.5981569713e+01    0.5203145    0.3981291  73.08  0.002617214    1.431    0.301
        55 -12.5162     87.0166    188.8477   1.0365898066e+02   2.3731234608e+01    0.6444358    0.3740171  59.80  0.002643747    1.928    0.481
        56 -13.5167     95.1178    185.8629   1.0121876420e+02   2.3163720876e+01     1.186076    0.7056087  59.40  0.005283514    1.905    0.475
        57 -11.8190     88.8785    177.4225   1.0147807933e+02   2.6164802456e+01    0.4165423    0.3144104  51.31  0.001845716    1.290    0.225
        58 -11.5513     83.6718    182.7072   1.0359766396e+02   2.5697684070e+01     0.376954    0.2924098  58.00  0.001367018    1.248    0.199
        59 -12.5872     78.1109    176.4485   1.0408361134e+02   2.8042321541e+01    0.6952958    0.3511421  46.93   0.00221527    1.960    0.490
        60 -10.0149    141.6888    189.5948   9.0571724851e+01   1.4275157569e+01    0.5929044    0.3306634  14.07  0.002003184    3.583    0.721
        61  -9.7505    132.1459    189.2369   9.2758800350e+01   1.6071611901e+01    0.4539167    0.1990315  28.66  0.001573194    2.949    0.661
        62  -9.4489    157.3927    188.2581   8.6702216903e+01   1.1688262213e+01    0.3129492    0.1683109  27.75  0.001265208    2.147    0.534
        63 -10.6925    122.0632    186.6095   9.4722574508e+01   1.8446294627e+01    0.4403484    0.3478567 -11.34  0.002186033    1.674    0.403
        64 -12.1138    110.5440    186.0851   9.7446335544e+01   2.0561935503e+01    0.7827362    0.4252501  42.99  0.002826595    1.747    0.428
        65 -13.1462    105.0948    176.1717   9.7137795845e+01   2.3810174933e+01    0.8315741    0.6558573  60.84   0.00426607    1.304    0.233
        66 -11.4984     55.1225    186.8783   1.1118983703e+02   2.8670207692e+01    0.4573016    0.2429923  72.22  0.001756117    2.287    0.563
        67  -9.5845     34.2621    187.0229   1.1616574735e+02   3.1078745587e+01    0.3010822     0.133208  89.47  0.001260009    2.600    0.615
        68 -11.3339     66.1498    184.8986   1.0825720354e+02   2.7695662051e+01    0.3210164    0.2095287  85.85  0.001133441    1.654    0.395
        69  -9.7479     15.0526    185.0356   1.2040782125e+02   3.3453551627e+01    0.3671627    0.2142126 -37.65  0.001859186    2.713    0.631
        70  -9.4478    229.6508    185.3431   7.1299948994e+01  -4.1657320980e-01    0.1237343    0.1076985 -73.81 0.0007043435    1.803    0.445
        71 -11.8650     74.7465    184.2965   1.0605030153e+02   2.6635937665e+01    0.3875551    0.2559586  64.92  0.001274134    1.601    0.376
        72 -10.7162     44.2542    182.2631   1.1330424481e+02   3.1094088793e+01    0.3007095    0.1924956 -87.88  0.001199994    1.481    0.325
        73  -8.8159    212.2127    182.6504   7.4024426119e+01   2.9179910639e+00     0.187858    0.1211492  27.29 0.0008641417    1.613    0.380
        74  -9.5995    151.0655    181.1162   8.6797180587e+01   1.4363019828e+01    0.6038366    0.2679168  22.97  0.001591637    5.328    0.812
        75  -9.7919    130.7592    177.9626   9.1050288137e+01   1.8835439787e+01    0.3766021    0.2241509  35.59  0.001642917    1.674    0.403
        76 -11.8402     60.0360    176.5876   1.0871218723e+02   3.0525124557e+01    0.4148401    0.2835536  89.91  0.001764316    1.481    0.325
        77  -8.5121     13.3243    176.9781   1.2017100154e+02   3.5496617592e+01    0.2163458   0.07511096  81.08 0.0007050037    4.395    0.772
        78  -8.6183    204.4990    176.5148   7.4289981186e+01   5.3706086477e+00    0.1429608    0.1266817  -7.81 -8.714398e-05    1.030    0.029
        79 -10.9254     81.2299    202.0190   1.0681679811e+02   2.1558406401e+01    0.3883599    0.1734354  41.17  0.001627482    2.026    0.506
        80  -9.4210    135.7269    172.6090   8.8811447356e+01   1.9123626698e+01    0.2742914    0.1876646  47.73  0.001009506    1.471    0.320
        81 -10.1776     44.7211    171.7561   1.1199771296e+02   3.3594150871e+01    0.2816982    0.1435843  83.86  0.001175907    2.449    0.592
        82 -11.7707    123.1281    170.2667   9.1491285687e+01   2.2009112747e+01    0.5367849    0.3203453  44.96  0.001587109    1.654    0.396
        83 -11.2444     69.0298    170.3244   1.0553278356e+02   3.0851675474e+01    0.2875526    0.2035349 -80.72  0.001453598    1.407    0.289
        84  -9.0064    152.4642    170.5105   8.4363821968e+01   1.6390345136e+01    0.2884593    0.1428762  29.06  0.001036618    2.535    0.606
        85 -11.6068     89.0563    168.8971   1.0005112591e+02   2.8212701040e+01    0.3415163    0.2925289  39.04  0.001093386    1.203    0.169
        86 -11.5112     74.8055    168.4381   1.0373293866e+02   3.0495905025e+01    0.3577069    0.2333647 -62.99  0.001618259    1.458    0.314
        87 -12.0235     54.9844    168.1786   1.0890432260e+02   3.3244293835e+01    0.5887685    0.2693842 -74.01  0.002438985    2.230    0.552
        88 -12.0220    112.3053    167.5459   9.3739797717e+01   2.4612682407e+01     0.439202    0.3256837  84.41  0.001437446    1.700    0.412
        89 -11.5285     78.1627    146.3400   9.9066186483e+01   3.5544858796e+01     0.489195    0.2558593 -52.39  0.001837284    1.811    0.448
        90 -12.5018     99.5170    166.4964   9.6883266908e+01   2.7086228425e+01    0.6879848     0.399495  43.50   0.00216849    1.699    0.412
        91 -12.9182     93.7636    160.0866   9.7259333885e+01   2.9622340929e+01    0.6822733    0.5853872  52.87  0.002581897    1.164    0.141
        92 -12.6870     79.4224    162.1278   1.0149064729e+02   3.1382172429e+01    0.9093622    0.4820508 -80.90  0.003437504    2.650    0.623
        93 -13.0602     82.3020    153.9708   9.9292450964e+01   3.2985806986e+01    0.8006293    0.5338967 -66.44  0.003107108    1.474    0.322
        94 -10.0491    140.9674    166.2231   8.6251102008e+01   1.9569509680e+01    0.4461989    0.2623036  52.36  0.001839753    1.901    0.474
        95  -8.7699    161.3051    165.3505   8.1224792000e+01   1.5781524811e+01    0.1577263    0.1183336  -7.86 0.0007041601    1.704    0.413
        96 -12.1005     69.9949    162.3759   1.0407649739e+02   3.2695504375e+01    0.5328243    0.2878126 -68.39  0.002153478    1.818    0.450
        97 -10.5413     47.3750    163.1639   1.1024382083e+02   3.5414259914e+01    0.4454868     0.119597 -67.83  0.001475225    3.401    0.706
        98  -9.6870     37.5107    164.0481   1.1293992559e+02   3.6296882863e+01     0.213066    0.1174087 -73.71  0.001037185    1.611    0.379
        99 -11.2741     62.0200    160.0004   1.0587150732e+02   3.4382244527e+01    0.4160106    0.2217699 -79.23  0.001747713    2.128    0.530
       100 -12.7418    106.4708    158.1384   9.3476045325e+01   2.7924431217e+01    0.7593783    0.4874323  54.05  0.002651327    1.702    0.412
       101 -12.2704     98.8712    150.2679   9.3990647679e+01   3.1192962531e+01    0.6646659    0.2927599 -50.15  0.002478827    2.209    0.547
       102  -9.4539    129.0175    159.5074   8.7854970553e+01   2.3422319382e+01    0.2404212    0.1498715  41.28  0.001030913    1.591    0.371
       103 -12.3544    119.6708    156.3716   8.9624743134e+01   2.5941096335e+01    0.5795431    0.4830573  81.53  0.001850976    1.377    0.274
       104  -9.5892    219.0597    156.0066   6.7188038098e+01   6.5080442732e+00    0.2054232    0.1868513 -29.27 0.0003675377    1.075    0.069
       105  -9.5914    145.6713    155.7432   8.2884892461e+01   2.1017264207e+01    0.3266018    0.2082782  50.87  0.001234214    1.678    0.404
       106 -11.0002     49.5091    153.9995   1.0841798651e+02   3.7464157786e+01    0.5709525    0.2841735 -80.97  0.002222784    2.279    0.561
       107 -12.7486    249.5582    152.2697   6.1205456997e+01   1.8895014491e+00      1.60787    0.7173506 -49.39  0.006668724    2.669    0.625
       108 -10.9897    134.4514    153.6588   8.5233196779e+01   2.3731006004e+01    0.4643341    0.3771024  57.78  0.001490546    1.321    0.243
       109 -11.5437     67.9670    153.5466   1.0321596860e+02   3.5202755218e+01    0.4988245    0.3177784  80.18  0.001883777    1.994    0.498
       110 -11.8407     91.4092    150.7737   9.6161803371e+01   3.2328824462e+01    0.5012707    0.3296645 -61.65  0.001872914    1.491    0.329
       111 -13.3577    118.5629    123.9341   8.2565960209e+01   3.3923163649e+01    0.9413599    0.6041337 -54.37  0.003575168    1.584    0.369
       112 -13.7987    107.7550    143.7851   9.0186882404e+01   3.1209846182e+01     1.295178    0.7789346 -65.95  0.004227008    1.929    0.482
       113 -12.6727    113.2309    132.3089   8.6081078095e+01   3.2974308196e+01    0.6987869    0.4687438 -47.27  0.002962014    1.459    0.315
       114  -9.2627     28.9829    150.2289   1.1356166066e+02   4.0597134058e+01    0.2514791    0.1108086  71.82 0.0008917672    3.601    0.722
       115 -10.3716     39.5357    147.4662   1.1027898416e+02   4.0232438006e+01    0.5092185     0.265498  83.25  0.002096566    2.554    0.609
       116 -11.5086     56.1372    145.4624   1.0524911524e+02   3.8820752976e+01    0.6632606    0.3685792  78.95  0.002612629    2.696    0.629
       117 -11.3660     56.1799    138.1213   1.0401076579e+02   4.0682692384e+01    0.4935196    0.2744548 -38.33  0.002112324    2.207    0.547
       118 -11.3943    150.2692    145.8185   7.9540644986e+01   2.2320700841e+01    0.6502507    0.3980462  63.71  0.002099895    2.371    0.578
       119 -11.9912     88.0449    143.7552   9.5737628298e+01   3.4640427937e+01     0.517765     0.361314 -75.67  0.001695854    1.604    0.376
       120 -11.9214     88.7834    137.9977   9.4350340710e+01   3.5963535273e+01    0.4271399    0.3207904  24.21  0.001748174    1.525    0.344
       121  -8.5339     13.3086    146.6519   1.1740610402e+02   4.2831403812e+01    0.1353937   0.08203557  70.72 0.0007044101    1.707    0.414
       122 -10.9203    138.6030    144.9320   8.2239214163e+01   2.4923578990e+01    0.3098726    0.2321963  51.13 0.0007684285    1.394    0.282
       123 -12.7878    124.8704    142.3524   8.5221244967e+01   2.8289911758e+01      0.76685    0.5553873 -84.24  0.002948147    1.918    0.479
       124 -10.8286    197.1653    143.0802   6.8509976621e+01   1.3172442884e+01    0.2834458    0.2465403 -47.53 0.0004792156    1.157    0.136
       125 -11.3128     99.5308    141.1813   9.1933374933e+01   3.3331797108e+01    0.4064145    0.1983243 -45.07  0.001495292    2.119    0.528
       126 -11.8533     68.8839    139.2364   1.0044375680e+02   3.8705453626e+01    0.7098203    0.3757122 -85.85   0.00246421    3.232    0.691
       127 -11.1935     69.2005    134.2010   9.9392016115e+01   3.9938317307e+01      0.32357    0.2623976 -24.82  0.001674826    1.458    0.314
       128 -13.0469    249.0376    181.8107   6.7234343766e+01  -2.8224214055e+00     1.162401    0.5076379 -33.94  0.005427598    2.008    0.502
       129 -11.2076     81.3123    138.3857   9.6615212033e+01   3.7069376241e+01    0.5994722    0.2008739 -55.82  0.002014448    2.722    0.633
       130 -11.9101     83.4334    131.4821   9.4555048361e+01   3.8469260482e+01    0.6164184    0.4050269 -73.04  0.001800976    1.750    0.428
       131 -12.0009     83.7159    123.2835   9.2660522110e+01   4.0467758518e+01    0.6641863    0.4507227  -6.58  0.002760698    2.314    0.568
       132  -9.5491    173.6878    139.4428   7.2601108121e+01   1.8786349173e+01    0.2878567    0.1517105  49.76  0.001123358    2.040    0.510
       133  -9.9296     23.2936    138.0516   1.1364422071e+02   4.4153859137e+01    0.4097183    0.1925242  77.40   0.00160327    3.083    0.676
       134 -10.6917    138.7803    138.4380   8.0688318280e+01   2.6386873232e+01    0.3028781    0.1524262  46.32 0.0009767972    2.042    0.510
       135 -10.3915     39.1398    136.2466   1.0876886148e+02   4.3110631474e+01     0.266389    0.1601592  80.98 0.0008805215    2.037    0.509
       136 -13.1964    132.6321    130.7182   8.0430000544e+01   2.9451001933e+01     1.217243    0.4820192 -46.56  0.003942593    2.481    0.597
       137 -12.7609    122.9055    109.9863   7.7741194627e+01   3.6250132647e+01    0.8115027    0.5239258 -24.93  0.003246133    2.046    0.511
       138 -13.4312    141.8988    117.4780   7.4690483156e+01   3.0472629479e+01     1.357551    0.5657341 -42.19  0.004055266    2.400    0.583
       139 -12.7102    129.1663     99.9141   7.3250460410e+01   3.7113910173e+01    0.8063269    0.5335874 -27.80  0.003296687    1.783    0.439
       140 -13.0929    139.0496     90.4992   6.7983348898e+01   3.6835041873e+01     1.012807    0.5307089 -46.85  0.003958196    1.955    0.489
       141 -13.6170    141.0438     78.4549   6.3938860657e+01   3.8696828085e+01     1.395825    0.5905712 -33.65  0.004850872    2.651    0.623
       142 -10.7297    246.1409    247.7149   7.9567811834e+01  -1.1707984310e+01    0.4016603    0.1755247  32.51  0.002212371    2.096    0.523
       143 -11.3302     92.3941    111.8475   8.7217245058e+01   4.1779058858e+01    0.7462503    0.3646542 -62.42  0.002641814    2.614    0.617
       144 -11.1458     92.8082    104.7854   8.5243800723e+01   4.3373714991e+01    0.6325775     0.352676  20.20  0.002317847    2.725    0.633
       145 -11.2914     78.9170    111.9925   9.1511670404e+01   4.4014579170e+01    0.7016903    0.3988144 -75.87  0.002541704    2.892    0.654
       146 -10.5071     14.2407    109.5496   1.1248288717e+02   5.1907314042e+01    0.4923242    0.2441293 -75.49  0.002369016    1.840    0.457
       147 -10.9864     66.4920    110.6376   9.5238733180e+01   4.6215535537e+01    0.3858113     0.267278  76.45  0.001725746    2.104    0.525
       148  -9.4637     23.1546    131.2372   1.1279339076e+02   4.5868375177e+01    0.2335975     0.102635 -39.85   0.00095264    2.855    0.650
       149 -10.9057     66.4098    105.7658   9.4111104320e+01   4.7413268253e+01    0.3710132    0.2054996 -37.27  0.001312929    1.979    0.495
       150 -11.2320     45.4660    102.2194   1.0048071791e+02   5.0930367730e+01    0.7362216    0.4097946  70.77  0.002661876    3.790    0.736
       151 -10.9945     22.8748    102.5214   1.0841733620e+02   5.2989093706e+01    0.7261097    0.3752328  73.87   0.00282044    3.567    0.720
       152 -10.2180     21.1404     93.0496   1.0726678224e+02   5.5396327177e+01     0.442874    0.1596735 -43.92  0.001824852    2.543    0.607
       153 -11.9656    108.2262     98.3194   7.8725263016e+01   4.1895577405e+01    0.8383194    0.5440359  83.03   0.00289925    3.313    0.698
       154 -11.3118    108.5468     92.1080   7.6830475418e+01   4.3185536590e+01     0.639308    0.3495146  26.80  0.002344925    2.552    0.608
       155 -10.1296     81.9129     99.8089   8.7413681448e+01   4.6428682952e+01    0.4004437    0.2536614 -77.02  0.001562656    2.593    0.614
       156 -10.1740     82.7182     94.1539   8.5589296650e+01   4.7593641507e+01    0.3587133    0.2111604 -22.94  0.001377605    2.521    0.603
       157 -10.9641     63.7983     95.9962   9.2558802227e+01   5.0112223255e+01    0.5409803    0.3468479  89.82  0.002132257    2.942    0.660
       158 -10.2981     94.8784     96.7980   8.2390813655e+01   4.4827187852e+01    0.3178704       0.2138 -59.44  0.001034382    1.662    0.398
       159 -10.0509     96.5051     91.2067   8.0262602379e+01   4.5762284163e+01    0.4954728    0.3098901 -10.43  0.001817698    2.853    0.650
       160 -10.2642     43.6180     93.0531   9.9048712023e+01   5.3329721667e+01    0.3667825     0.194624 -33.08  0.001610304    2.152    0.535
       161 -13.0865    125.0924     87.7485   7.0817989958e+01   4.0555440841e+01     1.105088    0.6542744 -20.70  0.004086517    2.563    0.610
       162 -10.4797      4.5817     91.0091   1.1289391829e+02   5.6928626407e+01    0.4474912    0.1860857 -74.60  0.002028493    2.244    0.554
       163 -10.5127      8.0991     84.1459   1.1041155638e+02   5.8339066204e+01    0.4000624    0.1956131 -34.59  0.001339479    2.071    0.517
       164 -10.2907     34.7409     89.3005   1.0144943702e+02   5.5123241792e+01    0.5054069    0.2595215 -75.36  0.002103954    2.619    0.618
       165 -10.0520     36.0088     82.2564   9.9279630070e+01   5.6631249765e+01    0.4852788     0.183624 -37.25   0.00180743    3.042    0.671
       166 -11.8471     73.0950    127.0654   9.6761847155e+01   4.1174996715e+01    0.6855305    0.3144626 -52.49  0.002724645    1.981    0.495
       167 -10.4597     86.6819     86.9414   8.2179828714e+01   4.8507047306e+01    0.3961335    0.2840108  78.92  0.001294947    2.366    0.577
       168 -10.4789     64.7629     87.2165   8.9846808834e+01   5.1997971264e+01    0.3664142     0.215893  -6.54  0.001400101    2.978    0.664
       169 -10.2840     48.5483     84.5389   9.5081974319e+01   5.4745274506e+01    0.4067133    0.2571626  66.22  0.001690216    2.875    0.652
       170  -9.9948     48.9563     77.6859   9.3043160829e+01   5.6233718158e+01    0.4507571    0.2258259 -28.29   0.00182061    2.611    0.617
       171  -9.6812    181.3804    134.9308   6.9862131923e+01   1.8092667665e+01    0.3061474    0.2288893  35.62   0.00136783    1.429    0.300
       172 -10.8469    104.2288     82.2702   7.5157327121e+01   4.6132178103e+01    0.5244378    0.3329016 -68.27  0.002030203    2.603    0.616
       173 -10.8944    105.2493     76.8633   7.3145764664e+01   4.7008917891e+01    0.4923177    0.2501832  34.23  0.001896415    2.260    0.558
       174 -10.6689     87.7011     80.2364   7.9793839989e+01   4.9753580551e+01    0.5752479    0.2670663  24.15  0.001825826    3.772    0.735
       175  -9.5461     74.6793     80.6860   8.4398732721e+01   5.1912245634e+01     0.283573    0.1776352 -68.70  0.001163643    2.484    0.597
       176 -10.9919    119.5317     78.1372   6.9409473231e+01   4.3694626593e+01     0.478365    0.3133734 -26.93  0.002092169    1.741    0.425
       177  -9.4817     12.5649    129.1449   1.1565107350e+02   4.7205964796e+01    0.3133913    0.1394726  86.33  0.001267082    2.862    0.651
       178  -9.2480     61.7530     77.1269   8.8010950242e+01   5.4659998328e+01    0.3632954    0.1742575 -63.80  0.001277947    3.390    0.705
       179  -9.4975    196.3485    248.3099   8.8757853984e+01  -5.1790468849e+00    0.1282756   0.08164788   5.92 0.0007044851    1.711    0.416
       180  -9.1804     10.0005     74.7597   1.0781994595e+02   6.0374735159e+01    0.1375908    0.1035864   5.56 0.0002761477    1.533    0.348
       181 -11.2494     59.7800    124.4829   1.0038478748e+02   4.3680563979e+01    0.7006614    0.3996087  81.91  0.002563477    3.184    0.686
       182 -10.0951    115.6214     71.4546   6.8379623465e+01   4.5823927992e+01    0.3762742    0.1448259 -35.18  0.001269759    2.851    0.649
       183 -10.1925     24.4227     80.6449   1.0340154452e+02   5.8037042686e+01    0.3549335    0.2205601 -82.00  0.001297314    2.110    0.526
       184 -10.0088     95.5025     71.5138   7.4442091994e+01   5.0026750626e+01    0.2666472    0.1361737 -52.13  0.001031966    2.366    0.577
       185 -10.3877     51.3745     69.3046   8.9603415160e+01   5.7736662716e+01    0.4966658    0.2352788 -64.57  0.001767069    3.664    0.727
       186 -11.3219    181.6116    125.9165   6.7640510464e+01   1.9889974952e+01    0.4561774    0.2390716  50.55  0.001712239    2.037    0.509
       187  -9.5265     16.5423     70.0418   1.0408433832e+02   6.1010132125e+01    0.2446003    0.1526482 -80.07  0.001253099    2.060    0.514
       188 -11.1626     43.6979    121.9041   1.0499276132e+02   4.6249978544e+01    0.9521919    0.4523397 -87.36  0.003129961    3.989    0.749
       189 -14.3566    152.7543     97.7425   6.6714335993e+01   3.2198659032e+01     1.966456     1.054309 -23.31  0.006604348    3.014    0.668
       190  -9.7184    106.3243     67.3302   6.9714906727e+01   4.8596018652e+01    0.1544779    0.1141543   7.27  0.000655714    1.701    0.412
       191 -11.4326    138.6728     64.0861   6.0102572621e+01   4.1803126809e+01    0.4255582    0.2924116 -17.38  0.001919246    1.824    0.452
       192 -11.2182    121.8869     63.4133   6.4054542831e+01   4.5851926346e+01    0.6037639    0.2687027 -27.58  0.002105236    2.947    0.661
       193 -10.3617     83.4824     64.7918   7.6162424171e+01   5.3603089697e+01    0.4180189    0.2483662   1.43  0.001527824    3.210    0.688
       194 -11.2045    174.1851    244.6162   9.2538279204e+01  -1.3557549005e+00    0.3877223    0.2923243 -78.60  0.002145941    2.440    0.590
       195 -10.5895     28.3640    122.0110   1.0986369195e+02   4.7727639847e+01    0.8011103    0.3569336  74.63   0.00234613    5.735    0.826
       196 -12.5108    153.6591    129.5883   7.4851334987e+01   2.5221484496e+01    0.7652776    0.4909275 -66.43   0.00299928    2.168    0.539
       197  -9.5972     13.4596    121.2827   1.1438715879e+02   4.9082629695e+01    0.4659907     0.073204 -49.12   0.00130987    5.651    0.823
       198  -9.9697     38.5145     58.9904   9.1624807659e+01   6.1399139178e+01    0.2454871    0.1208194 -21.51 0.0009869433    2.930    0.659
       199  -9.5345     17.7203     63.2199   1.0186683812e+02   6.2411333152e+01    0.2830035   0.08778464 -44.22  0.001170587    2.554    0.608
       200 -10.5694     70.7407    118.4936   9.5646018525e+01   4.3664673828e+01    0.4886268    0.2308524 -61.79  0.001904177    2.138    0.532
       201 -13.8408    132.3982    113.4449   7.6093889883e+01   3.3443153966e+01     1.814481    0.6293949 -38.77  0.005332207    3.358    0.702
       202  -9.8588     73.0717     58.7771   7.7748620483e+01   5.6569181964e+01    0.4653415    0.1736376 -47.79  0.001695469    2.977    0.664
       203 -11.4104    186.5992    116.9773   6.4414418757e+01   2.0591464441e+01    0.4740789    0.2668176  54.55  0.001846946    1.951    0.487
       204 -10.6235     26.9557     72.1131   1.0030285249e+02   5.9745931003e+01    0.7688147    0.2840182 -26.90  0.002266617    5.791    0.827
       205  -9.8032      2.3294    115.8180   1.1711586656e+02   5.1114991031e+01    0.4803249    0.1817936  86.66   0.00168231    4.096    0.756
       206  -9.7594    100.5145     54.4893   6.7041259421e+01   5.2061775156e+01    0.2479177    0.2275164  11.36 0.0005589671    1.035    0.034
       207  -9.5804     62.8502     54.6015   8.0104508322e+01   5.9004294610e+01     0.227827    0.1533335 -43.42 0.0009565234    1.481    0.325
       208  -9.3344     44.3202     55.6544   8.8036235982e+01   6.1385458201e+01    0.1210957    0.1063261  83.61 0.0007049474    1.730    0.422
       209  -9.2918     25.7754     55.3984   9.6069618587e+01   6.3396734075e+01     0.168181    0.1095335  -2.45 0.0005311841    1.663    0.399
       210 -10.4746      7.4579     57.7833   1.0497478249e+02   6.4230376482e+01    0.2220198    0.1600495 -84.26 0.0009315388    1.815    0.449
       211  -9.3550     54.3899     54.1823   8.3324746547e+01   6.0338513437e+01    0.1883289    0.1214443 -52.89 0.0009500643    1.780    0.438
       212 -10.3731     82.3352     72.8831   7.9264164767e+01   5.2230994144e+01    0.3533093    0.2463155 -69.44  0.001313845    2.214    0.548
       213 -12.9941    140.9572    101.6842   7.0678467329e+01   3.4099376213e+01     1.115842    0.6639372 -22.35  0.004087314    2.504    0.601
       214 -11.0216    170.3706    130.2997   7.1146454461e+01   2.1429431154e+01    0.5454624    0.2903558  49.86  0.001869472    1.991    0.498
       215  -9.6332     31.1035     51.7060   9.2481748086e+01   6.3629572549e+01    0.2479469    0.1977602 -85.35  0.001205098    2.036    0.509
       216  -9.5795     92.4734     50.4929   6.8090029678e+01   5.4376338432e+01    0.2558317    0.1252852 -46.74  0.001035408    2.445    0.591
       217 -11.9571    108.8285    113.5266   8.2694152832e+01   3.8306416653e+01    0.6361129    0.4092325 -64.86   0.00262074    1.909    0.476
       218 -10.1444     45.2986     49.7560   8.5530797184e+01   6.2385141685e+01    0.3050263    0.1670948 -20.49  0.001140348    2.243    0.554
       219 -10.3597    129.9666     46.6442   5.6509905331e+01   4.6609610851e+01    0.3437533    0.1959648  -8.84  0.001010658    2.920    0.658
       220  -9.6266     63.8755     47.4304   7.7028761316e+01   6.0112733294e+01     0.357201    0.1995587   3.57  0.001375003    3.231    0.691
       221  -8.7394     23.6252     46.7572   9.4261277877e+01   6.5300291094e+01    0.1275644   0.07811599 -19.31 0.0002728541    1.627    0.385
       222  -9.7917     16.9482     44.9901   9.6852814897e+01   6.6198588846e+01    0.1706926    0.1498431  72.48  0.001130361    1.750    0.429
       223  -9.9412      5.2520     42.1565   1.0168061275e+02   6.7541545634e+01    0.2861085    0.1777933 -73.98  0.001598842    2.206    0.547
       224  -9.9051    113.8267     41.6943   5.8751201862e+01   5.1083297596e+01    0.2265138    0.1895152  -2.51 0.0005050212    1.294    0.227
       225  -9.2554     53.9974     47.4861   8.1013366946e+01   6.1614071760e+01    0.2869224    0.1447087 -16.01  0.001041575    3.598    0.722
       226  -9.0794     37.2144     41.3886   8.5986910562e+01   6.4894187319e+01    0.1625177    0.1121388  34.08 0.0009326888    1.644    0.392
       227 -11.9604    108.8337    107.9871   8.1223949344e+01   3.9590676113e+01    0.5671536     0.400828  12.44  0.002409318    1.953    0.488
       228  -9.4666     84.0229     39.9879   6.6856406941e+01   5.7684453556e+01     0.214922    0.1797891  16.26 0.0005025422    1.112    0.101
       229  -9.8633    106.1427     37.1264   5.9129000301e+01   5.3441014699e+01    0.2163412    0.1728707  26.50 0.0004490126    1.240    0.194
       230  -8.9552     26.3172     36.6605   8.9319964502e+01   6.6918556063e+01    0.1062293   0.09927629  81.65 0.0007048811    1.707    0.414
       231 -10.0545     58.9544    114.9861   9.8690709051e+01   4.6165818904e+01    0.3129174    0.2094808 -30.41  0.001417627    1.748    0.428
       232  -8.8984     60.3223     32.6663   7.2474529825e+01   6.3043421998e+01    0.1164242    0.1067603 -79.60 0.0007050241    1.705    0.414
       233  -8.3188     44.2860     25.7063   7.6210656883e+01   6.6519480467e+01    0.1027317    0.1011105 -42.37 0.0002539119    1.542    0.352
       234 -11.7305    143.6779    132.0217   7.7907569074e+01   2.6824663674e+01    0.3925947    0.3400967 -86.68   0.00126661    1.345    0.256
       235  -8.8355    110.4868     24.5438   5.3371724272e+01   5.4010348008e+01    0.1363735    0.1196944  41.39 0.0001169711    1.019    0.018
       236 -13.3425     99.4034    124.3787   8.8182491650e+01   3.7492368463e+01     1.278002    0.5836554 -48.87   0.00477234    2.091    0.522
       237  -8.8664     84.5719     21.5194   5.9215943323e+01   5.9989664676e+01     0.130729    0.1136214  25.20 0.0001054093    1.014    0.014
       238  -9.1202     40.8288     21.1857   7.5719061325e+01   6.7650841173e+01     0.169317    0.1186931  -4.40 0.0003119674    1.303    0.233
       239  -9.2662     12.9535     21.4534   9.0067300156e+01   7.0744345773e+01    0.1607005    0.1014008  15.76 0.0006697141    1.572    0.364
       240  -9.3816     50.5231     15.9337   6.8956053714e+01   6.6889922460e+01    0.1759659   0.09367526  -5.53 0.0008083265    2.534    0.605
