#   1 NUMBER                 Running object number                                     
#   2 MAG_AUTO               Kron-like elliptical aperture magnitude                    [mag]
#   3 X_IMAGE                Object position along x                                    [pixel]
#   4 Y_IMAGE                Object position along y                                    [pixel]
#   5 X_WORLD                Barycenter position along world x axis                     [deg]
#   6 Y_WORLD                Barycenter position along world y axis                     [deg]
#   7 A_WORLD                Profile RMS along major axis (world units)                 [deg]
#   8 B_WORLD                Profile RMS along minor axis (world units)                 [deg]
#   9 THETA_WORLD            Position angle (CCW/world-x)                               [deg]
#  10 FWHM_WORLD             FWHM assuming a gaussian core                              [deg]
#  11 ELONGATION             A_IMAGE/B_IMAGE                                           
#  12 ELLIPTICITY            1 - B_IMAGE/A_IMAGE                                       
         1 -13.5110    196.4129     25.6458   6.9501411043e+01   3.2861262386e+01     1.715936     1.476881  28.87  0.007641733    1.365    0.267
         2 -13.4085    211.0464      7.3002   6.2779810995e+01   3.1114348061e+01     1.028922    0.8746101  64.75  0.004315539    1.202    0.168
         3 -12.5835      2.6303     16.5762   1.2501818274e+02   7.1885423235e+01     1.117092    0.2017338 -54.27  0.004531234    3.644    0.726
         4 -11.5152    102.5614    247.4015   1.3621076540e+02   1.2560063206e+01     0.388138    0.2131919  63.06  0.002321685    1.702    0.413
         5 -10.9825    238.3801    248.0249   1.1278061504e+02  -8.6871793857e+00    0.2906617    0.1892647 -44.04  0.001869906    2.443    0.591
         6 -10.9816    139.2005    249.9894   1.3006744004e+02   6.5558213295e+00    0.2590065    0.1357279  48.14  0.001511697    1.464    0.317
         7 -12.7324    125.6350    248.2279   1.3225961602e+02   8.9359884924e+00    0.7034262    0.4083607  39.57  0.004290074    1.491    0.329
         8 -10.2567     46.6015    248.9521   1.4571832491e+02   1.9831032786e+01    0.2509904     0.116473  72.11  0.001120732    1.951    0.487
         9 -14.2640     97.7059    228.3574   1.3526552398e+02   1.6436504079e+01     5.293174          nan  44.81   0.01158144   10.427    0.904
        10 -10.3736     82.3157    243.0999   1.3934751684e+02   1.6164318018e+01    0.3574412     0.158049  70.64  0.001716658    2.954    0.661
        11 -11.2660     12.7633    249.5963   1.5101493988e+02   2.3485612218e+01    0.5054974    0.1728079  44.32  0.003149534    2.181    0.542
        12 -10.6139     98.0255    249.0293   1.3714010428e+02   1.2967452622e+01    0.3030861    0.1224132  49.53  0.001632556    1.855    0.461
        13 -12.0758     11.8025    239.7531   1.5076277589e+02   2.5229924219e+01    0.5694147     0.216102  67.07  0.003459492    2.057    0.514
        14 -11.0836     22.6080    245.0695   1.4931578710e+02   2.3206941242e+01    0.3964244    0.1131425  57.98  0.002113642    2.575    0.612
        15  -9.8382    248.9982    231.4981   1.0847164224e+02  -8.5283000375e+00    0.1755705   0.09166963  36.75  0.001034737    1.595    0.373
        16 -11.3315    243.9953    246.0119   1.1156430949e+02  -9.2922712270e+00    0.2160266    0.2007674 -20.44  0.001619778    1.615    0.381
        17 -10.0142    155.7601    229.0251   1.2453700936e+02   6.9450006411e+00    0.1852426     0.121543  28.51  0.001050403    1.648    0.393
        18 -14.9160     11.4590    151.1664   1.4568285197e+02   4.2626629505e+01     10.22954     3.041961 -89.78   0.03551577    4.733    0.789
        19  -9.6447    173.2792    222.3759   1.2034485654e+02   4.9400288236e+00     0.236234    0.1392529  48.02  0.001292764    1.475    0.322
        20  -8.5918     94.6296    216.8790   1.3466731390e+02   1.8947468850e+01    0.1631775    0.1025427 -86.96 0.0006015986    1.768    0.434
        21 -12.3694      9.6604    206.9885   1.4961406460e+02   3.1344892173e+01     0.644392    0.4173205  33.73  0.003440383    1.933    0.483
        22  -9.0158    152.5168    212.9947   1.2293189054e+02   1.0043931816e+01    0.1589897     0.129703 -54.43 0.0003307619    1.462    0.316
        23 -11.6921     61.1905    200.6581   1.3956446978e+02   2.6799118276e+01    0.2584476    0.2230024 -66.26 0.0004863444    1.449    0.310
        24 -10.2674     17.2532    198.4040   1.4778290038e+02   3.2270482920e+01    0.2903143    0.1322039  55.55  0.001278403    1.776    0.437
        25 -11.9365     67.4974    192.1180   1.3746090994e+02   2.7684294380e+01    0.2556342    0.2186436 -75.13 0.0004984632    1.291    0.225
        26  -9.5694    194.2164    197.0306   1.1229667667e+02   5.0209622535e+00    0.4223912    0.1852357 -58.24  0.001069778    8.937    0.888
        27 -13.1521     64.4687    177.0744   1.3647332872e+02   3.1249036800e+01    0.4682139    0.2683471 -49.01  0.001707864    2.271    0.560
        28 -10.6906     77.7046    178.8818   1.3379882817e+02   2.9019421365e+01     0.227628    0.1960704  88.56 0.0003682704    1.097    0.088
        29  -9.7064    100.5411    177.1206   1.2852791880e+02   2.5860106685e+01    0.3248648    0.1928601  72.17  0.001114643    2.055    0.513
        30 -12.6343     49.3230    217.1470   1.4317212989e+02   2.5110576024e+01    0.8046065    0.6431575  79.79  0.005678848    1.151    0.131
        31 -11.7537     85.4539    169.5277   1.3084017550e+02   2.9882104157e+01    0.6304978    0.5584163  25.29  0.003886234    1.464    0.317
        32 -12.8798     34.6607    235.2742   1.4688284788e+02   2.3554721769e+01    0.3025726    0.2174573 -83.23 0.0007797173    1.400    0.286
        33 -10.1224     97.7417    153.3447   1.2545380264e+02   3.1498408520e+01    0.3252839     0.293094 -51.12 0.0008962683    1.262    0.208
        34  -9.2126    100.6831    149.0411   1.2398909866e+02   3.1967087981e+01    0.2158343    0.1971216  -6.29 0.0003753422    1.442    0.307
        35 -11.9183     86.2858    152.5959   1.2811137155e+02   3.3515384737e+01    0.2813328    0.2393928 -53.20 0.0004330435    1.306    0.234
        36 -12.1189     67.3510    143.5740   1.3139196372e+02   3.8340884222e+01    0.6633542     0.407847  64.29  0.003369518    1.760    0.432
        37  -9.9772    109.2542    138.1894   1.1980306895e+02   3.2900280740e+01     0.405672    0.2840068 -20.85  0.001505915    2.384    0.580
        38 -10.2904     96.6162    135.3455   1.2246857526e+02   3.5772012480e+01    0.2430598    0.2267046 -35.08 0.0003184467    1.261    0.207
        39 -13.8587     39.5177    228.5002   1.4566716594e+02   2.4196249736e+01    0.7238123    0.4743783  64.10  0.002394295    1.112    0.100
        40  -8.9547    106.6745    124.1913   1.1752712908e+02   3.6546121339e+01    0.1910536    0.1724146 -55.50 0.0003355518    1.108    0.097
        41  -9.3578    167.7605    112.9728   9.9754745471e+01   2.5900138367e+01    0.2706966    0.2148442  87.75  0.001213312    1.583    0.368
        42  -8.9867    203.6384    111.6776   9.2087241535e+01   1.7661489479e+01    0.1606934    0.1172155  15.91 0.0007042065    1.779    0.438
        43  -9.1580     38.5401     94.9174   1.3120812606e+02   5.3020581006e+01    0.1726005    0.1576681 -70.62 0.0004086573    1.095    0.086
        44 -11.3401     19.3058    241.2267   1.4965648658e+02   2.4206491488e+01    0.4854563     0.270806 -50.29   0.00284094    3.839    0.740
        45  -8.6218     68.5032     83.5324   1.1891806124e+02   5.2030028562e+01     0.136311    0.1233916 -65.49  0.000312227    1.100    0.091
        46 -10.0962    157.3623     76.1192   9.1738440522e+01   3.5486411823e+01    0.2782383    0.2116184  43.18 0.0007020182    1.340    0.254
        47 -10.3709      2.1595    248.4222   1.5254883035e+02   2.4732241110e+01    0.2974033    0.1186959 -81.12  0.001982136    2.204    0.546
        48 -11.3950      1.9209     61.6684   1.3741600089e+02   6.3024880993e+01    0.4767913     0.107906 -68.91  0.001827299    3.601    0.722
        49 -11.5335     14.2294     53.9190   1.3097566195e+02   6.3970926512e+01    0.3581159    0.1920415 -72.51  0.001511617    1.959    0.489
        50 -10.3344     81.1204    248.4001   1.3997492189e+02   1.5462586141e+01     0.206554    0.1400493  84.41  0.001459384    1.437    0.304
        51 -11.4609    151.7794    248.7894   1.2772222371e+02   4.7279983281e+00    0.3544229    0.1811978  40.72  0.001693559    1.534    0.348
