#   1 NUMBER                 Running object number                                     
#   2 MAG_AUTO               Kron-like elliptical aperture magnitude                    [mag]
#   3 X_IMAGE                Object position along x                                    [pixel]
#   4 Y_IMAGE                Object position along y                                    [pixel]
#   5 X_WORLD                Barycenter position along world x axis                     [deg]
#   6 Y_WORLD                Barycenter position along world y axis                     [deg]
#   7 A_WORLD                Profile RMS along major axis (world units)                 [deg]
#   8 B_WORLD                Profile RMS along minor axis (world units)                 [deg]
#   9 THETA_WORLD            Position angle (CCW/world-x)                               [deg]
#  10 FWHM_WORLD             FWHM assuming a gaussian core                              [deg]
#  11 ELONGATION             A_IMAGE/B_IMAGE                                           
#  12 ELLIPTICITY            1 - B_IMAGE/A_IMAGE                                       
         1  -8.5618     39.5206      7.2745   9.8190602952e+01   6.7773295605e+01    0.4513191    0.2783442  -0.07  0.002907005    1.518    0.341
         2 -10.0283     51.3876     37.1654   1.0568709720e+02   6.2292100511e+01    0.7684764    0.4294542 -52.47  0.003855102    2.614    0.617
         3 -10.6244     39.2904     30.0078   1.0766731015e+02   6.4830914319e+01    0.7397654    0.3443662 -42.76  0.003968886    2.077    0.519
         4 -11.6464     43.2606     20.1650   1.0220378654e+02   6.5732095200e+01    0.8116403    0.7089131  10.37  0.004503577    1.298    0.230
         5 -11.9032     82.2048      7.3130   8.3557643232e+01   6.1076915432e+01     1.879088    0.9597048   7.92  0.008842681    2.711    0.631
         6 -12.6479    131.2331      4.8360   7.1314095669e+01   5.1055572527e+01     1.931508     1.774521  56.80   0.01301038    1.089    0.082
         7 -10.6439    121.4403      3.7781   7.2837702014e+01   5.3349082170e+01    0.5719692     0.383525  55.48  0.002867096    1.254    0.203
         8 -11.3134    110.0121      4.2423   7.5388469505e+01   5.5797233911e+01     1.556632    0.3326501  58.68  0.005368226    3.808    0.737
         9 -12.8778    155.7234     20.3801   7.1771080872e+01   4.3794885612e+01     1.709807    0.9866711  56.81    0.0073964    1.495    0.331
        10 -13.5419    169.0724     16.6468   6.8578281878e+01   4.0938687517e+01      2.80471     1.286175  67.19   0.01142128    1.931    0.482
        11 -12.9486    169.5321      5.5694   6.5474465598e+01   4.1921789900e+01       2.7215    0.7028019  68.71   0.00934614    3.448    0.710
        12 -10.2331     71.3892      5.6925   8.6131289052e+01   6.3153574509e+01    0.5366482    0.3164323  38.53   0.00270208    1.447    0.309
        13  -9.8414    112.1132     15.4684   7.8882094484e+01   5.4330257326e+01    0.5783733    0.2305731  41.90  0.002355665    2.327    0.570
        14  -9.9468    116.6007     17.7745   7.8651932673e+01   5.3129785576e+01    0.6885937    0.2674663 -37.95  0.002904556    2.954    0.662
        15  -8.9827    117.4073     13.8181   7.7105799236e+01   5.3344978067e+01    0.2575369    0.2013188  -2.30  0.000781443    1.399    0.285
        16 -10.4461    249.2529     16.2449   5.9419654142e+01   2.1987224251e+01    0.4524681    0.2530228 -42.83  0.002524519    1.671    0.402
        17  -9.5385     93.8993     17.6696   8.4292956907e+01   5.7838147497e+01    0.3485524    0.3285262 -68.96  0.002104097    1.439    0.305
        18  -8.3385     20.1024     14.5299   1.0959880798e+02   6.9000685092e+01    0.3619659    0.1714906 -20.94  0.002029478    2.140    0.533
        19  -9.5726    103.5233     11.4788   7.9502759153e+01   5.6520411434e+01    0.3633775    0.3055137  25.25  0.002047199    1.074    0.069
        20 -11.3617    200.7287      8.5004   6.2411002522e+01   3.4078163679e+01    0.9070016    0.2334862  58.99  0.003381406    3.143    0.682
        21  -9.6296    249.5911      4.7014   5.7098089982e+01   2.3266117856e+01    0.5781874    0.1589287 -44.47  0.002502445    2.894    0.654
        22  -9.5600    243.6616      2.1100   5.7042906847e+01   2.4846599629e+01    0.2990688    0.1938384  88.62  0.001831746    1.298    0.229
        23  -7.9413     53.6974      7.3096   9.2783562965e+01   6.5822871489e+01    0.1325553    0.1037681  63.84 0.0003705725    2.339    0.572
        24  -8.0580     49.1626      6.7838   9.4225678617e+01   6.6533083908e+01    0.1662277    0.1212834  16.78  0.001156997    1.128    0.113
        25  -8.5179     52.3025      1.9471   9.0926700182e+01   6.6567033694e+01    0.2601121    0.1685116   5.01  0.001572044    1.394    0.283
        26  -9.8024    229.9043      5.6863   5.8910076172e+01   2.7531653837e+01    0.2567822    0.1892818 -81.44  0.001431519    1.122    0.109
        27 -10.0263    222.3418      4.5045   5.9333185532e+01   2.9395901663e+01     0.420106    0.1896049 -39.50  0.002098365    2.160    0.537
        28  -9.9944    214.3988      4.0442   5.9974831038e+01   3.1294874429e+01    0.3057712    0.2555026  62.86  0.001494373    1.298    0.229
        29  -9.5907     60.8559      2.3792   8.8135223810e+01   6.5207734300e+01    0.4530134    0.2586896  39.04   0.00277845    1.526    0.345
        30  -8.3315     26.5706      2.5968   1.0151179782e+02   6.9839383979e+01    0.1807047    0.1434698  -9.58  0.001154664    1.216    0.178
        31 -10.5187    244.4343      8.5423   5.8268962830e+01   2.3953940426e+01    0.4887123    0.2439783  59.57  0.002553737    2.099    0.524
        32  -8.4508     39.9081      1.5616   9.5455942318e+01   6.8339250666e+01     0.221401    0.1048417  29.23  0.001279725    1.933    0.483
        33  -8.7555     16.7623      1.7200   1.0553563342e+02   7.0953505394e+01    0.1804033    0.1262282  26.42  0.001134165    1.616    0.381
        34  -9.2574     48.7815     61.8877   1.1492998777e+02   5.8402160090e+01    0.3127635    0.2661464  19.03  0.002075977    1.285    0.222
        35  -8.1823     71.1796     80.2072   1.1274115941e+02   5.1934205407e+01    0.1785862    0.1632058 -82.15  0.001075834    1.358    0.264
        36  -8.3350     75.8855     59.9164   1.0500693847e+02   5.5067128360e+01    0.2147495    0.1692502 -10.44   0.00124472    1.254    0.203
        37  -7.8977     15.8126     57.7976   1.2581577475e+02   6.2199330246e+01    0.1423421    0.1269591 -63.91 0.0008177952    1.349    0.259
        38  -8.1756     92.7942     57.1988   9.8756287498e+01   5.2662812970e+01    0.2168126    0.1572922 -85.15  0.000956871    2.851    0.649
        39  -8.5609    198.5034     54.8630   7.4285900294e+01   2.8722153471e+01    0.2160442    0.1932195  43.37 0.0006296192    1.270    0.212
        40  -7.8831     34.0855     52.5219   1.1744171122e+02   6.1670597452e+01    0.1637561    0.1120925  19.32  0.001031491    1.589    0.371
        41  -7.7657     23.5035     52.4792   1.2144402805e+02   6.2614088247e+01    0.1174421   0.09146743 -33.81 0.0008103173    1.003    0.003
        42  -9.7820     81.2180     39.4321   9.6183095718e+01   5.7466454938e+01    0.7486541    0.3144913 -31.34  0.003287755    2.426    0.588
        43  -9.8054     86.3982     48.8135   9.7878169199e+01   5.5160163072e+01    0.3292171    0.2913671 -13.23  0.001606847    1.070    0.065
        44  -9.7642     82.6996     47.6302   9.8633694401e+01   5.5986084248e+01    0.4727876    0.3226344  26.62  0.002336288    1.467    0.318
        45  -7.7862    203.4264     49.1628   7.2089907866e+01   2.8350090877e+01    0.1967092    0.1222665 -49.83 0.0004407564    1.601    0.375
        46  -8.5301    111.0897     45.1446   8.9442235970e+01   5.0951946814e+01     0.496709    0.1923105 -23.38  0.001635714    4.015    0.751
        47 -10.3113      3.8317     39.9532   1.2556929879e+02   6.6202695550e+01    0.4683186      0.34893 -45.53  0.002769661    1.160    0.138
        48  -9.9624    183.4715    246.0260   1.1915075304e+02  -3.3209030520e+00    0.2474075    0.1574799  50.51  0.001071686    1.527    0.345
        49 -10.7919    171.8989    242.7192   1.2086648513e+02  -8.0950869424e-01    0.3525631    0.2435997  55.95  0.002000943    1.492    0.330
        50 -10.1906    162.8597    244.0112   1.2279283149e+02   5.5612865557e-01    0.2739435    0.1951118  53.88  0.001600681    1.321    0.243
        51  -9.8197     49.6497     27.7508   1.0276934677e+02   6.3891599730e+01    0.3290971     0.277499  17.60  0.001898101    1.247    0.198
        52  -9.0093    199.4035    240.7778   1.1531169492e+02  -5.2464963443e+00    0.1686085     0.116686 -23.50 0.0009599307    1.712    0.416
        53  -9.8432    184.7744     39.1212   7.2300832340e+01   3.4373075820e+01     0.249336    0.2075292   2.66  0.001029735    1.580    0.367
        54  -9.1676    108.6305     38.7251   8.7903453228e+01   5.2355448360e+01    0.3536426    0.2107785  11.47  0.001535662    2.497    0.600
        55  -8.7779     69.4661     37.6046   9.9390445461e+01   5.9655488948e+01    0.3720498    0.2611622 -46.08  0.002145804    1.741    0.426
        56  -9.6862     66.7782     30.1594   9.7504260479e+01   6.1115707265e+01    0.5108308    0.2404785 -28.52  0.002477383    2.104    0.525
        57  -8.6967    194.5007     36.5019   7.0160116984e+01   3.2305577386e+01    0.1400516    0.1243665  85.22 0.0008106871    1.006    0.006
        58  -8.5707     27.1169     35.1919   1.1447522913e+02   6.5279902674e+01    0.2179467    0.1524333 -15.97  0.001479932    1.237    0.192
        59  -9.0693     12.2649     34.4402   1.2037361619e+02   6.6608933773e+01    0.3361278    0.1587436 -50.66  0.001650387    1.854    0.461
        60 -10.5470    208.3310    225.8249   1.1111325548e+02  -4.5114947372e+00    0.4456599    0.1637259  41.52  0.001839182    2.434    0.589
        61  -8.4578    238.3874    203.7948   1.0142649259e+02  -6.2529803292e+00    0.1892247    0.1139523 -24.36 0.0009566809    1.730    0.422
        62 -12.7199    241.1433    133.4013   8.6215637829e+01   5.2558844591e+00     1.588317     1.296952  57.79  0.005382219    1.368    0.269
        63  -9.1672     40.7704    141.8687   1.3468256247e+02   4.1795392122e+01    0.2614544    0.1649412 -86.80  0.001392174    1.628    0.386
        64 -11.2570     10.9678    140.5347   1.4185447565e+02   4.4810117053e+01    0.4342827    0.4034944 -49.06  0.003290268    1.335    0.251
        65 -10.5663     11.8971    127.9061   1.4008632712e+02   4.7589253728e+01    0.4588911    0.1144264 -62.83  0.001923777    2.683    0.627
        66 -10.1463     17.0032    125.4974   1.3844710022e+02   4.7749434230e+01    0.5434629    0.1991733 -83.83  0.001789704    4.894    0.796
        67  -8.7327    125.4807     28.3736   8.0230856303e+01   5.0006413708e+01     0.301781    0.2326065  14.83   0.00169392    1.426    0.299
        68  -8.7251     98.0322     27.4327   8.6772696611e+01   5.5931163892e+01    0.3318831    0.1975067  -6.18  0.001604492    2.107    0.525
        69  -9.3681     13.0468    119.9978   1.3872324699e+02   4.9283690902e+01    0.2229013    0.1317295  60.23  0.001255921    2.113    0.527
        70  -8.7078     81.1907     26.5654   9.1394640352e+01   5.9187958090e+01    0.3647247     0.153876  53.22  0.001550796    2.918    0.657
        71  -8.6308     10.5094     25.8305   1.1819641442e+02   6.8124592382e+01    0.2549348    0.1284001 -27.00  0.001561603    1.719    0.418
        72  -8.7307    104.1152     25.7420   8.4522498925e+01   5.4907000745e+01    0.3057115    0.2319019  57.63  0.001777293    1.398    0.285
        73  -7.3542     64.3448     24.2942   9.6056297932e+01   6.2258229125e+01    0.1272149    0.0807349   9.52 0.0007030858    1.665    0.399
        74  -7.9939     22.4055     23.4671   1.1214947203e+02   6.7520405117e+01    0.2421595   0.08542268 -41.57  0.001229873    2.356    0.576
        75 -10.2821      9.8723    117.1699   1.3917514416e+02   5.0137479762e+01    0.2688025    0.2620625 -22.83  0.002092178    1.311    0.237
        76  -8.0606    217.3303    119.3040   8.7115926239e+01   1.2960334261e+01    0.1496035    0.1193273   9.51 0.0006420526    1.654    0.395
        77 -10.0073     17.2337    103.0509   1.3493668294e+02   5.2752185232e+01    0.4020872    0.2766479 -60.47  0.002576621    1.134    0.118
        78  -7.8420     19.3851     21.8454   1.1283429050e+02   6.8027826309e+01    0.1606625     0.076157 -32.88 0.0009389535    1.721    0.419
        79  -9.7401     29.3733    102.6111   1.3126183940e+02   5.1889836133e+01    0.4112678    0.1816476 -37.96  0.001862338    2.608    0.617
        80 -10.4033    225.2508     29.1208   6.4503347135e+01   2.5825169258e+01    0.4017353    0.3407525  49.61  0.001237295    1.442    0.306
        81 -10.0129     47.2824     99.1270   1.2510019576e+02   5.0922349715e+01    0.3748571    0.1799248 -46.57  0.001338124    1.818    0.450
        82  -9.0826     87.2561     30.5909   9.1052136360e+01   5.7592735880e+01    0.3846155    0.2504104  22.29  0.002095567    1.575    0.365
        83  -7.7427      8.7069     18.2284   1.1621027840e+02   6.9413864248e+01    0.1583806    0.1291574  72.56  0.001022174    3.122    0.680
        84  -8.9346     64.1767     16.3028   9.2889476451e+01   6.3244742175e+01     0.229962    0.1884846  33.60 0.0009218729    1.288    0.223
        85  -9.9013     54.1293     91.7422   1.2124785767e+02   5.1758038676e+01     0.298209    0.1837904 -69.02  0.001472793    1.936    0.483
        86  -9.3529    228.1507     14.8429   6.1034759269e+01   2.6898465172e+01    0.2439239    0.1668587  75.76    0.0010964    1.299    0.230
        87 -11.8187     43.5476     82.2252   1.2233395969e+02   5.4949533129e+01     1.094232    0.7272649 -26.90  0.005174367    1.588    0.370
        88  -7.9094     68.4423     13.4357   9.0278797080e+01   6.2873697332e+01    0.1204364   0.09619283  13.58 0.0001157752    1.016    0.016
        89  -9.3166     35.0247     79.5097   1.2450754719e+02   5.6350618502e+01    0.2869236    0.2103026 -57.87  0.001599342    1.251    0.201
        90  -9.0328      2.2586     88.1708   1.3689925990e+02   5.6895232701e+01    0.4153612    0.1845451 -79.53  0.001972878    2.729    0.634
        91  -8.0381    226.8804     88.9094   7.8271602630e+01   1.6321543447e+01    0.2030616    0.1961877 -11.79  0.000349891    1.205    0.170
        92  -9.1198     19.5702     88.5997   1.3156587656e+02   5.5714110595e+01    0.2275946     0.184321  86.35   0.00152477    1.493    0.330
        93 -10.6044      3.6149     76.0244   1.3425410488e+02   5.9341223258e+01    0.6315217    0.5056834  84.21  0.004529585    1.574    0.365
        94 -10.3690     13.1799     77.2862   1.3133086466e+02   5.8519140297e+01    0.4872784    0.2507041 -39.36  0.002795331    1.727    0.421
        95 -10.9289     17.3337     74.2730   1.2927379046e+02   5.8855948392e+01    0.5447194    0.3454288 -54.38  0.003402897    1.243    0.196
        96 -10.6837     11.2267     71.2889   1.3070297533e+02   5.9861241013e+01    0.5104081    0.2793033 -58.30  0.002837762    1.449    0.310
        97  -8.7249     83.0477     69.8361   1.0586219554e+02   5.2118466406e+01    0.4103589    0.2170943  22.52  0.001691783    2.658    0.624
        98 -10.2943     74.7226     69.3146   1.0837094810e+02   5.3535842195e+01    0.4197531    0.3642924  65.11  0.002483655    1.547    0.354
        99  -8.1175     34.2449     68.5567   1.2198872083e+02   5.8632879605e+01     0.156439     0.109299  -2.97 0.0009454092    1.623    0.384
       100  -9.2990    227.5987     78.9570   7.5804763926e+01   1.7853904572e+01    0.3831652    0.3148155  11.87  0.001791428    1.735    0.424
       101  -9.9028     24.7149     65.4127   1.2455028380e+02   6.0071573075e+01    0.5306731    0.1927158 -50.52   0.00256687    2.082    0.520
