#   1 NUMBER                 Running object number                                     
#   2 MAG_AUTO               Kron-like elliptical aperture magnitude                    [mag]
#   3 X_IMAGE                Object position along x                                    [pixel]
#   4 Y_IMAGE                Object position along y                                    [pixel]
#   5 X_WORLD                Barycenter position along world x axis                     [deg]
#   6 Y_WORLD                Barycenter position along world y axis                     [deg]
#   7 A_WORLD                Profile RMS along major axis (world units)                 [deg]
#   8 B_WORLD                Profile RMS along minor axis (world units)                 [deg]
#   9 THETA_WORLD            Position angle (CCW/world-x)                               [deg]
#  10 FWHM_WORLD             FWHM assuming a gaussian core                              [deg]
#  11 ELONGATION             A_IMAGE/B_IMAGE                                           
#  12 ELLIPTICITY            1 - B_IMAGE/A_IMAGE                                       
         1 -13.6027      5.9409    123.2171   1.2940981831e+02   4.8284805826e+01     9.871806          nan -68.09   0.02418697    9.536    0.895
         2 -13.9240      5.4921    102.7712   1.2766019787e+02   5.2831601945e+01      4.19179    0.2089008 -68.20   0.01362434    4.965    0.799
         3 -13.6623      2.9500     72.7735   1.2479546332e+02   5.9742822986e+01     2.241328    0.5247669 -58.59  0.009590365    2.764    0.638
         4 -14.8781      2.4531     24.4182   1.1476171345e+02   7.0351216285e+01     3.844529     1.411489 -58.94   0.02002545    1.867    0.464
         5 -11.3848     21.7364     68.7139   1.1783402101e+02   5.9432894350e+01    0.9111668     0.191409 -66.54  0.003176334    3.696    0.729
         6 -14.6617    201.6483     20.5398   5.4552924743e+01   3.1920397470e+01     4.089762     2.096908  19.56  0.009791135    3.282    0.695
         7 -11.3698    113.5083     68.5077   8.8486161800e+01   4.6503990142e+01     0.277118    0.2478434 -66.26  0.001489984    1.195    0.163
         8 -11.3586    141.0278    249.4129   1.1552990626e+02   8.8963157971e+00    0.3248396    0.1193833  40.87  0.001787041    2.138    0.532
         9  -9.8430     26.0476    206.1038   1.3083418681e+02   3.0082791905e+01     1.141037    0.7491443  53.96  0.008965175    1.291    0.226
        10 -14.7644      5.0029    191.0430   1.3364080129e+02   3.4744391440e+01     1.285911    0.5519152 -88.19  0.007931351    1.858    0.462
        11 -16.0258      6.2834    242.4814   1.3531890740e+02   2.6114677127e+01     1.742434     1.357455 -84.23   0.01685167    1.598    0.374
        12 -13.5884     28.2017    247.8372   1.3241585872e+02   2.3182490863e+01    0.4128192    0.3142089  65.68  0.001622308    1.264    0.209
        13 -14.4034     36.4358    242.9925   1.3101930867e+02   2.3040699626e+01    0.7376609    0.3634182  63.49  0.001320992    1.453    0.312
        14 -14.3513     44.7755    238.4330   1.2955889273e+02   2.2824117330e+01     1.225821    0.4748693  70.70  0.007207884    2.569    0.611
        15 -12.4919     48.4985    213.9429   1.2756647951e+02   2.6325916123e+01    0.7346367    0.4349216 -82.61  0.001138856    1.574    0.365
        16 -12.4629     58.9318    202.7653   1.2500626895e+02   2.7028025910e+01     1.148361    0.6797517 -66.52  0.007760733    1.805    0.446
        17 -11.8544     67.1572    219.4084   1.2484476318e+02   2.3205694100e+01    0.6027784    0.4387002  38.24  0.004508086    1.619    0.382
        18 -12.4012     73.4122    213.8588   1.2337090223e+02   2.3333424592e+01    0.4915151     0.365837  66.48  0.002141474    1.010    0.010
        19  -9.2131     76.4107    223.3383   1.2360860365e+02   2.1413501272e+01    0.1320839    0.0836816  85.22 0.0008788733    1.533    0.348
        20 -12.4883     91.2356    146.2033   1.1226491986e+02   3.3662376926e+01    0.8474653    0.4088376 -54.25  0.004036269    2.072    0.517
        21 -14.6360     50.3054    127.0527   1.1909544012e+02   4.3333480399e+01     2.257686     2.160382  27.15   0.01444977    1.418    0.295
        22 -12.7173     57.9259    182.2986   1.2350480042e+02   3.0900840344e+01     1.131881    0.5952668  62.85  0.006056519    1.700    0.412
        23 -12.8952     61.4097    170.3185   1.2168751463e+02   3.2808138695e+01     1.124184    0.7247642  75.39  0.007072938    1.391    0.281
        24 -13.0508     74.5819    180.2462   1.2009748931e+02   2.9175736399e+01    0.8094507      0.52806 -46.34   0.00479148    2.231    0.552
        25 -13.5572     85.8054    168.4544   1.1651345565e+02   2.9916815028e+01     1.485537    0.8836458 -37.84   0.00445384    3.101    0.678
        26 -14.9092     73.5239    158.0896   1.1780251466e+02   3.3719582590e+01     1.980205     1.357131 -87.40   0.01203674    1.361    0.265
        27 -11.9821     61.1779    210.8990   1.2522727380e+02   2.5351570966e+01    0.6818613    0.2337223  41.57  0.003636228    2.471    0.595
        28 -11.2475    198.4783    198.8727   9.9668943209e+01   6.2579800607e+00    0.3749229     0.222507  34.28  0.002171635    1.471    0.320
        29 -13.9948     10.6296    206.0686   1.3335370925e+02   3.1578770387e+01    0.6859039    0.3961993  43.24  0.003772435    1.679    0.405
        30  -9.4419     67.8316    197.1697   1.2296676501e+02   2.6921809753e+01     0.196168    0.1357443  45.60  0.001356302    1.403    0.287
        31  -9.7789    208.5080    186.5140   9.5903661585e+01   6.1157437692e+00    0.1256226    0.1025679  23.65 0.0002168363    1.052    0.049
        32 -11.9113     42.6010    170.2531   1.2543491235e+02   3.5023367662e+01     1.109513    0.5030974 -81.59  0.006086477    2.030    0.508
        33 -11.3762     36.5167    171.3752   1.2672053304e+02   3.5456154742e+01     0.761216    0.3849889  55.26  0.004659669    1.695    0.410
        34 -12.0401    113.9498    159.2111   1.0934673944e+02   2.7387235372e+01    0.7063147    0.6223979 -86.87  0.004520901    1.093    0.085
        35 -11.9521    113.8295    152.7194   1.0832775242e+02   2.8692515694e+01    0.9160305    0.4423159 -68.91   0.00378066    2.834    0.647
        36  -9.4561     47.6287    157.7198   1.2326277205e+02   3.7009183155e+01    0.1790622    0.1445494  27.40 0.0009622626    1.728    0.421
        37 -10.3072    161.4273    249.2057   1.1235108312e+02   5.9936283743e+00    0.1183781   0.09822864 -81.49 0.0006244606    1.687    0.407
        38  -9.2071    120.7482    249.0435   1.1863531965e+02   1.1780710145e+01    0.1374383      0.11492   7.39   0.00107545    1.962    0.490
        39 -10.7467     70.6103    249.0434   1.2627982010e+02   1.8278768977e+01     0.315909    0.1657249  39.37  0.001318753    1.854    0.461
        40  -9.5094     87.3427    240.5561   1.2314842950e+02   1.7406746322e+01    0.1557766   0.09943494  81.77 0.0006416998    1.583    0.368
        41 -13.6046    132.1652    142.1366   1.0245015397e+02   2.7553712694e+01      1.22085    0.9919521  -2.86   0.00654602    1.758    0.431
        42  -9.5122    103.5276    144.3257   1.0919890243e+02   3.2117445710e+01    0.3109558    0.2026044 -29.04  0.001418823    2.715    0.632
        43 -14.2791    111.1364    192.9461   1.1454281985e+02   2.1609727010e+01     2.112384     1.529364  73.08   0.01365471    1.355    0.262
        44 -11.4151    114.3483    120.1610   1.0206523735e+02   3.5379450548e+01    0.5516657    0.3471496 -76.60  0.002427038    2.157    0.536
        45 -10.2517    109.3260    120.3902   1.0333063891e+02   3.6230560606e+01    0.3581216    0.2553195 -22.30  0.001102472    2.194    0.544
        46 -12.5080    118.7845    125.6973   1.0218212985e+02   3.3392361453e+01    0.7942507    0.4860915 -26.72  0.003232905    2.844    0.648
        47 -12.3861    120.2715    133.4920   1.0341976826e+02   3.1490677079e+01    0.6349893    0.4199417  51.98  0.003222431    1.504    0.335
        48 -13.4160    124.3039    127.4419   1.0126117916e+02   3.2004521899e+01    0.8552247    0.6049901 -65.46  0.004331371    1.510    0.338
        49 -13.5102    136.3982    125.3320   9.8039569336e+01   3.0111588017e+01    0.9653875    0.5877379 -41.51  0.004476469    1.722    0.419
        50 -12.7438    142.8839    119.2792   9.5198161146e+01   3.0025500964e+01     0.771437    0.4089413 -33.57  0.003088929    2.331    0.571
        51  -9.6955    105.9066    130.7402   1.0622212394e+02   3.4594169349e+01    0.2712939    0.1943595 -68.15  0.001442448    1.387    0.279
        52 -12.7276     83.2146    123.5604   1.1038838598e+02   3.9791433114e+01     1.124877    0.7806228  23.48   0.00570655    2.055    0.513
        53 -10.3597    100.1666    128.9748   1.0725119920e+02   3.5935474911e+01    0.2819583    0.2152363 -45.15  0.000820926    1.447    0.309
        54 -11.3944     99.2913    123.1393   1.0634062292e+02   3.7351814105e+01    0.6836184    0.4383928 -35.27  0.003220048    2.133    0.531
        55 -11.9321    151.0225    122.1013   9.4049274917e+01   2.7787103162e+01    0.4443829    0.3356893  15.55  0.002138845    1.765    0.433
        56 -14.1175     87.0066    199.8275   1.1973850489e+02   2.3918357843e+01     2.504522     1.225811 -69.10   0.01431871    2.186    0.543
        57 -12.5845    119.6243    112.0554   9.8967043650e+01   3.6132347023e+01    0.5687397    0.3922473 -69.21  0.002709034    1.667    0.400
        58  -9.8632    167.4590    112.4306   8.8174754135e+01   2.6097433684e+01    0.3022964    0.2385145 -78.39 0.0008687157    1.662    0.398
        59 -10.5016     39.2816    109.2209   1.1940707929e+02   4.8564699285e+01     0.440926      0.19254 -54.82  0.002148296    2.095    0.523
        60 -11.4264     83.1178    104.0025   1.0655224426e+02   4.4213216403e+01    0.6498616    0.4328343 -81.30  0.003209472    1.747    0.428
        61 -13.5767    142.3608     96.3955   8.9520549816e+01   3.4731511881e+01     1.378723    0.9717439   4.57  0.005779876    2.276    0.561
        62 -11.0380     49.4195    100.5642   1.1521627336e+02   4.9475837127e+01    0.5380589    0.3570437  86.29  0.002977503    1.609    0.379
        63 -11.7091     76.1506     92.8999   1.0600208539e+02   4.7784242689e+01    0.8866428    0.4947309 -65.32  0.004131943    1.771    0.435
        64 -11.7456     82.8519     90.7901   1.0357743796e+02   4.7247235990e+01     1.083996    0.6059766 -72.26  0.004551308    2.352    0.575
        65 -10.3943     52.8434     89.8067   1.1216176001e+02   5.1569802439e+01    0.2008552    0.1608277 -52.38  0.000835255    1.207    0.172
        66 -10.0023     56.9203    240.2526   1.2782083455e+02   2.1176319120e+01    0.2094907    0.1141537  52.95 0.0008566842    1.317    0.241
        67 -11.1250    186.0450     36.1168   6.1746739514e+01   3.4161596382e+01    0.5233602    0.3892922  56.54  0.001545098    1.368    0.269
        68 -11.0064    193.2275    236.9024   1.0595726064e+02   2.6539114056e+00    0.2167968    0.1414039 -51.21  0.001467187    2.323    0.570
