#   1 NUMBER                 Running object number                                     
#   2 MAG_AUTO               Kron-like elliptical aperture magnitude                    [mag]
#   3 X_IMAGE                Object position along x                                    [pixel]
#   4 Y_IMAGE                Object position along y                                    [pixel]
#   5 X_WORLD                Barycenter position along world x axis                     [deg]
#   6 Y_WORLD                Barycenter position along world y axis                     [deg]
#   7 A_WORLD                Profile RMS along major axis (world units)                 [deg]
#   8 B_WORLD                Profile RMS along minor axis (world units)                 [deg]
#   9 THETA_WORLD            Position angle (CCW/world-x)                               [deg]
#  10 FWHM_WORLD             FWHM assuming a gaussian core                              [deg]
#  11 ELONGATION             A_IMAGE/B_IMAGE                                           
#  12 ELLIPTICITY            1 - B_IMAGE/A_IMAGE                                       
         1  -8.1510     19.4273     21.2155   7.4110910341e+01   7.0916303126e+01    0.1495591    0.1163601 -42.33 0.0005666022    1.608    0.378
         2  -7.5716    119.7702     10.9697   3.3096145972e+01   5.2245805437e+01    0.1402591    0.1088458 -21.54 0.0006421566    1.565    0.361
         3  -7.9509     83.5772     10.8122   4.0950324332e+01   6.0616410364e+01    0.1564024    0.1183079 -41.08 0.0005479488    1.661    0.398
         4  -8.6471     55.6818      9.8407   4.9742069390e+01   6.6589388854e+01    0.2010526    0.1859432 -85.92 0.0006897207    1.609    0.379
         5  -8.0375     47.6351      9.8200   5.3119719470e+01   6.8122350049e+01    0.1562913    0.1130948 -33.62 0.0007087502    1.728    0.421
         6  -8.2527     90.8785      8.5940   3.8206493987e+01   5.9162454663e+01    0.2211208     0.150018 -69.59 0.0009156576    2.183    0.542
         7  -8.3812    101.5089      8.0403   3.5602740196e+01   5.6763453497e+01    0.1615662    0.1282571 -21.66 0.0004202104    1.521    0.343
         8  -7.7233     13.2721      8.6690   7.1929186337e+01   7.3494869657e+01    0.1010655   0.09132472  22.74 0.0006985382    1.590    0.371
         9  -8.4171     33.6786      4.9914   5.7406875424e+01   7.1082257203e+01    0.2747586    0.1738823 -50.55  0.001384986    3.198    0.687
        10  -8.5768     79.2832      3.7150   3.9232055753e+01   6.2166492077e+01     0.227653    0.1775976 -59.14 0.0009668725    1.758    0.431
        11  -7.6248     44.5350      2.5255   5.0795565737e+01   6.9426378470e+01    0.1245006   0.09787238  30.88 3.471138e-05    1.056    0.053
        12  -8.1449     62.5019      1.4483   4.3289544641e+01   6.5964954430e+01    0.1964519    0.1090766  64.29 0.0005303998    1.946    0.486
        13  -7.4046     39.6628      1.3092   5.2397654920e+01   7.0430393248e+01    0.1070243   0.09567476  65.45 0.0007043551    1.682    0.405
        14  -9.1366    210.8725    246.2654   6.9070031302e+01  -3.4772136174e+00     0.218219    0.1610968 -44.33   0.00101549    1.916    0.478
        15  -8.4747    249.0195    249.4939   6.2746212323e+01  -7.6842757946e+00    0.2719825    0.1308096  -7.24  0.001524071    2.117    0.528
        16  -9.8218    248.6402    241.9837   6.1646150544e+01  -6.6796547272e+00    0.4232782    0.1830008 -42.59  0.002224118    2.652    0.623
        17  -8.5707     94.0371    249.5572   9.5158268256e+01   1.0186909490e+01    0.2605195    0.1756353  57.16  0.001423856    1.809    0.447
        18  -7.8403     25.6749    250.3188   1.1088103005e+02   1.7471570826e+01    0.1285439   0.06827831  53.05 0.0003528105    1.676    0.403
        19  -9.1797    147.1899    245.8742   8.2349528253e+01   4.1546658646e+00    0.3314455    0.2141729  53.03  0.001542156    2.517    0.603
        20  -8.9404    146.5507    239.7533   8.1620523660e+01   5.3052542163e+00     0.361435    0.2561327  85.70  0.001595107    3.677    0.728
        21  -7.9160     63.9771    248.0000   1.0205729391e+02   1.4012387933e+01    0.2139105   0.06180706  26.61 0.0007765763    2.937    0.660
        22  -8.8499      9.9980    243.9854   1.1394886636e+02   2.0116641426e+01    0.3945155    0.1130022  68.77  0.001275698    5.803    0.828
        23  -9.2347    120.0569    244.8921   8.8477447183e+01   7.8013990472e+00    0.3119371    0.2286976  79.37  0.001284484    2.370    0.578
        24  -8.5789     68.0604    245.3468   1.0086392792e+02   1.4079430064e+01    0.3231183    0.1527411  60.44  0.001352373    3.063    0.674
        25  -7.6203     34.3341    244.2905   1.0859512681e+02   1.7858723924e+01    0.1139003   0.08991416 -19.89 0.0007021185    1.633    0.388
        26  -8.4173    201.8274    242.8189   7.0286281850e+01  -1.9750188972e+00    0.2128818    0.1541115 -39.04 0.0007756737    1.643    0.392
        27  -8.5069    169.1040    242.8043   7.7052682618e+01   1.9158783950e+00     0.191406    0.1718105 -23.82 0.0006668449    1.370    0.270
        28  -8.7510    153.7669    242.3255   8.0360941825e+01   3.9278175691e+00    0.2015397    0.1736769 -63.08  0.001241794    1.748    0.428
        29  -9.2334    193.8937    239.1881   7.1299266945e+01  -5.0832699023e-01    0.1996457    0.1681528 -10.40  0.000641968    1.240    0.194
        30  -9.5364    183.0898    240.2389   7.3685466155e+01   6.1613934626e-01    0.3659763     0.304427  50.69   0.00224062    2.006    0.502
        31  -8.2207    178.6762    241.6800   7.4835236069e+01   9.2153956217e-01    0.1745698     0.102965  28.83 0.0006410613    1.558    0.358
        32  -9.5111    160.2923    240.3628   7.8616009065e+01   3.4315065127e+00    0.3220847    0.2689572  86.07  0.001434096    2.316    0.568
        33  -8.0510     88.2656    242.0116   9.5711955774e+01   1.2354530099e+01    0.1687014     0.162651  45.67 0.0007795728    1.171    0.146
        34  -8.7142    214.4026    240.5686   6.7505494938e+01  -3.0368734882e+00     0.242212    0.1255348  -9.16  0.001246164    2.071    0.517
        35  -8.7103    240.5162    240.0231   6.2711581633e+01  -5.6481278436e+00    0.2178176   0.08617301 -33.46  0.001155842    2.108    0.526
        36  -8.9105    135.5590    238.6677   8.4005557869e+01   6.9353606846e+00    0.1964688    0.1730129 -60.78 0.0007828782    1.537    0.349
        37  -9.2073    230.8709    236.3670   6.3815308749e+01  -4.1803978859e+00    0.3125669    0.1811556 -44.85  0.001547318    2.232    0.552
        38  -8.2303    209.3454    237.8816   6.8042086434e+01  -2.0845524949e+00    0.2132019    0.1270836 -27.11  0.000731189    1.467    0.318
        39  -8.3733    129.1491    238.3959   8.5472756355e+01   7.8263761776e+00    0.1934206     0.103666  36.07  0.000753455    1.709    0.415
        40  -8.6095     25.9829    237.0216   1.1003478617e+02   2.0144705907e+01    0.3139022    0.1206198  55.19  0.001381988    2.661    0.624
        41  -9.7922    214.7091    232.9376   6.6223953179e+01  -1.9490571735e+00    0.4193567    0.3495423 -83.85  0.002275124    3.465    0.711
        42  -9.7860    175.6049    233.0195   7.4138044066e+01   2.7231675095e+00     0.466098    0.2715904 -55.79  0.002242192    2.722    0.633
        43  -8.0260     57.8342    236.7100   1.0252417317e+02   1.6987817763e+01    0.3105506    0.0912229  29.02  0.001202018    2.724    0.633
        44  -8.9672    248.0777    234.3316   6.0532044919e+01  -5.6116698358e+00    0.2345858    0.1306516 -33.59  0.000901228    1.557    0.358
        45  -9.2114    246.4258    228.6950   5.9902207769e+01  -4.6851089636e+00    0.2980356    0.1529907 -37.04  0.001105535    1.759    0.432
        46  -8.8772    202.9654    234.2078   6.8693663081e+01  -8.0137221006e-01    0.2583257    0.1663453 -47.56  0.001438268    2.083    0.520
        47  -7.8793    170.4446    235.5402   7.5649713681e+01   2.9555693100e+00    0.1305565    0.1063761   6.40 0.0005003855    1.077    0.072
        48 -10.2370    121.4564    234.2418   8.6737283583e+01   9.6272172633e+00    0.2776606    0.2289273   7.06 0.0003818202    1.083    0.077
        49  -9.4422    109.4217    234.4532   8.9681806365e+01   1.1170627201e+01    0.5378923    0.2106819  42.24  0.001889861    2.641    0.621
        50  -8.3637    100.0728    234.4009   9.1961606591e+01   1.2392014265e+01     0.251967    0.1507309  58.61  0.001152466    2.387    0.581
        51  -8.7743     78.8356    234.3195   9.7175543229e+01   1.5058768588e+01    0.2662289    0.1828382  81.20  0.001367879    1.981    0.495
        52  -8.0134      8.0000    234.9961   1.1396481352e+02   2.2120828696e+01    0.1777552   0.06248866 -79.55 0.0007957048    2.896    0.655
        53 -10.1924     68.5536    231.8609   9.9454984126e+01   1.6792145980e+01    0.5524882    0.2876284  64.58  0.002356899    2.827    0.646
        54  -8.0856    145.6677    233.3356   8.0880735944e+01   6.5730950326e+00     0.129213     0.100353  50.09 0.0007052172    1.735    0.424
        55  -8.5579    132.8340    232.7262   8.3802795753e+01   8.3996292364e+00    0.2288402    0.1794048  71.04  0.001220189    2.075    0.518
        56  -8.6283     92.9198    231.8524   9.3416883672e+01   1.3822525767e+01    0.4214515     0.203639  56.39   0.00159373    3.362    0.703
        57  -9.2848    186.2119    230.2964   7.1455442461e+01   1.8390150887e+00    0.2997397    0.2210003 -57.69  0.001208733    2.231    0.552
        58  -9.3259    236.1102    229.7908   6.1833617108e+01  -3.7954346329e+00    0.3481721    0.1522525 -39.00  0.001445648    2.113    0.527
        59  -8.8335      1.7020    230.6255   1.1515541935e+02   2.3529607274e+01    0.2369965    0.1352654  76.37  0.001374212    1.680    0.405
        60  -9.1452    151.4787    228.9762   7.8876831995e+01   6.5899272249e+00    0.2729472    0.2324971  87.19  0.001384062    2.006    0.502
        61  -9.4667    148.5088    224.1900   7.8820541013e+01   7.8764928985e+00    0.3409351     0.258571  58.33  0.001515293    2.059    0.514
        62  -8.9026    140.2255    230.1448   8.1676066441e+01   7.8907394221e+00    0.3090863    0.1584742  39.64 0.0008979832    2.009    0.502
        63  -8.5415     10.4920    230.5036   1.1318880624e+02   2.2861816613e+01    0.1196541   0.09986039  56.02 0.0002263025    1.022    0.021
        64  -7.9616    229.7945    228.7633   6.2776556037e+01  -2.9859184015e+00    0.1467951    0.1236999 -16.44 0.0006662052    1.362    0.266
        65  -8.6848    162.2621    227.6810   7.6221462332e+01   5.3794512129e+00    0.2837358    0.2072609  48.83  0.001253729    1.956    0.489
        66  -8.8555    127.9182    227.1720   8.4179509559e+01   1.0128715931e+01    0.3281969    0.2076482  50.44  0.001188341    2.072    0.517
        67  -8.2642    119.8765    227.5606   8.6195658424e+01   1.1144417881e+01    0.2433371    0.1635464  60.22  0.001105241    2.264    0.558
        68  -8.1576    223.4048    226.3630   6.3533375923e+01  -1.9404922896e+00    0.2184735   0.09371439 -33.89 0.0006419076    2.024    0.506
        69  -7.9482    177.9446    227.0130   7.2670497510e+01   3.4363737469e+00    0.1679484    0.1478724  20.46 0.0005175502    1.336    0.251
        70  -8.7169    180.5889    224.0621   7.1621018350e+01   3.5954802049e+00    0.2613171    0.1919246  32.35 0.0008688041    1.483    0.326
        71  -8.2691     49.6501    226.6567   1.0363853040e+02   2.0016545462e+01    0.2565356    0.1378471  72.41  0.001164247    2.468    0.595
        72  -8.7415    206.0580    225.4675   6.6656650348e+01   1.9028464208e-01    0.2534033    0.1585448 -42.84   0.00094429    1.800    0.445
        73  -8.0108    200.1645    226.1437   6.7929855544e+01   7.9202790235e-01    0.1562095    0.1402944  -5.12 0.0004906771    1.354    0.261
        74  -8.9390     94.2804    224.0377   9.2116254414e+01   1.5274699135e+01    0.4529535     0.223111  50.63  0.001863119    2.558    0.609
        75  -8.8542    216.4510    223.1279   6.4280956600e+01  -6.6721436228e-01    0.2645047     0.183091 -42.20  0.001073706    1.708    0.414
        76  -8.8684    104.8874    223.6337   8.9382121161e+01   1.3960410210e+01    0.2957457    0.2243644  80.85  0.001496566    1.927    0.481
        77  -9.5516    192.5153    221.3337   6.8672373696e+01   2.5217718401e+00    0.3012892    0.2614855 -65.46  0.001012051    2.000    0.500
        78  -8.5762    173.1206    222.7821   7.3022038568e+01   4.7975741403e+00     0.235006    0.2100221 -87.19 0.0007939247    1.960    0.490
        79  -9.1074    159.4493    220.6391   7.5724543850e+01   7.0306351378e+00    0.3059594    0.1994955  48.19  0.000999052    2.157    0.536
        80  -8.6566    194.4215    232.6396   7.0146961637e+01   4.5489633143e-01    0.2048541    0.1150714 -42.92 0.0006029033    1.946    0.486
        81  -9.1736    239.0247    221.1004   5.9906326522e+01  -2.8629262049e+00    0.3191317    0.1478899 -30.62  0.001408009    1.780    0.438
        82  -9.2182    225.5173    221.6340   6.2364775048e+01  -1.4725361065e+00    0.2119176    0.1724814 -25.83 0.0006794527    1.344    0.256
        83  -9.2236      7.6565    222.1474   1.1341025865e+02   2.4884215289e+01    0.2843995   0.08009858  36.61  0.001226175    2.655    0.623
        84  -8.6614     82.4839    220.0021   9.4634313985e+01   1.7651942515e+01    0.2916577    0.1969596  65.40 0.0009745733    1.913    0.477
        85  -8.4936     27.5564    220.2293   1.0856224900e+02   2.3620380612e+01    0.2901773   0.08362255 -62.38  0.001145259    3.247    0.692
        86  -9.0756    249.4879    218.9615   5.7810377433e+01  -3.6418222112e+00    0.2436599    0.1729395 -34.97  0.001128997    1.470    0.320
        87  -8.1572    202.5241    219.9915   6.6432104019e+01   1.4883510888e+00    0.1792909    0.1107326 -35.06 0.0005100536    1.517    0.341
        88  -9.0908    120.4908    218.9706   8.4804751667e+01   1.2790428705e+01       0.4492    0.2359221  51.67    0.0017885    2.829    0.647
        89  -8.4025    209.9937    219.1259   6.4831478066e+01   7.1575966018e-01    0.1745723    0.1520061 -11.22 0.0005640921    1.287    0.223
        90  -7.5547    151.3383    218.6805   7.7280090613e+01   8.5200208971e+00    0.1314785    0.1057687  51.84 0.0007049676    1.709    0.415
        91  -9.3023    132.9390    215.8915   8.1248822454e+01   1.1661722768e+01     0.472971    0.3216632  69.08  0.002035222    2.925    0.658
        92  -8.4109     62.3818    217.4018   9.9534901935e+01   2.0654957318e+01    0.3263905    0.1612827  55.76  0.001067572    2.475    0.596
        93  -9.0080     51.6939    216.8056   1.0222868097e+02   2.1981675684e+01    0.3211774    0.1701436 -77.45  0.001153443    2.187    0.543
        94  -7.7165    179.4370    217.4669   7.0764835928e+01   4.8836313341e+00    0.1340188     0.110231  -1.33 0.0001288714    1.039    0.037
        95  -8.8250    169.3918    216.0091   7.2715004863e+01   6.5058521818e+00    0.2736216    0.2283573 -78.03 0.0009648446    2.127    0.530
        96  -8.4309    143.0942    216.5130   7.8882495960e+01   1.0096916670e+01    0.2589657    0.2178013  69.84  0.001318136    1.826    0.452
        97  -7.9649     18.7546    216.0086   1.1042397196e+02   2.5338858970e+01    0.1624031    0.1004597 -80.16 0.0008933834    1.624    0.384
        98  -8.8449    232.2186    214.3893   5.9956533502e+01  -1.1413308504e+00    0.2479194    0.1688291 -39.81  0.001123037    1.594    0.373
        99  -8.2833    154.4164    215.0826   7.5971455201e+01   8.7682194847e+00    0.2365856     0.172631  58.32  0.001158152    2.246    0.555
       100  -8.2598    185.4740    214.1412   6.8912545459e+01   4.6546939825e+00    0.1901262    0.1722409  16.85 0.0006983788    1.336    0.251
       101  -8.8581     93.3082    213.7955   9.1035115855e+01   1.7608336469e+01    0.3598986    0.1989585  50.64  0.001461483    2.155    0.536
       102  -9.4416     73.4577    211.8975   9.6022600264e+01   2.0578204550e+01    0.7256642    0.2761542  52.20  0.002335433    4.035    0.752
       103  -8.1665    224.8713    212.5370   6.0942717720e+01  -2.2374356375e-02    0.1885815    0.1264451 -34.65 0.0005265098    1.400    0.286
       104  -9.4408    213.9019    211.9968   6.2868886396e+01   1.3706787526e+00    0.3034634    0.2364918  40.63  0.001471699    1.833    0.454
       105  -8.6483    106.4857    212.9484   8.7487369907e+01   1.6001910969e+01    0.1928212    0.1429781 -55.70  0.001007152    1.522    0.343
       106  -8.4769    161.8008    212.1869   7.3780075953e+01   8.2686096821e+00    0.2000162     0.181932  37.00  0.001199867    1.392    0.282
       107  -8.9180    204.1976    210.3729   6.4451388033e+01   2.8449459317e+00    0.2601302    0.1856335 -43.52 0.0009370592    1.621    0.383
       108  -8.3787    192.2953    210.4007   6.6844890523e+01   4.3898988838e+00    0.1903362    0.1578582 -51.65 0.0006057876    1.694    0.410
       109  -9.3699    175.5344    209.7590   7.0288513838e+01   6.7846309743e+00    0.3821425    0.2927974  63.77  0.001859559    2.490    0.598
       110  -8.8216    148.1374    210.3974   7.6671908006e+01   1.0569037336e+01    0.2875218    0.2402373  75.97 0.0009523086    1.943    0.485
       111  -8.8904    116.2563    210.0708   8.4539436220e+01   1.5243860918e+01    0.3161373    0.2426648  70.32  0.001023466    1.906    0.475
       112  -9.4597      6.0497    208.0899   1.1304366354e+02   2.8137434067e+01    0.6372681    0.1964246  72.30  0.001992334    5.332    0.812
       113  -8.4212     85.6773    209.6077   9.2492621108e+01   1.9545794853e+01     0.288494     0.180198  58.93  0.001308831    2.063    0.515
       114  -8.2470     32.6290    210.3459   1.0655137033e+02   2.5387835808e+01    0.2186115    0.1262676  55.63 0.0006391158    1.741    0.426
       115  -9.2584    236.5988    207.5991   5.8045692997e+01  -6.1898138549e-01    0.3935107    0.1985248 -43.54  0.001567724    2.080    0.519
       116  -8.1460     46.4789    209.4964   1.0288740740e+02   2.4207625192e+01    0.1346487    0.1190313  49.51 0.0001544002    1.060    0.056
       117  -9.2469    246.4576    207.1115   5.6324568531e+01  -1.6348947200e+00    0.2411428    0.1576798 -27.78 0.0005880644    1.206    0.171
       118  -7.6583    156.5776    207.8369   7.4243832623e+01   9.8427869046e+00    0.1730848    0.1361414 -56.36 0.0007887371    1.664    0.399
       119  -8.4361    139.1974    207.8157   7.8405668649e+01   1.2385504636e+01    0.2378405    0.1752352 -69.67 0.0007782909    2.047    0.512
       120  -7.9953    126.4214    208.2181   8.1656990660e+01   1.4169807877e+01    0.1795937    0.1429388 -68.91 0.0005419794    1.685    0.407
       121  -9.1221     99.3609    205.7522   8.8315147769e+01   1.8566508813e+01     0.394165    0.2644006  77.52  0.001192087    2.454    0.592
       122  -8.5645     56.7524    205.6490   9.9770271327e+01   2.3988354221e+01    0.3280037    0.1630874  52.86  0.001337866    2.286    0.563
       123  -8.4623     11.9517    206.5351   1.1150174369e+02   2.8045613283e+01    0.1837733    0.1173417  22.69 0.0007783703    1.581    0.368
       124  -8.1458    108.9751    204.9821   8.5654848893e+01   1.7383027904e+01    0.2190491    0.1690391  59.17 0.0006468859    1.635    0.389
       125  -7.7960     25.3079    205.6278   1.0806117774e+02   2.7148697461e+01    0.1428713   0.08206429  58.50  0.000703292    1.768    0.434
       126  -9.3887    194.8819    203.3810   6.5076734049e+01   5.2489902092e+00    0.3171795    0.2810352 -37.55  0.001069398    1.409    0.290
       127  -9.2588    192.3848    197.0170   6.4437804997e+01   6.7042409484e+00    0.3639308    0.2910407 -57.52  0.001750435    1.820    0.451
       128  -8.9249    183.7207    203.6354   6.7442702575e+01   6.7421454309e+00    0.2585462    0.2300783  39.42  0.001142093    1.494    0.331
       129  -9.6385    163.9000    202.8531   7.1680000454e+01   9.7300983640e+00    0.4488676    0.2739647  46.81  0.001174866    2.181    0.541
       130  -8.5205    131.1811    203.6651   7.9710633187e+01   1.4422190434e+01    0.2727772    0.2217063  69.31  0.001089316    1.805    0.446
       131  -7.8181     92.3134    204.6941   9.0048880879e+01   1.9771680456e+01    0.1454043    0.1044126  55.03 0.0004443548    1.621    0.383
       132  -9.4216    250.1474    201.6113   5.4799168011e+01  -1.2344557145e+00    0.3910027    0.1371256 -37.98  0.001416682    2.320    0.569
       133  -9.2820    245.9475    193.5785   5.4084654392e+01   4.1747584011e-01    0.3332474     0.248443 -61.61  0.001936617    2.614    0.618
       134  -9.0200    243.1581    200.5511   5.5741538550e+01  -3.0629866946e-01    0.2619749    0.1411281 -40.53 0.0009154815    1.733    0.423
       135  -8.3988    211.1203    201.8423   6.1613979701e+01   3.3611038870e+00    0.2111488    0.1895247 -56.94  0.001122113    1.736    0.424
       136  -8.8555    140.3685    200.9028   7.6945818165e+01   1.3621467529e+01    0.3227981    0.2495945 -89.89  0.001038702    2.268    0.559
       137  -8.3136     48.5955    202.2941   1.0161543531e+02   2.5671181652e+01    0.2239654    0.1421337  59.92  0.001099202    1.728    0.421
       138  -7.9455     10.6503    202.3076   1.1156540199e+02   2.9123525091e+01    0.1382828   0.07734862  54.62 0.0007043335    1.708    0.415
       139  -8.1634    222.0179    201.0076   5.9451512273e+01   2.1207166115e+00    0.1689302    0.1535364 -52.72 0.0006634984    1.708    0.415
       140  -8.6254     79.7731    200.7216   9.2909582251e+01   2.2350997702e+01    0.3729386    0.1875015  54.29  0.001437051    2.675    0.626
       141  -7.6914     72.6962    201.6994   9.4977427622e+01   2.3022535192e+01     0.141939    0.1045611 -21.16 0.0004851899    1.590    0.371
       142  -9.0535    237.0754    198.1274   5.6327285690e+01   7.5701905504e-01    0.3277881    0.1485419 -43.50  0.001235232    2.200    0.545
       143  -9.3596    149.7554    198.5282   7.4236770455e+01   1.2687051954e+01    0.4311605    0.3257729  73.67  0.001562417    2.465    0.594
       144  -8.8611    124.1087    199.2063   8.0774957493e+01   1.6423897271e+01    0.3103637    0.2315858  67.79  0.001023392    2.054    0.513
       145  -9.3958    113.0696    198.3594   8.3531063342e+01   1.8250232839e+01    0.4833187    0.2841081  59.16  0.001879612    2.831    0.647
       146  -9.1512     88.9310    198.6347   9.0105273984e+01   2.1619355075e+01    0.3660074    0.2582966  65.40  0.001525568    1.862    0.463
       147  -8.4542    176.9666    198.5652   6.7985483811e+01   8.6276720039e+00    0.2324098     0.192636 -53.79 0.0007680419    1.598    0.374
       148  -8.5973    202.3679    197.6729   6.2553454962e+01   5.2147987324e+00    0.2310517     0.217006 -88.72 0.0009086761    1.774    0.436
       149  -9.2689     61.3681    196.9441   9.7519372557e+01   2.5519613886e+01    0.4301933    0.2488158  63.15  0.001729055    2.248    0.555
       150  -8.0315     29.4844    197.5033   1.0631280774e+02   2.8695405104e+01    0.1313886    0.1195466  59.63 0.0008102549    1.033    0.032
       151  -8.4183     12.3993    196.6340   1.1075210517e+02   3.0322201757e+01    0.2492148   0.09855554  81.63 0.0009501054    3.228    0.690
       152  -8.0858    133.0146    195.4924   7.7852903036e+01   1.5869491664e+01    0.2169244    0.1859827 -39.73 0.0005024332    1.240    0.194
       153  -8.0256     53.7837    196.5969   9.9585779431e+01   2.6467512064e+01    0.2080057    0.1108167  37.59 0.0009415557    1.731    0.422
       154  -7.9539     36.1990    196.2172   1.0438446749e+02   2.8378653279e+01     0.195541    0.1415556  59.64   0.00105025    1.400    0.286
       155  -8.7936    224.7801    193.8651   5.7687848754e+01   2.9148149614e+00    0.3158311    0.1543245 -46.54  0.001263908    2.299    0.565
       156  -8.9162    185.1875    194.7447   6.5519539967e+01   8.1360105497e+00    0.2342038    0.2213661 -35.48 0.0006366853    1.371    0.271
       157  -9.0218    161.0049    194.1261   7.0775740273e+01   1.1852721468e+01    0.3152771    0.2454636  68.62   0.00106175    2.240    0.554
       158  -8.2522    231.0216    194.3002   5.6679451861e+01   2.0721044695e+00    0.1698879    0.1368944 -10.81 0.0005762212    1.075    0.070
       159  -8.8701     77.1045    193.7648   9.2705267503e+01   2.4337448130e+01    0.2821667    0.2252739  53.84 0.0006155624    1.343    0.255
       160  -8.8936     43.7821    192.8923   1.0196674620e+02   2.8431334011e+01    0.4852992     0.243228  65.61  0.001938411    2.733    0.634
       161  -8.6831    240.9261    191.7947   5.4581593510e+01   1.2697285341e+00    0.2303657    0.1224425   9.06  0.001146681    2.547    0.607
       162  -8.3677    198.8909    191.5821   6.2125650055e+01   6.7455106729e+00     0.237779    0.1675499 -52.89 0.0007842588    1.889    0.471
       163  -8.4162    172.7827    191.7216   6.7649987209e+01   1.0530849786e+01    0.2326037     0.190239 -74.95 0.0007967257    2.036    0.509
       164  -9.0484    139.5665    190.3324   7.5275275300e+01   1.5947833538e+01    0.3712282    0.2758895  81.58  0.001298793    2.526    0.604
       165  -8.0391    179.1711    191.2138   6.6152530256e+01   9.6687578137e+00    0.1734814    0.1655767 -40.55 0.0006343999    1.367    0.268
       166 -10.3962     92.4619    188.6678   8.7627814138e+01   2.3462030020e+01     1.072923    0.2840273  40.36  0.003176732    3.760    0.734
       167  -8.6930    215.8657    195.2718   5.9549368968e+01   3.8265612879e+00    0.2445003    0.1663222 -48.95 0.0008384042    1.845    0.458
       168  -7.4855    210.3136    189.6202   5.9553976520e+01   5.5043169126e+00    0.1174351    0.1044453 -67.62 0.0007025492    1.805    0.446
       169  -8.4117    148.6306    189.1258   7.2806001992e+01   1.4776461466e+01    0.2101934    0.1853465 -65.18   0.00114265    1.495    0.331
       170  -8.9375    129.2487    188.4340   7.7574178582e+01   1.7973172458e+01    0.2989429    0.2507995  87.68   0.00087773    1.729    0.422
       171  -9.6403    120.7846    186.2343   7.9416199236e+01   1.9783653646e+01    0.5302784    0.3266632 -73.78  0.002080393    2.804    0.643
       172  -8.9052     34.3312    188.0522   1.0412399882e+02   3.0542245631e+01    0.3636454    0.1867739  67.86  0.001520206    2.497    0.600
       173  -8.2814    237.3668    188.2921   5.4544882480e+01   2.2341061566e+00    0.1639619   0.09692044 -41.02 0.0006056073    1.592    0.372
       174  -8.7086    216.4967    187.6639   5.8049129523e+01   4.9987402438e+00    0.2271709    0.1901713 -39.46 0.0007100992    1.380    0.275
       175  -8.8121    191.5476    187.2144   6.2792911444e+01   8.5734487562e+00    0.2774866    0.2134224 -61.23 0.0009116497    1.970    0.492
       176  -9.3173    156.0893    187.3234   7.0670509251e+01   1.3970398946e+01    0.3236856    0.2520596 -57.62  0.000960963    1.635    0.388
       177  -9.1803     54.6472    186.6644   9.8182958759e+01   2.8790865080e+01    0.4417018    0.2569997  69.78  0.001408106    2.341    0.573
       178  -8.2086    230.5121    187.0303   5.5465808228e+01   3.2810913304e+00    0.1875382    0.1028441 -37.49 0.0007478739    1.566    0.361
       179  -8.6352    164.9202    186.5182   6.8451600582e+01   1.2745219516e+01    0.2986758    0.2287701 -71.28  0.001055282    2.140    0.533
       180  -9.1650    109.7747    186.0454   8.2371497407e+01   2.1524659177e+01    0.4245089    0.2705128  56.98  0.001319405    2.193    0.544
       181  -9.0766    249.2196    185.3365   5.2132699303e+01   1.2740766606e+00    0.2205355    0.1553774 -38.04 0.0007269171    1.350    0.259
       182  -8.5725    202.9311    184.4838   6.0008838188e+01   7.4126732331e+00    0.2324021    0.1749944 -48.98 0.0007581832    1.603    0.376
       183  -8.7001    183.0587    184.7866   6.4105853382e+01   1.0282336511e+01    0.2553613    0.2216495 -52.38 0.0009015506    1.477    0.323
       184  -9.1899     66.7384    184.3503   9.4378002602e+01   2.7934309968e+01    0.4124846    0.2546508  50.77  0.001144444    1.783    0.439
       185  -8.7830    224.0662    183.3721   5.5910748799e+01   4.7000469092e+00    0.2332333    0.1585567 -38.01 0.0005270277    1.360    0.265
       186  -8.7271    210.2158    184.0132   5.8533074970e+01   6.4683128565e+00    0.2214178    0.1841123 -34.43 0.0005573696    1.259    0.206
       187  -8.8360    174.2744    183.4158   6.5749356949e+01   1.1889873204e+01    0.2494516    0.2356568 -78.19 0.0007694688    1.499    0.333
       188  -7.8564     11.6813    184.3541   1.1008553436e+02   3.3327191881e+01    0.1427255   0.08310064  58.59 0.0007046494    1.748    0.428
       189  -8.0704    242.6785    183.3204   5.2800790969e+01   2.3560510662e+00    0.1064832   0.09113491 -52.29 0.0003756086    1.671    0.402
       190  -7.9940    197.1409    183.2126   6.0906560983e+01   8.4723313923e+00    0.1707166    0.1541628 -40.59 0.0004807673    1.352    0.260
       191  -8.8901     44.6514    182.2075   1.0055465530e+02   3.0975248674e+01    0.4162515    0.2347392  64.48  0.001093535    2.240    0.554
       192  -8.1646      1.7771    183.5816   1.1270165790e+02   3.4185584313e+01    0.1775876    0.1031253  36.41 0.0009423965    1.664    0.399
       193  -7.9066    235.3698    181.2271   5.3605683589e+01   3.5851806952e+00    0.1711711   0.09840025 -43.38 0.0006634476    1.699    0.412
       194  -9.1008    147.5705    180.5146   7.1443132597e+01   1.6737381130e+01    0.3112574    0.2570544  59.95   0.00095991    1.651    0.394
       195  -7.7773     90.3335    181.3143   8.7062984486e+01   2.5519423947e+01    0.1574297    0.1107804 -17.68  0.000704611    1.685    0.407
       196  -8.6583     26.4762    179.9951   1.0558375592e+02   3.3240154051e+01    0.3337339    0.1873247  71.48  0.001515356    2.102    0.524
       197  -8.6151     24.3236    175.9967   1.0582967053e+02   3.4420565231e+01    0.3388239    0.1715526  80.29  0.001416146    2.472    0.595
       198  -7.7197    240.3494    179.8049   5.2543021540e+01   3.1839968764e+00    0.1787054   0.08947798 -30.69 0.0006007855    1.695    0.410
       199  -8.5696    137.6047    179.0151   7.3666264801e+01   1.8683262670e+01    0.2999441     0.245141  73.25   0.00126569    1.817    0.450
       200  -8.6153    250.5140    172.4908   4.9666469358e+01   3.0563406035e+00    0.2090188    0.1386161 -32.41 0.0005401674    1.189    0.159
       201  -9.1920    248.9301    177.3292   5.0764775372e+01   2.5150926047e+00    0.2940134    0.2283559 -57.43  0.001238131    1.943    0.485
       202  -8.4447    247.3007    173.6789   5.0361564430e+01   3.2686148220e+00    0.1842231    0.1140713 -19.15 0.0005827085    1.530    0.346
       203  -9.3163    191.5454    178.1063   6.1055314974e+01   1.0226684499e+01    0.2868647    0.2649054  88.30 0.0006810487    1.644    0.392
       204  -9.2125     35.9524    176.6395   1.0248662604e+02   3.3231513168e+01    0.5539268    0.2514361  74.21  0.001876953    3.766    0.734
       205  -8.7019    231.2358    176.9189   5.3503751965e+01   4.8013469726e+00    0.2441565    0.1438484 -44.16 0.0007512246    1.684    0.406
       206  -8.7535    217.5929    177.1182   5.5892751851e+01   6.6086419925e+00    0.2557423    0.1990428 -54.40 0.0009143183    1.725    0.420
       207  -9.0358    205.0729    177.1647   5.8210043472e+01   8.3815334192e+00    0.2793157    0.1682359 -42.31 0.0008917135    1.596    0.374
       208  -7.9739    169.4614    178.5300   6.5878898846e+01   1.3597911918e+01    0.1414476     0.128787  -4.91 0.0008070843    1.089    0.082
       209  -8.8571    129.3264    177.2475   7.5487610925e+01   2.0424570030e+01    0.3455827    0.2456827  77.53  0.001024041    2.636    0.621
       210  -8.6677     97.3088    177.6399   8.4436983939e+01   2.5380229331e+01    0.2947673    0.1754882   3.14  0.001145084    2.310    0.567
       211  -9.0035     89.2419    176.6663   8.6616304295e+01   2.6800731305e+01     0.321382     0.229844  59.75  0.001141654    1.754    0.430
       212  -9.9212     57.3507    172.9192   9.5600651731e+01   3.1918462535e+01    0.9224042    0.4481967  74.31  0.002715419    4.835    0.793
       213  -9.0261    183.0651    175.6636   6.2340644976e+01   1.1989828209e+01    0.2868867    0.2096852 -45.98 0.0009013443    1.469    0.319
       214  -9.1936    158.8428    174.8435   6.7608044617e+01   1.6062804187e+01    0.3601291    0.2837826  70.96  0.001332669    2.071    0.517
       215  -9.2678    104.4189    174.6557   8.1870826323e+01   2.5007368764e+01     0.572402    0.3044699  55.88  0.002001483    3.052    0.672
       216  -8.5745     13.1466    176.1143   1.0905011436e+02   3.5250529614e+01    0.3161135    0.1460732  54.80  0.001370499    2.360    0.576
       217 -10.7606     75.8034    169.7898   8.9502759609e+01   3.0380746082e+01     1.313761    0.5544602 -75.53  0.003713279    4.785    0.791
       218  -8.2925    224.6347    174.1926   5.4113139881e+01   6.1256252517e+00    0.1900689    0.1409598 -43.58 0.0009206554    1.423    0.297
       219  -9.4551    175.7438    172.1037   6.3212814617e+01   1.3838379998e+01    0.3326361    0.2520089 -41.45  0.001009262    1.330    0.248
       220  -8.3735    143.1281    172.6459   7.1018223575e+01   1.9141897185e+01    0.2443882    0.2060578 -57.06 0.0006123969    1.411    0.291
       221  -8.3463    135.0388    171.7974   7.2929415541e+01   2.0683925526e+01    0.2257014    0.2013052  49.43 0.0007576837    1.312    0.238
       222  -9.1800     45.0424    170.6320   9.9053378553e+01   3.3855705187e+01    0.4356425    0.2456852  86.56  0.001485935    2.382    0.580
       223  -8.7311    198.5377    170.2629   5.8132882635e+01   1.0580834636e+01    0.2540376    0.2049476 -65.17 0.0007507203    1.841    0.457
       224  -9.6798    121.4043    169.8857   7.6208286213e+01   2.3388961651e+01    0.4485023    0.3204447 -68.47 0.0008595601    1.880    0.468
       225  -8.3805    237.3783    169.2989   5.1105773191e+01   5.2102476992e+00    0.2111609    0.1295217 -42.00 0.0007179846    1.499    0.333
       226  -9.2602    230.0255    168.7294   5.2187531092e+01   6.2833315502e+00    0.4131683    0.1418812 -45.84  0.001653167    3.034    0.670
       227  -8.4259    205.8141    169.8022   5.6651066429e+01   9.5611469014e+00    0.2323795    0.1624269 -58.11 0.0007809491    2.043    0.510
       228  -8.6862    149.8210    169.4833   6.8714327022e+01   1.8685233137e+01    0.2700037    0.2050205 -68.72  0.001014218    1.900    0.474
       229  -8.3527    244.5868    169.2885   4.9983896332e+01   4.2823978336e+00    0.1659499    0.1330316 -53.95 0.0006076908    1.658    0.397
       230  -9.1866    167.0679    168.3754   6.4400317134e+01   1.6001351203e+01    0.3454126    0.2366724  58.39  0.001165285    2.259    0.557
       231  -8.3185     88.6766    168.5399   8.5395641869e+01   2.8870590618e+01    0.2472365     0.189868  85.86 0.0007995494    1.755    0.430
       232  -8.3836    218.8482    168.1290   5.3969016833e+01   7.9413831985e+00    0.1860452    0.1572874 -35.94 0.0004642389    1.219    0.180
       233  -8.9613    111.5723    167.3258   7.8462748022e+01   2.5599484224e+01    0.3159544    0.2396452  71.50  0.001106802    1.921    0.479
       234  -8.9388    191.9095    166.4369   5.8687207505e+01   1.2310716890e+01    0.2844706    0.1792887 -42.15 0.0005755802    1.520    0.342
       235  -8.7998    184.8950    166.3165   6.0097502184e+01   1.3459233967e+01    0.2310984    0.1763272 -43.54 0.0004813168    1.346    0.257
       236  -8.5497     13.1627    167.0372   1.0829339041e+02   3.7522980694e+01    0.2303714    0.1296428  68.61  0.001073819    1.995    0.499
       237  -9.0424    159.9415    164.6434   6.5287637795e+01   1.7963741146e+01     0.335193    0.2565766 -73.22  0.001578062    2.045    0.511
       238  -9.7643    137.2153    164.4183   7.0878344114e+01   2.1936328271e+01    0.6895335    0.3184682  51.12   0.00221482    3.409    0.707
       239  -9.9931     95.1407    162.7302   8.2398959843e+01   2.9318940606e+01    0.8491238    0.4725919  66.52   0.00257256    4.291    0.767
       240  -9.0942     20.2745    165.3702   1.0601406055e+02   3.7429041301e+01    0.4314414    0.2451367  75.76  0.001904748    2.063    0.515
       241  -8.3450    233.8547    164.5908   5.0794391854e+01   6.4306550510e+00    0.2319558    0.1377839 -47.95 0.0006737289    1.805    0.446
       242  -9.4994     33.7993    163.3391   1.0163761166e+02   3.6819637481e+01    0.6338923    0.2154574  45.13  0.002172599    3.330    0.700
       243  -8.7227    212.8944    163.4987   5.4127791352e+01   9.5982386115e+00     0.244996    0.1662654 -40.50   0.00047183    1.364    0.267
       244  -8.2560     57.1264    163.6067   9.4337587398e+01   3.4317298662e+01     0.478656     0.195806   7.26  0.001344861    4.698    0.787
       245  -8.8779    246.1869    162.8660   4.8577088110e+01   5.0705049681e+00    0.1745545     0.137514 -36.57 0.0004440271    1.191    0.160
       246  -8.4326    204.9997    162.5357   5.5378596225e+01   1.0963572432e+01    0.2391416    0.1691439 -48.39 0.0006367523    1.541    0.351
       247  -9.2140      3.3793    162.1271   1.1078348540e+02   3.9380251562e+01    0.4438334    0.1805809  50.14  0.001780455    2.681    0.627
       248  -9.0192    151.7990    160.9312   6.6470511253e+01   2.0146093754e+01    0.3411297    0.2657835 -73.25  0.001023224    1.904    0.475
       249  -9.0777    177.5279    160.4537   6.0460138379e+01   1.5799043127e+01    0.2679771    0.2438546 -68.98 0.0008119885    1.444    0.307
       250  -8.7197     60.6980    159.8829   9.2635587604e+01   3.4844127641e+01    0.3780033    0.2255079  61.61  0.001015283    2.305    0.566
       251  -8.7237    227.4840    158.8677   5.0743024076e+01   8.2462295352e+00    0.2723802    0.1732929 -53.62  0.001033431    1.979    0.495
       252  -9.8667    241.9579    154.0983   4.7592924278e+01   6.9947981287e+00     0.342085    0.2770599 -84.12  0.002109042    2.158    0.537
       253  -9.4061    243.2644    149.8359   4.6609107343e+01   7.4832527640e+00    0.2784556     0.145341 -39.00  0.001525072    1.565    0.361
       254  -8.7878    245.4526    158.4804   4.7884813925e+01   5.8446228388e+00    0.1210011   0.09562021 -28.57  0.000106923    1.029    0.028
       255  -9.6576    250.1760    157.5931   4.7037413982e+01   5.3662427893e+00    0.3012698    0.1367222 -39.02 0.0007920538    1.769    0.435
       256  -8.9590    246.5781    155.4842   4.7171094977e+01   6.1599144623e+00    0.2085648    0.1471534 -27.11 0.0005111311    1.172    0.147
       257  -8.6505    236.9511    158.6717   4.9202944629e+01   6.9548533221e+00    0.2157761    0.1351555 -45.99 0.0007241216    1.582    0.368
       258  -8.3291    128.1532    158.7132   7.2110491858e+01   2.4782581199e+01    0.2564084    0.2147246 -63.99  0.000752459    1.444    0.307
       259  -9.6176    105.8552    157.8177   7.8251437482e+01   2.8792761465e+01    0.5042912    0.3335023  63.07  0.001232013    2.313    0.568
       260  -8.5506    196.7264    157.8244   5.6004159846e+01   1.3113723961e+01    0.2344273    0.1748626 -53.71 0.0007805541    1.599    0.374
       261  -8.4801    188.1278    157.6464   5.7668681588e+01   1.4555855706e+01    0.2364813    0.1781549 -45.11 0.0007336702    1.362    0.266
       262  -9.2293    167.5820    157.1233   6.1956870687e+01   1.8163324921e+01    0.3315152     0.277247  85.42  0.001027365    1.831    0.454
       263  -9.6916     81.3132    155.4312   8.5303056557e+01   3.3210392969e+01    0.5492276    0.4793715 -46.13   0.00173367    1.153    0.133
       264  -8.5691    217.9691    156.4073   5.1857098086e+01   1.0048869848e+01    0.2430886    0.1602037 -49.05 0.0007471581    1.636    0.389
       265  -8.9285     22.5010    156.3436   1.0439809366e+02   3.9571952416e+01    0.3006617    0.1430375 -43.41  0.001034917    2.195    0.544
       266  -9.0633    157.5396    155.6022   6.3960383762e+01   2.0243327494e+01    0.3248231    0.2379634 -45.97  0.001316486    1.403    0.287
       267  -9.3228    119.5919    154.7690   7.3655864001e+01   2.7177917661e+01    0.4341558    0.3183343 -86.09  0.001328902    2.237    0.553
       268  -9.3072     49.8050    155.2399   9.5443019757e+01   3.7307597455e+01    0.4434434    0.2481758  53.06  0.001505977    2.179    0.541
       269  -8.0922    204.6513    154.9103   5.3921834070e+01   1.2365414532e+01    0.1916647    0.1123145 -47.80 0.0009311434    1.773    0.436
       270  -8.4444    144.7525    154.4330   6.6845181905e+01   2.2779023995e+01    0.3259784    0.2440594  68.08  0.001172109    2.051    0.512
       271  -9.5954     68.0724    153.5335   8.9208516243e+01   3.5533596093e+01    0.4599924    0.2652226  57.82  0.001274511    2.433    0.589
       272  -9.6298    132.8432    152.7318   6.9577303232e+01   2.5293412892e+01    0.4313199    0.3602802  78.00  0.001247164    1.680    0.405
       273  -8.9733    133.3856    147.8551   6.8368927228e+01   2.6278513317e+01    0.3287216    0.1804944 -40.20  0.001050629    1.844    0.458
       274  -7.7602    232.8245    153.5961   4.8887813739e+01   8.3436224145e+00    0.1418279    0.1203156  52.55 0.0003794128    1.592    0.372
       275  -9.6628     29.2388    150.3065   1.0151844148e+02   4.0591684625e+01    0.5817977     0.280898  67.56  0.001989278    3.239    0.691
       276  -8.8286     20.0666    152.0842   1.0471259109e+02   4.0854422402e+01    0.2263513    0.1496546  62.82  0.001120665    1.700    0.412
       277  -8.4264      8.9773    153.0000   1.0832356008e+02   4.1362730124e+01    0.2026805   0.07630425  14.61 0.0006714565    2.891    0.654
       278  -9.5586    248.8698    149.2198   4.5694975166e+01   6.8197503839e+00    0.3025034    0.1390923 -39.01 0.0007982208    1.747    0.427
       279  -9.1322    247.0973    143.6837   4.4922282439e+01   7.9107648703e+00    0.2762046    0.1562656 -32.61 0.0004145789    1.486    0.327
       280  -8.2221    250.4147    140.2747   4.3838570253e+01   7.9775494329e+00     0.156396    0.1240471 -50.69  0.001059427    1.349    0.259
       281  -9.0092    189.4498    149.9536   5.5808802423e+01   1.5766217801e+01    0.2991781    0.2196466 -62.09 0.0008013821    1.861    0.463
       282  -8.0523    182.4536    150.9548   5.7436810425e+01   1.6778855494e+01    0.1906996    0.1218398 -62.68 0.0008079628    2.468    0.595
       283  -8.2920    162.7885    150.6543   6.1669311989e+01   2.0315792883e+01    0.2607142    0.1949687 -71.58  0.000762278    2.049    0.512
       284  -8.6818     98.4064    150.6741   7.9043248292e+01   3.1740233796e+01    0.3206415    0.2458614  66.56 0.0008824761    1.751    0.429
       285  -8.3508    213.1277    149.7962   5.1384459766e+01   1.1918631835e+01    0.1847225    0.1657185 -44.65 0.0004842573    1.235    0.190
       286  -8.8051      2.7340    149.1840   1.0994320685e+02   4.2690852347e+01    0.3090998   0.09888475 -73.51  0.001178351    2.692    0.629
       287  -8.4640    198.8744    148.6703   5.3723901927e+01   1.4416330673e+01    0.2527337    0.1786321 -44.37 0.0005830211    1.380    0.275
       288 -10.0068     89.2122    145.9094   8.0939090345e+01   3.4386584708e+01     0.734613    0.4568385  88.20  0.002507043    3.404    0.706
       289  -9.6095     40.1263    147.9531   9.7579338964e+01   4.0210344754e+01    0.5396417    0.2731465  52.89  0.001876194    2.521    0.603
       290  -8.9121    233.5253    147.2549   4.7571996753e+01   9.2644925023e+00    0.2842903    0.1034546 -38.11 0.0009455276    2.318    0.569
       291 -10.9111     55.1980    143.4784   9.1759359898e+01   3.9740078356e+01     1.112126    0.7328388 -83.37  0.003585121    1.924    0.480
       292  -8.3913    223.5379    146.8402   4.9059138848e+01   1.0812402419e+01    0.2131887    0.1758532 -49.48 0.0006932929    1.324    0.245
       293 -10.4380    149.0722    144.9952   6.3698785204e+01   2.3998780528e+01    0.5768986    0.4271166  79.47  0.001798405    2.356    0.576
       294  -9.8849    139.1764    144.8964   6.6184722576e+01   2.5860195644e+01    0.4474866    0.3234474 -75.67  0.001500312    2.223    0.550
       295 -10.1985    106.7056    144.0583   7.5120836855e+01   3.1932997477e+01    0.7883487    0.5344518  80.73  0.002487166    2.864    0.651
       296  -8.7779     78.2847    146.8764   8.4656212860e+01   3.5805475873e+01    0.2892016    0.2313621  72.19 0.0008417225    1.596    0.374
       297  -8.0708    206.5188    146.1226   5.1804033448e+01   1.3611644798e+01    0.1957343    0.1178591 -40.20 0.0007879058    1.489    0.329
       298  -8.1489    175.6776    146.1268   5.7830104982e+01   1.8897254887e+01    0.2165833    0.1707941 -55.13 0.0005112634    1.467    0.319
       299  -9.1004     13.1256    145.7975   1.0629580056e+02   4.2954181001e+01    0.3538207    0.2187962  61.16  0.001390917    1.846    0.458
       300 -10.2178    240.9120    144.4705   4.5946821584e+01   8.6503118414e+00    0.3558629      0.22869  -7.39  0.001938442    2.105    0.525
       301  -8.1894    243.6928    139.6961   4.4654475360e+01   9.0021281192e+00    0.1712157   0.09457329 -43.78 0.0002693001    1.570    0.363
       302  -9.0628    241.4808    136.5562   4.4373323926e+01   9.8069825925e+00    0.2731606    0.1008489 -34.86   0.00119642    2.448    0.592
       303  -8.8625    165.7115    143.8029   5.9507552446e+01   2.1162165359e+01    0.2813375    0.2510562  83.05 0.0009827336    1.488    0.328
       304  -9.7413    125.0055    142.4445   6.9450739668e+01   2.9027902678e+01    0.4857494    0.3644902 -89.79  0.001462317    2.193    0.544
       305  -7.6541    230.6913    142.3067   4.7053069832e+01   1.0479077739e+01    0.1173104   0.09266517 -61.40 0.0005296245    1.613    0.380
       306  -8.3422    182.0778    141.5823   5.5512625394e+01   1.8621145820e+01    0.2342412    0.1831379 -48.45 0.0005703641    1.337    0.252
       307 -10.9946     69.2748    139.0696   8.6139811533e+01   3.9064846246e+01    0.9186347    0.5278553 -60.93  0.003180111    1.818    0.450
       308  -9.1738      2.4361    141.2155   1.0934262267e+02   4.4738906039e+01    0.3637282    0.1756797  67.86  0.001464258    2.585    0.613
       309  -9.8171     23.3890    137.6889   1.0188820942e+02   4.4343137756e+01    0.5946198    0.2964394  65.37  0.001892068    2.990    0.666
       310  -7.8888    218.4652    138.2619   4.8180333180e+01   1.3031821478e+01    0.1756934    0.1091831 -47.27 0.0009277391    1.569    0.363
       311  -8.4944    207.7576    137.7197   4.9864005813e+01   1.4871054756e+01    0.2396376    0.1582541 -58.96 0.0008620808    1.986    0.496
       312  -8.6498    197.5389    137.2152   5.1581423850e+01   1.6697785410e+01    0.2807262    0.1796282 -52.88 0.0009694379    1.763    0.433
       313  -8.7424    172.1937    137.8786   5.6770423564e+01   2.1131446171e+01    0.2635751    0.2150757 -84.11 0.0007264054    1.790    0.441
       314  -9.2683    150.9043    136.1040   6.1236937932e+01   2.5511107559e+01    0.5506656    0.3000927  21.80  0.002031971    2.656    0.623
       315  -8.8548    139.7348    137.3144   6.4317284044e+01   2.7393323948e+01    0.3537981    0.2179226 -13.59  0.001330727    2.540    0.606
       316 -10.3792     83.2928    133.1453   8.0171953539e+01   3.8476755940e+01    0.6496571    0.4187556 -56.00  0.001542211    1.618    0.382
       317  -9.0015    248.5164    134.8318   4.3087257262e+01   9.0696366308e+00    0.2463591    0.1549941 -42.48 0.0007930945    1.333    0.250
       318  -8.9742    250.7580    129.3564   4.1778303326e+01   9.5831596069e+00    0.4383963   0.08823865 -38.37  0.001502682    4.170    0.760
       319  -8.0546    188.0043    135.5074   5.3018064789e+01   1.8690391432e+01    0.2434896    0.1332598 -47.13 0.0004620989    1.834    0.455
       320  -8.1057    162.6679    136.1525   5.8486205808e+01   2.3257593668e+01    0.2238781    0.1809055 -57.76 0.0007524525    1.436    0.304
       321  -9.1467     39.2208    135.8694   9.6062927693e+01   4.3448066238e+01    0.2960614    0.2275005  56.19 0.0008198196    1.495    0.331
       322  -7.7706    231.3853    134.1418   4.5363717173e+01   1.1689433213e+01    0.1733765    0.0993765 -46.13 0.0004439862    1.611    0.379
       323  -8.7373    179.4988    133.8507   5.4347996407e+01   2.0549033176e+01    0.2534083     0.218547 -76.54 0.0008600509    1.503    0.335
       324  -8.8162    112.8836    133.0195   7.0775368888e+01   3.3413105058e+01    0.3309685    0.2555337  75.71 0.0007612862    1.918    0.479
       325  -7.8803    237.3916    133.1758   4.4306817966e+01   1.0936544793e+01    0.1789249   0.09562554 -46.65 0.0006789019    1.733    0.423
       326 -10.2335    132.4924    130.9301   6.4731654239e+01   3.0164367749e+01     0.586957    0.4404486 -73.55  0.001500231    1.933    0.483
       327  -9.2730    143.1132    131.3959   6.2072520887e+01   2.7999679044e+01     0.338129    0.2612246 -59.22 0.0005451553    1.533    0.348
       328 -10.1798     97.8602    129.5573   7.4594214723e+01   3.6923019286e+01    0.6830347    0.2641282 -48.11  0.002120109    2.561    0.610
       329 -10.2637     12.9599    128.8071   1.0443946494e+02   4.7354799482e+01    0.5926712    0.3127905  74.59  0.001832763    2.575    0.612
       330  -8.5047    246.9848    129.7602   4.2345776201e+01   1.0060208939e+01    0.2136509    0.1367925 -39.48 0.0006902395    1.265    0.210
       331  -8.0304    204.5141    129.9719   4.8811522920e+01   1.6763739061e+01    0.2038007    0.1186625 -41.34 0.0006423961    1.548    0.354
       332  -8.0590    192.9466    130.0198   5.0891471754e+01   1.8798115997e+01    0.2021182    0.1619378 -68.08 0.0005167052    1.603    0.376
       333  -9.2020    168.3795    129.3131   5.5663161914e+01   2.3511846946e+01    0.2800035    0.2324719 -80.67 0.0005616519    1.635    0.389
       334  -9.6888    153.0203    128.1766   5.8883761440e+01   2.6724308640e+01    0.6710452    0.2435931 -43.64  0.002089381    2.721    0.632
       335  -9.8993     73.4462    128.9736   8.2625505644e+01   4.1016094253e+01    0.4533508    0.3382219 -84.52  0.001486104    1.833    0.454
       336  -8.2986     24.3290    130.3273   1.0055852175e+02   4.6185911448e+01    0.1551003   0.09175375 -36.73 0.0007050867    1.706    0.414
       337  -7.5409    220.5089    129.5409   4.6101870834e+01   1.4151727939e+01    0.1278182    0.1100662 -31.59 0.0008091858    1.008    0.008
       338  -8.1218    211.6741    129.0789   4.7420268821e+01   1.5692629029e+01    0.2094057    0.1453162 -52.97  0.001041034    1.545    0.353
       339 -10.8120     45.0781    123.3279   9.1756295956e+01   4.6092057218e+01      1.20962    0.6459336  72.18  0.003856375    4.209    0.762
       340  -7.7694      1.3771    129.7152   1.0860938037e+02   4.7730398810e+01    0.1372871   0.09035166  53.49 0.0007014789    1.720    0.419
       341 -10.4423     60.1339    124.8497   8.6493690317e+01   4.3906276774e+01    0.7646734    0.4741481  71.03  0.002677596    2.856    0.650
       342  -9.8437    117.8861    124.8552   6.7349313017e+01   3.4323065511e+01    0.5598858    0.4196615  77.55  0.001564366    2.100    0.524
       343  -9.2607    234.9971    124.8524   4.3038020987e+01   1.2607182136e+01    0.2611655    0.1131682 -43.52  0.001255409    1.978    0.495
       344  -8.8529    179.2612    124.5948   5.2326649247e+01   2.2323127914e+01    0.2715361    0.2210989 -78.86 0.0008582635    1.657    0.396
       345 -10.2197     28.2071    121.7610   9.7835421977e+01   4.8098119517e+01    0.8129184    0.4085214  66.09  0.002859354    3.583    0.721
       346  -9.2324     26.0058    114.4798   9.7483170519e+01   5.0145129771e+01    0.2690315    0.1549764 -42.02  0.001249954    1.611    0.379
       347  -8.6872     85.1200    122.6202   7.7163142730e+01   4.0750527873e+01    0.5574382    0.2993368   6.65  0.001784073    3.352    0.702
       348  -7.8334    188.4572    123.5654   5.0316753857e+01   2.0779099869e+01    0.1359453    0.1267746 -38.29 0.0002001107    1.060    0.057
       349  -8.0437    195.0050    121.9519   4.8763582757e+01   1.9855969012e+01    0.2058053    0.1576575 -66.20 0.0004314775    1.642    0.391
       350  -8.7187    171.9570    121.3799   5.3079327401e+01   2.4331697737e+01    0.2596154    0.1899407 -53.66 0.0004938657    1.492    0.330
       351  -9.2356    158.6349    121.4149   5.5979166608e+01   2.6958366910e+01    0.3123177    0.2525801  80.97 0.0009942371    1.697    0.411
       352  -7.5851    203.2526    121.6257   4.7259482459e+01   1.8421837885e+01    0.1330636   0.09675004 -60.79 0.0003057968    1.644    0.392
       353  -7.9376    248.2709    120.6357   4.0473173070e+01   1.1252742321e+01    0.1184768   0.07841329 -56.45 0.0006998685    1.659    0.397
       354 -10.0021    141.5555    118.0506   5.9242013134e+01   3.1076331899e+01    0.5417545    0.3058822 -54.97  0.001205561    2.174    0.540
       355  -9.8488    131.1901    118.6288   6.2081740041e+01   3.3053656649e+01    0.5219477    0.3620275  76.25  0.002054481    2.556    0.609
       356  -8.5495    101.4234    119.2233   7.0964287454e+01   3.8699320140e+01    0.5833645    0.2509003  21.89   0.00160941    4.202    0.762
       357  -9.6705     71.1543    119.5160   8.1331029718e+01   4.3699923276e+01    0.3762555    0.2795827 -67.66  0.001120065    1.587    0.370
       358  -9.6883      3.0588    117.1872   1.0666064886e+02   5.0853471538e+01    0.5290722    0.2526222  63.38  0.002133342    2.996    0.666
       359  -8.2065    231.4348    117.2590   4.2047324035e+01   1.4357207213e+01    0.1715349   0.09931362 -46.96 0.0006314362    1.564    0.360
       360  -8.0978    185.6246    115.8389   4.9119308186e+01   2.2695110054e+01    0.1949346    0.1202969 -49.10 0.0003960424    1.648    0.393
       361  -9.8881    109.4026    114.0215   6.7156489879e+01   3.8364471726e+01    0.5139843    0.3708292 -76.24  0.001336101    2.169    0.539
       362  -8.6357    109.7394    107.0820   6.5233358209e+01   3.9809634060e+01    0.3760018    0.2280288   3.87  0.001284955    3.090    0.676
       363  -9.0790    249.6633    114.2176   3.9102246439e+01   1.2002875486e+01    0.2718019    0.1658915 -61.23  0.001530577    2.085    0.520
       364  -8.2834    193.0628    115.0444   4.7590911533e+01   2.1421796102e+01    0.2024517    0.1573606 -67.70 0.0004254958    1.580    0.367
       365 -10.0362     79.0221    112.3991   7.6805922091e+01   4.4194788080e+01    0.5750375    0.4186096  80.91  0.001799214    2.275    0.560
       366  -8.6488     59.6999    114.9162   8.4509271249e+01   4.6453285903e+01    0.3883633    0.1980836   4.32  0.001330266    3.010    0.668
       367  -8.1177    167.5006    114.0553   5.2292912209e+01   2.6586375951e+01    0.2143477    0.1369317 -41.89 0.0005086861    1.522    0.343
       368 -10.0395     92.7304    112.2901   7.2042909449e+01   4.1870372689e+01    0.5586668    0.3596722 -62.08  0.001566868    1.974    0.493
       369 -10.1972    133.6488    108.9193   5.8959226446e+01   3.4555222591e+01    0.6294296    0.3177634 -50.55  0.002398084    2.240    0.554
       370  -9.8013    121.8828    112.3804   6.3059291740e+01   3.6250252748e+01    0.3390376    0.2995824 -88.80 0.0006834709    1.432    0.302
       371  -9.8212     14.0574    110.8841   1.0160947423e+02   5.1889132410e+01    0.4347262    0.2668213  69.56   0.00174858    2.204    0.546
       372  -8.3881    174.8468    111.7028   5.0239656965e+01   2.5546525752e+01    0.2544863    0.1739848 -64.25 0.0005967449    1.944    0.486
       373  -8.6627    159.2006    111.6632   5.3503840089e+01   2.8722285943e+01    0.2460283     0.188194 -48.46 0.0005679771    1.343    0.255
       374  -9.8898     66.4552    110.3141   8.0891722992e+01   4.6636954186e+01     0.365012    0.2919047  74.95   0.00114014    1.740    0.425
       375 -10.2215    248.7299    107.6974   3.7995768464e+01   1.3102274194e+01    0.3393823    0.2188763 -50.57  0.002127149    1.407    0.289
       376  -9.5617    249.8907    101.4486   3.6693972604e+01   1.3832392147e+01    0.3693912    0.1319177 -41.15  0.001769343    2.224    0.550
       377  -8.2666    189.4122    107.6916   4.6591052339e+01   2.3387132275e+01    0.2482051    0.1203739 -43.95 0.0005649221    1.948    0.487
       378 -10.7112    109.6284     98.9515   6.3054917722e+01   4.1545681022e+01     1.341449    0.7193928  65.11  0.003326701    4.999    0.800
       379  -8.9532    107.9238     92.0874   6.1638661843e+01   4.3290837901e+01    0.4714961    0.2740415  27.17  0.001903204    2.012    0.503
       380 -10.4936     45.6281    101.9856   8.7097224555e+01   5.1389441571e+01    0.7938035    0.4721805  63.62  0.003019136    3.081    0.675
       381  -9.4128     46.0768     92.3310   8.4582055259e+01   5.3655081725e+01    0.5503476    0.2811806   4.26  0.002082122    2.614    0.617
       382 -10.6989     22.9062    102.2803   9.6586732179e+01   5.3468727610e+01    0.8254135    0.4638301  67.14  0.002513561    3.014    0.668
       383  -9.6702    139.9882    103.6700   5.5983831002e+01   3.4265574979e+01    0.5015455    0.2828305 -44.87  0.001026197    1.822    0.451
       384  -8.7106     78.8952    104.6463   7.4866973002e+01   4.6029431682e+01    0.3390508    0.1863414  19.33  0.001306429    2.153    0.535
       385  -8.6015    166.7790    103.9247   5.0008447227e+01   2.8590627782e+01    0.2535632    0.1882758 -59.56 0.0005928418    1.548    0.354
       386  -9.4983    150.5411    102.7370   5.3229158481e+01   3.2210025288e+01    0.4130616     0.260074 -61.41  0.001156773    2.186    0.543
       387  -9.8557    128.6330    102.0565   5.8481678458e+01   3.6979279340e+01     0.349398    0.2930328  88.15 0.0009757585    1.568    0.362
       388  -9.0242      6.4488    102.7126   1.0346043012e+02   5.4359047365e+01     0.278946    0.1977957  58.59 0.0009394359    1.751    0.429
       389  -8.0269    175.6242    101.8469   4.7763721363e+01   2.7141644842e+01     0.201282     0.121663 -49.85 0.0005166529    1.719    0.418
       390  -8.3868    160.0338    100.8655   5.0662277719e+01   3.0550607455e+01    0.2152054    0.1885199 -71.53 0.0004733783    1.293    0.227
       391  -9.1923     82.0629     99.9655   7.2470854639e+01   4.6554466420e+01    0.3684171     0.291706 -89.13  0.001018788    1.911    0.477
       392  -8.8166     42.6489    109.2682   8.9901886011e+01   4.9919430337e+01    0.3845789     0.135551  14.36  0.001196758    3.715    0.731
       393  -9.2619     95.0200     96.8351   6.7113422639e+01   4.4871612605e+01    0.3429992    0.2485134 -59.24 0.0005669701    1.699    0.412
       394 -10.0895     63.8860     95.4592   7.8093454038e+01   5.0524672529e+01    0.5787185    0.4070454  86.41  0.001617614    2.646    0.622
       395  -8.2075    164.9566     94.0042   4.7939731528e+01   3.0725932836e+01    0.2184739    0.1684422 -75.19 0.0004639812    1.642    0.391
       396  -7.7734    188.6644     93.3421   4.3447835824e+01   2.5935756322e+01    0.1401257    0.1004218 -71.54 0.0007050478    1.762    0.432
       397  -8.0932    176.4941     92.9726   4.5484237524e+01   2.8480029412e+01    0.2050847    0.1290374 -42.58   0.00054412    1.536    0.349
       398  -9.3646    139.1122     91.7373   5.3039491690e+01   3.6705345224e+01    0.4594253    0.3022103 -54.68  0.001202416    1.786    0.440
       399 -10.2475    124.1714     91.0372   5.6668361508e+01   4.0072769935e+01      0.52255     0.424528  30.26  0.001067581    1.227    0.185
       400  -9.5106      5.2405     91.7967   1.0230654402e+02   5.7121550789e+01    0.3937589    0.2327853  50.54  0.001492806    2.245    0.554
       401  -9.5015     34.7901     89.5331   8.8785123104e+01   5.5556058919e+01    0.4499274    0.2945276  89.31  0.001559125    2.543    0.607
       402  -9.3272     22.8175     89.7755   9.4160598657e+01   5.6552654906e+01    0.3597748    0.2471272 -18.22  0.001129297    1.420    0.296
       403  -8.3381    151.1783     89.1375   4.9576354494e+01   3.4539859742e+01    0.1985285    0.1667578 -66.26 0.0005810203    1.347    0.258
       404  -9.9947     86.6224     85.7081   6.6757821845e+01   4.8794551023e+01    0.6635383    0.4274184 -52.01  0.001712633    1.788    0.441
       405  -7.9135    164.2220     86.9851   4.6330087889e+01   3.2079390466e+01    0.1818276    0.1124463 -39.13 0.0003425802    1.612    0.380
       406  -8.3908     65.0035     87.4859   7.5430925173e+01   5.2150801617e+01    0.2189147    0.1246817   4.60 0.0008103743    2.579    0.612
       407  -9.8996     48.4151     84.0424   8.1383523242e+01   5.5280275699e+01    0.5217567     0.359584  66.11  0.001843488    2.529    0.605
       408  -7.4501    179.3364     85.6679   4.3231639312e+01   2.9087481230e+01    0.1414286    0.1020249 -73.37  0.000705212    1.737    0.424
       409  -8.3762    158.0071     83.5739   4.6695184353e+01   3.3998827747e+01    0.2142671    0.1797684 -41.26 0.0002011112    1.204    0.169
       410  -9.7397    104.8212     83.0476   5.9942886947e+01   4.5702284890e+01    0.4646231    0.3369989 -63.31  0.001104051    1.889    0.471
       411  -8.4199    105.4882     76.5365   5.7764216015e+01   4.6777666690e+01    0.2358044    0.1776443  13.05 0.0006852529    1.545    0.353
       412  -8.0122    185.3986     82.7834   4.1535033960e+01   2.8286607080e+01    0.1859775    0.1245332 -27.32 0.0009491155    1.677    0.404
       413  -9.0645    141.0070     82.3409   5.0038898215e+01   3.7960395597e+01    0.3835591    0.2236111 -47.28  0.001170109    1.850    0.460
       414  -8.0811     64.0332     82.3552   7.4318957879e+01   5.3419843991e+01    0.2068415    0.1802681  17.89 0.0006075469    1.089    0.081
       415  -8.1587    157.8211     91.3546   4.8730921936e+01   3.2712320961e+01    0.1973477    0.1738448 -51.25 0.0005044646    1.159    0.137
       416  -9.7065     24.7411     80.4512   9.1186163916e+01   5.8615240284e+01    0.4393676    0.3067792  74.49  0.001352711    2.304    0.566
       417  -9.2040      9.8848     80.6882   9.8223827546e+01   5.9577225789e+01    0.3720814    0.1753098  48.78  0.001472247    3.369    0.703
       418  -8.8739     74.8688     80.2946   6.9421823665e+01   5.2047436657e+01    0.2957493    0.2181199 -63.27 0.0008841946    1.845    0.458
       419  -8.2928    166.9401     79.5335   4.3939850361e+01   3.2711602272e+01    0.2039515    0.1772001 -45.73 0.0003504661    1.146    0.127
       420  -8.1415    150.1033     80.0338   4.7402383633e+01   3.6330955294e+01    0.2195143    0.1688362 -74.88 0.0007358026    1.634    0.388
       421  -8.6114    119.2879     79.8718   5.4794412370e+01   4.3196727462e+01    0.2689154    0.2227253 -73.48 0.0008064799    1.548    0.354
       422  -7.7827    184.3440     78.2058   4.0629228060e+01   2.9213702518e+01    0.1895691    0.1115587 -46.56 0.0006803342    1.648    0.393
       423  -7.7974    157.3630     76.2022   4.4908652450e+01   3.5345045048e+01    0.1940632    0.1235547 -48.45 0.0004184055    1.646    0.393
       424  -8.5361    140.6703     75.3114   4.8176282542e+01   3.9221371305e+01    0.2501151    0.1681147 -50.58 0.0006838794    1.645    0.392
       425  -9.2062    128.0716     75.1165   5.1108488002e+01   4.2082276977e+01    0.3283777    0.2189444 -52.81 0.0006688627    1.761    0.432
       426  -9.9585     63.0883     73.3731   7.1934384480e+01   5.5450905536e+01    0.4383466       0.3094 -58.19  0.001134852    1.811    0.448
       427  -9.7736     82.4351     72.1198   6.4013797552e+01   5.2272268874e+01    0.4692192    0.3083527 -57.77  0.001098903    2.102    0.524
       428  -8.5200    163.4641     72.8491   4.2883416876e+01   3.4523098067e+01    0.2539554    0.1262117 -42.18  0.001117211    2.010    0.503
       429  -8.1735    151.3810     73.1901   4.5306268840e+01   3.7158287097e+01    0.1957025    0.1259917 -48.68 0.0005111095    1.654    0.396
       430  -8.3831    115.7424     72.4907   5.3563319204e+01   4.5272039106e+01    0.2469094    0.1754299 -48.96 0.0005146514    1.598    0.374
       431  -8.2315     42.8486     72.7186   8.0620458224e+01   5.8484574083e+01    0.2442266    0.1927969  83.48 0.0009182307    2.087    0.521
       432  -7.8289    175.5466     72.2137   4.0619907420e+01   3.1986900247e+01    0.1733561    0.1291224 -22.18 0.0007035701    1.591    0.372
       433  -9.0776    105.8790     71.6021   5.6117688712e+01   4.7576325191e+01     0.265333    0.2147208 -50.21 0.0006873696    1.420    0.296
       434  -9.4289     95.1425     70.6556   5.9169420727e+01   5.0010098526e+01    0.4298674    0.2696176 -56.95  0.001006282    2.245    0.555
       435  -9.4047     51.5462     69.4023   7.5634254115e+01   5.8022884548e+01    0.4404954    0.2836628 -70.60   0.00135182    2.779    0.640
       436  -9.3359     16.6950     69.6228   9.2452903441e+01   6.1722530267e+01    0.3635934    0.2089436 -68.45  0.001099667    2.009    0.502
       437  -9.6230     30.5333     69.2608   8.5473660815e+01   6.0618468802e+01    0.5147777    0.2261447  -1.56  0.001764378    3.621    0.724
       438  -7.4974    157.2862     69.7017   4.3219038675e+01   3.6379667308e+01    0.1363172    0.1042158 -75.21 0.0002029666    1.552    0.355
       439  -8.9219    147.0768     68.1231   4.4812072816e+01   3.8922000146e+01    0.2850587    0.1931248 -42.99 0.0007250008    1.536    0.349
       440  -8.8907    138.7875     66.0752   4.5998556934e+01   4.1123532827e+01    0.2785057    0.1824545 -50.59 0.0007324253    1.711    0.416
       441  -8.9321    121.6835     65.8548   4.9975690643e+01   4.5047201471e+01    0.3345466    0.2228736 -58.51 0.0007365948    1.975    0.494
       442  -9.1763     37.1890     64.0276   8.0637647282e+01   6.1011155852e+01     0.293101    0.2327885 -66.50  0.001102067    1.689    0.408
       443  -9.1892    109.9811     63.4020   5.2344731614e+01   4.8062445431e+01    0.2847547    0.2093758 -42.18 0.0007870706    1.498    0.333
       444  -8.3601     63.6818     63.6599   6.8472480620e+01   5.7261229036e+01      0.25121    0.1653882 -16.21  0.001173427    1.772    0.436
       445  -8.1497     66.7912     61.3916   6.6406944745e+01   5.7147799490e+01    0.2644453    0.1673048  18.40   0.00122348    1.695    0.410
       446  -8.2394    213.0347     62.9504   3.3305565950e+01   2.5643079615e+01    0.1630426    0.1440675  16.98 0.0004231878    1.537    0.349
       447  -7.8449    158.0220     61.5373   4.0931565778e+01   3.7429112402e+01     0.197729    0.1273241  61.01 0.0004221091    1.493    0.330
       448  -9.1888     97.6073     60.3901   5.5022193033e+01   5.1251748330e+01    0.3086245    0.2376744  56.78 0.0009375747    1.382    0.276
       449  -9.7376     73.3454     59.1777   6.3032655405e+01   5.6355282286e+01    0.4065901    0.2530111 -47.95  0.001145885    1.928    0.481
       450  -8.3575     52.3991     61.4083   7.2598219903e+01   5.9495613326e+01    0.2885474    0.1219562  19.03 0.0009569162    3.437    0.709
       451  -8.4610     89.1204     59.2652   5.7383823379e+01   5.3224777272e+01     0.250394    0.1905454 -69.93   0.00105392    2.048    0.512
       452  -8.1042    146.7962     58.9896   4.2349671922e+01   4.0349495763e+01    0.1770265    0.1100095 -35.08 0.0005806266    1.718    0.418
       453  -8.5931    130.7089     57.3770   4.5264611760e+01   4.4285080389e+01    0.2408311    0.1647682 -48.65 0.0005926565    1.638    0.389
       454  -9.9064     23.4344     56.0215   8.5142290253e+01   6.4123707114e+01    0.4573988    0.3316127  76.71  0.002164045    2.699    0.629
       455  -9.3141      7.5136     56.9091   9.4040814299e+01   6.5123480242e+01    0.2763046    0.2201839  84.90 0.0009635749    1.826    0.452
       456  -8.2117    140.0574     55.8108   4.2802616829e+01   4.2353685330e+01    0.2438324    0.1623561 -50.72 0.0005913715    1.675    0.403
       457  -8.7756    119.3336     55.7078   4.7446303361e+01   4.7143155834e+01    0.2695585    0.2152841 -77.32 0.0006956983    1.610    0.379
       458  -8.8042     44.3059     55.3802   7.4271678960e+01   6.1824790083e+01     0.275859     0.238082 -60.28 0.0009172606    1.582    0.368
       459  -9.2231     62.6168     53.7221   6.5389180317e+01   5.9249352043e+01    0.4819289    0.2272045 -50.50  0.001919714    2.890    0.654
       460  -9.0207     53.9977     53.5172   6.9071063439e+01   6.0724223445e+01     0.382155    0.2059486 -54.76  0.001462958    2.717    0.632
       461  -8.6088    105.7935     52.9040   5.0113684505e+01   5.0622921077e+01    0.2430614    0.1949429 -61.09 0.0006852646    1.585    0.369
       462  -8.3280    250.4850     52.4979   2.7620711826e+01   2.0288313105e+01     0.109113   0.08525299 -57.78 0.0008104897    1.008    0.008
       463  -9.5513     92.4738     50.3889   5.3214401531e+01   5.3921002636e+01    0.3835154     0.241583 -46.01  0.001067755    1.921    0.479
       464  -8.0429    129.9512     48.9678   4.2916228761e+01   4.5644365889e+01    0.2115574    0.1616041 -74.64  0.000609151    1.620    0.383
       465  -8.3008    120.8863     47.1752   4.4398183792e+01   4.7990729920e+01    0.2014773    0.1807157  81.02 0.0005478625    1.189    0.159
       466  -8.1729    112.4297     46.6971   4.6301440013e+01   5.0004096082e+01    0.2298017    0.1321692 -39.73  0.000700975    1.940    0.484
       467  -9.1320     82.1786     46.0416   5.5047286842e+01   5.6740687655e+01    0.3229282    0.2328008 -48.06 0.0009287337    1.751    0.429
       468  -7.7316    156.6858     46.6529   3.7214343348e+01   3.9763392503e+01    0.1333936   0.09852358  30.44 0.0007047193    1.718    0.418
       469  -8.6548     44.9679     44.4658   6.9878337896e+01   6.3713254128e+01    0.2216858    0.1909538 -50.72 0.0006272834    1.559    0.358
       470  -9.1551     16.6869     43.6007   8.4822486615e+01   6.7225181139e+01    0.3877823    0.1780555 -59.54   0.00155691    2.680    0.627
       471  -7.9185     32.6635     44.2817   7.6111317248e+01   6.5422490462e+01     0.121972    0.1011107  43.46 0.0003340218    1.620    0.383
       472  -8.3197    132.8210     43.0530   4.0544824608e+01   4.5751755854e+01    0.2032492     0.174062 -77.64 0.0004826798    1.279    0.218
       473  -9.3772     69.6264     41.3651   5.7853547211e+01   5.9949719245e+01    0.3560757    0.2759484 -63.23  0.001191139    2.056    0.514
       474  -8.6689     58.0857     42.4646   6.3025123017e+01   6.1913171156e+01    0.2326715    0.1937968 -51.58 0.0008036873    1.639    0.390
       475  -9.6338      5.1753     41.8233   9.1107265238e+01   6.8416129620e+01    0.3208856    0.2189648 -75.04  0.001328612    2.115    0.527
       476  -8.5752    105.8609     41.2381   4.6177886765e+01   5.2234354285e+01    0.2215484    0.1854012 -48.52 0.0006563357    1.404    0.288
       477  -8.7172     36.8980     40.4780   7.2383682557e+01   6.5551692893e+01    0.2138539    0.1869257 -46.22 0.0006733978    1.504    0.335
       478  -8.4636    144.6396     48.7669   3.9906974273e+01   4.2259837625e+01    0.1851547    0.1199309 -45.53 0.0007224442    1.653    0.395
       479  -8.8328     95.7445     37.9275   4.7803277737e+01   5.4943763490e+01    0.2265999    0.1858671 -56.17 0.0007220128    1.547    0.354
       480  -8.0893     80.7787     36.7796   5.2040134610e+01   5.8339331341e+01    0.1706815    0.1593214  69.91 0.0004255466    1.318    0.241
       481  -9.3440     26.2165     35.1756   7.6104284563e+01   6.7819393739e+01     0.276378     0.222986 -56.87 0.0008833508    1.782    0.439
       482  -8.1322    126.0457     35.3067   3.9563977431e+01   4.8287318516e+01    0.1897993    0.1555566  62.21 0.0004003079    1.080    0.074
       483  -8.6429    111.9361     34.4892   4.2393312474e+01   5.1679013329e+01    0.2350005    0.1816028 -56.92 0.0006946143    1.577    0.366
       484  -7.7442     88.7148     34.3392   4.8571008100e+01   5.6952890492e+01     0.127178    0.1071289 -81.59 0.0005298847    1.633    0.388
       485  -8.3854    118.9792     32.6615   4.0209396665e+01   5.0251424004e+01    0.2577608    0.1617653 -51.74 0.0007922273    1.961    0.490
       486  -8.0922    104.3048     33.6801   4.3987263852e+01   5.3535410440e+01    0.1308496    0.1041788 -81.59 0.0003447082    1.632    0.387
       487  -8.7497     60.7707     32.3645   5.7751393252e+01   6.2925832665e+01    0.2198804    0.2064426  61.61 0.0007058888    1.442    0.307
       488  -8.6284     48.6278     33.0994   6.3446848924e+01   6.4968165375e+01    0.2110614    0.1666342  35.33 0.0006336809    1.277    0.217
       489  -8.8867     72.3843     31.1646   5.2756258529e+01   6.0812776841e+01    0.2237937    0.1997973 -76.87 0.0007798524    1.615    0.381
       490  -8.1109    139.3097     31.3109   3.5882057239e+01   4.5634647813e+01     0.132396   0.09216241  37.73 0.0002310834    1.624    0.384
       491  -8.9862     13.0736     30.1147   8.2014819754e+01   7.0064323307e+01     0.283723    0.2056298 -63.82  0.001134211    2.086    0.521
       492  -9.0915    156.1890     29.3500   3.2691017793e+01   4.1935815306e+01    0.2390331    0.1837491 -21.33  0.001128946    1.591    0.372
       493  -8.3910    101.6844     29.1480   4.3068567937e+01   5.4663529871e+01    0.1959209    0.1620056 -61.46 0.0007206551    1.511    0.338
       494  -7.7419     42.3238     29.7136   6.5046361929e+01   6.6491529119e+01    0.1172686    0.1013682  48.86 0.0005069211    1.602    0.376
       495  -9.0755     81.6496     27.3165   4.8077473734e+01   5.9340476300e+01    0.2502709    0.2098966 -84.38 0.0008000698    1.686    0.407
       496  -9.1139      3.9582     27.5341   8.6979002575e+01   7.1246207886e+01    0.2435295    0.1978827  89.61  0.001163865    2.218    0.549
       497  -8.7275     91.9201     26.2999   4.4631763886e+01   5.7196890937e+01    0.2560755    0.1802718 -48.15 0.0007059958    1.819    0.450
       498  -7.9477     34.9611     22.9516   6.5808295736e+01   6.8605052085e+01    0.1805718    0.1525123  48.04 0.0009210556    1.704    0.413
       499  -8.4896    104.5123     22.5208   4.0050477945e+01   5.4728239929e+01    0.1339144    0.1130788  53.93 -1.53175e-05    1.010    0.010
       500  -9.0243     63.7211     20.8167   5.1615317116e+01   6.3819630323e+01    0.2633005    0.2129387 -48.79 0.0007693777    1.731    0.422
       501  -8.8827     48.3165     21.4033   5.8370588589e+01   6.6644200371e+01    0.2133967    0.2008617   1.27 0.0007448384    1.328    0.247
       502  -7.9554    191.4979    249.5233   7.3381610586e+01  -1.8064708839e+00     0.124373    0.0950668   2.54 0.0004253733    1.057    0.054
       503  -8.8385     74.1322     19.3549   4.7289859380e+01   6.1839019250e+01    0.2193628    0.1849635 -33.56  0.000673819    1.449    0.310
       504  -7.6259    127.4918     19.5325   3.4424884790e+01   4.9643114049e+01    0.1307867    0.1099485  62.70 5.464232e-05    1.031    0.030
       505  -8.0593     87.7800     17.3448   4.2370970254e+01   5.9064959098e+01    0.2112299    0.1520644 -40.23 0.0006525402    1.707    0.414
       506  -7.9261     39.0016     18.0343   6.1319571002e+01   6.8650760218e+01    0.1550065    0.1236746  10.82 0.0004181605    1.053    0.050
       507  -8.0994    113.0169     16.9625   3.6312137671e+01   5.3291992415e+01    0.1539315    0.1364729  57.91 0.0004496721    1.060    0.057
       508  -7.9677     30.4345     15.9291   6.4914578832e+01   7.0250070868e+01     0.138867    0.1130075 -60.25 0.0005040524    2.340    0.573
       509  -8.1619     97.0301     15.0214   3.9130878651e+01   5.7187433880e+01     0.187081    0.1487465 -74.31 0.0004871361    1.606    0.377
       510  -8.1502      7.4840     15.4941   7.9429532368e+01   7.3050265990e+01     0.122927   0.09322257  -5.97 0.0008102577    1.030    0.030
       511  -8.0923    120.5209     20.5273   3.6007515128e+01   5.1186145868e+01    0.1310282    0.1121636  69.76 9.879068e-05    1.062    0.059
       512  -8.0169    183.9765    250.0000   7.4990425432e+01  -1.0127325270e+00    0.2018467   0.05932708  27.94 0.0006597361    2.945    0.660
       513  -9.0764    175.7175    247.4999   7.6342297578e+01   3.5204295211e-01    0.2739678    0.2332659  70.28  0.001397102    2.369    0.578
       514  -9.1708    156.2861    247.6805   8.0574070087e+01   2.7036741660e+00    0.2955582    0.2215895  57.29  0.001624858    2.289    0.563
       515  -9.3742    153.4583    247.4963   8.1174778839e+01   3.0879707765e+00    0.2402608    0.1925021 -14.96  0.000581959    1.202    0.168
       516  -8.8484    132.2337    247.6902   8.6009294624e+01   5.7397863164e+00    0.2599513    0.2026707  64.94 0.0006472737    2.012    0.503
       517  -8.2254    113.3846    248.6324   9.0508784174e+01   7.9589970463e+00    0.2112985    0.1328924 -64.46  0.001110353    2.173    0.540
       518  -9.0783    243.0294    246.4259   6.3283483324e+01  -6.7384374786e+00    0.3394401    0.1307706 -34.48  0.001573838    2.183    0.542
       519  -9.9926    223.9075    243.9195   6.6268155298e+01  -4.5193958229e+00     0.440117    0.2295977 -45.86   0.00204281    2.578    0.612
       520  -8.4457    218.4851    247.1296   6.7769208820e+01  -4.4060650632e+00    0.2782652    0.1004066 -39.54  0.001311771    2.658    0.624
       521  -9.3401    103.7734    246.5511   9.2523368032e+01   9.5541641944e+00    0.3997577        0.255 -89.40  0.001904533    2.861    0.650
       522  -8.8762    232.7012    246.8045   6.5137097172e+01  -5.7988276836e+00    0.2036075    0.1309514 -33.03 0.0008126936    1.540    0.351
