#   1 NUMBER                 Running object number                                     
#   2 MAG_AUTO               Kron-like elliptical aperture magnitude                    [mag]
#   3 X_IMAGE                Object position along x                                    [pixel]
#   4 Y_IMAGE                Object position along y                                    [pixel]
#   5 X_WORLD                Barycenter position along world x axis                     [deg]
#   6 Y_WORLD                Barycenter position along world y axis                     [deg]
#   7 A_WORLD                Profile RMS along major axis (world units)                 [deg]
#   8 B_WORLD                Profile RMS along minor axis (world units)                 [deg]
#   9 THETA_WORLD            Position angle (CCW/world-x)                               [deg]
#  10 FWHM_WORLD             FWHM assuming a gaussian core                              [deg]
#  11 ELONGATION             A_IMAGE/B_IMAGE                                           
#  12 ELLIPTICITY            1 - B_IMAGE/A_IMAGE                                       
         1 -15.0209     43.7305    200.6835   1.3229378197e+02   2.8802676416e+01     8.480905     2.403294  58.15   0.03239187    4.476    0.777
         2 -15.1042      8.0591    148.6603   1.3439492395e+02   4.2775427439e+01     4.003228     1.050184 -76.99   0.01641185    3.579    0.721
         3 -13.1885    196.4875     32.6676   6.2641796018e+01   3.1946632023e+01     1.383272     1.045972  56.22  0.006637075    1.247    0.198
         4 -13.8962    210.5357     16.1365   5.6316636279e+01   3.0350258241e+01     1.601613     1.073725  34.93  0.008033485    1.880    0.468
         5 -11.8021      2.4967     14.3374   1.1152401953e+02   6.9295735068e+01    0.6799247    0.2035983 -55.54   0.00304812    3.779    0.735
         6 -11.0363    162.2757    250.0093   1.1670437770e+02   2.3388268643e+00    0.4084495    0.1233851  49.05  0.001706515    2.760    0.638
         7 -10.4507    191.2238    249.8848   1.1170525667e+02  -2.5540204958e+00    0.2403184    0.1292571  28.10  0.001248884    2.135    0.532
         8 -11.9394    139.4347    248.3859   1.2042237995e+02   6.3956840217e+00    0.4470891    0.3034521 -79.07  0.002805534    1.918    0.479
         9 -11.2966    125.9006    249.2462   1.2281236116e+02   8.4705081041e+00    0.2598449    0.1928582  44.57  0.001778797    1.274    0.215
        10 -10.9101    100.3970    249.4213   1.2706336637e+02   1.2406992414e+01    0.3504762    0.1593096  40.59  0.001885983    2.166    0.538
        11 -11.5212     92.6625    249.4124   1.2831963866e+02   1.3552914291e+01    0.3094097    0.1896707  60.23 0.0005239748    1.260    0.206
        12 -11.0644     89.0933    244.6240   1.2847001645e+02   1.4851486909e+01    0.2138335    0.1650662  73.83 0.0007269744    1.089    0.082
        13 -11.6842     21.4672    235.8165   1.3838540825e+02   2.4867240632e+01    0.2518847    0.2015951 -79.82  0.001725363    1.499    0.333
        14 -12.2705      4.9485    226.5556   1.4031514679e+02   2.8128877180e+01    0.4660727    0.3736478  61.40  0.003145058    1.430    0.301
        15 -12.0737     31.4055    248.0726   1.3763498539e+02   2.1719008370e+01     0.513149    0.3731549  47.15  0.004166608    1.619    0.382
        16 -11.8950     39.4491    246.2838   1.3634862443e+02   2.1090610946e+01    0.6080377    0.2951951  78.62  0.003925296    1.841    0.457
        17 -12.0016      3.4434    247.3393   1.4152286611e+02   2.4778125166e+01    0.7727115    0.3328209  86.89  0.002443435    1.859    0.462
        18 -12.9283     14.1943    239.9394   1.3966719347e+02   2.4926435357e+01     0.956513    0.4396532  78.76  0.006437839    1.775    0.437
        19 -10.8308    227.8268    204.2017   9.7847254491e+01  -2.9119276831e+00    0.3537026    0.2528471 -57.11 0.0007824167    2.170    0.539
        20  -9.1857     42.2320    231.7526   1.3496332538e+02   2.3244801349e+01    0.1290385    0.1053726 -88.40 0.0006587819    1.329    0.247
        21  -9.6759    192.1483    193.0549   1.0247985214e+02   5.5625778616e+00    0.3140009    0.1822758 -65.17  0.001243462    3.359    0.702
        22 -11.5895     60.9318    193.2262   1.2844056415e+02   2.8161340999e+01    0.3121383    0.2451079 -48.96  0.001666391    1.749    0.428
        23 -13.8191     40.7396    217.1923   1.3414392494e+02   2.6034674302e+01    0.8344586    0.5614437  73.55  0.002680679    1.132    0.117
        24  -8.3333    181.5182    192.4445   1.0444249217e+02   7.7579396166e+00    0.1385276    0.1216648  39.82 5.388392e-05    1.027    0.026
        25 -11.6857     66.9196    185.8916   1.2649221905e+02   2.8854678825e+01    0.2612846    0.2082362 -63.28 0.0004902501    1.370    0.270
        26 -12.5868     33.7851    225.8456   1.3588581453e+02   2.5263102212e+01    0.2723788    0.2168678  87.90 0.0007616095    1.254    0.202
        27 -10.8128     76.9287    174.0032   1.2301155610e+02   2.9939322656e+01    0.2263814    0.1958226 -72.63 0.0003667093    1.186    0.157
        28 -13.1781     63.8196    171.4662   1.2540393875e+02   3.2248377041e+01     0.452091     0.254436 -47.72  0.001717751    2.242    0.554
        29 -11.9247     84.3741    165.2591   1.2021230679e+02   3.0712518700e+01    0.6649141    0.4904489  67.45  0.003907519    1.312    0.238
        30 -12.6427     67.3943    144.0745   1.2082438489e+02   3.7678066782e+01    0.8424956    0.5265338  86.80  0.002906006    1.902    0.474
        31 -11.8707     58.4295    134.2105   1.2139448987e+02   4.0965166665e+01      1.49625     0.480141 -72.73  0.003908189    7.092    0.859
        32  -9.8179     97.5773    149.8927   1.1478717851e+02   3.1983674649e+01     0.290161    0.2412024 -58.80  0.000807877    1.190    0.160
        33  -9.2198    100.6417    145.9137   1.1336424473e+02   3.2349027624e+01    0.2097211     0.161777 -41.18 0.0006422697    1.486    0.327
        34 -12.0226     86.0700    148.8478   1.1726642206e+02   3.4008940062e+01    0.2691095    0.2286265 -52.12 0.0004575074    1.261    0.207
        35 -11.1408    151.0381    228.6156   1.1591118218e+02   7.4662459422e+00    0.3036063    0.2129306  28.63  0.001752549    1.705    0.413
        36 -10.4127     96.5135    132.6196   1.1183844177e+02   3.5940659798e+01    0.2512729     0.218251 -29.70 0.0008621662    1.371    0.270
        37  -9.5335    109.3688    135.6759   1.0932131860e+02   3.3093652096e+01    0.3304673    0.2212874 -20.88   0.00131448    2.593    0.614
        38  -9.0448    106.6300    122.8977   1.0731250041e+02   3.6361559718e+01    0.1883057    0.1617297 -59.76 0.0003439291    1.111    0.100
        39 -12.0436    107.7009    245.1919   1.2544640921e+02   1.1973453995e+01    0.3912432     0.200776  49.32  0.001683279    1.535    0.349
        40  -9.0644    203.4738    111.4766   8.2469475265e+01   1.7641141922e+01    0.1522865     0.146701  17.39 0.0001941374    1.049    0.047
        41 -10.1828    167.7975    112.7278   9.0209248158e+01   2.5836140026e+01    0.3460299    0.2766633  86.81 0.0009823656    1.565    0.361
        42 -11.7505      1.9946     88.7938   1.2880878748e+02   5.5550364955e+01    0.6670164    0.1106132 -67.86  0.002347562    4.619    0.783
        43 -10.1143    242.0160     93.0000   7.1179801289e+01   1.1759350681e+01    0.2355593   0.08222788  56.43 0.0008088744    2.987    0.665
        44  -9.4168    158.5943     78.1757   8.2926465558e+01   3.4532584975e+01    0.2108532    0.1476062 -22.57 0.0009388863    1.639    0.390
        45 -10.9452     54.9489    238.7815   1.3347047707e+02   2.0472769742e+01     0.275312    0.1956453  81.07  0.001165656    1.119    0.106
        46 -14.0308      9.8436    206.8619   1.3845877510e+02   3.1192528833e+01      1.69894    0.7057008 -87.30   0.00844958    2.047    0.511
        47  -9.9613    189.7512     15.5822   5.8897902024e+01   3.5672409074e+01    0.1968515    0.1249223  79.69 0.0008008532    1.599    0.375
