#   1 NUMBER                 Running object number                                     
#   2 MAG_AUTO               Kron-like elliptical aperture magnitude                    [mag]
#   3 X_IMAGE                Object position along x                                    [pixel]
#   4 Y_IMAGE                Object position along y                                    [pixel]
#   5 X_WORLD                Barycenter position along world x axis                     [deg]
#   6 Y_WORLD                Barycenter position along world y axis                     [deg]
#   7 A_WORLD                Profile RMS along major axis (world units)                 [deg]
#   8 B_WORLD                Profile RMS along minor axis (world units)                 [deg]
#   9 THETA_WORLD            Position angle (CCW/world-x)                               [deg]
#  10 FWHM_WORLD             FWHM assuming a gaussian core                              [deg]
#  11 ELONGATION             A_IMAGE/B_IMAGE                                           
#  12 ELLIPTICITY            1 - B_IMAGE/A_IMAGE                                       
         1 -19.0908    236.7915    149.6821   1.7892034295e+01   7.9941206010e+00     5.369771     4.394112 -33.85   0.02220974    1.188    0.159
         2 -13.7162     69.3363     96.0696   4.4996538913e+01   4.9730500884e+01     1.926078     1.390085  67.33  0.008573224    1.688    0.408
         3 -13.3293     34.7490     83.9538   5.6988292480e+01   5.7894424875e+01     1.010493    0.9892393 -48.35  0.003626954    1.026    0.025
         4 -12.4405    220.9829     38.0972   3.5609737488e+02   2.6464331257e+01     2.026377    0.6505838 -40.58  0.007194615    2.270    0.559
         5 -11.8595    242.2797     24.6075   3.5174135930e+02   2.4013873188e+01    0.7718666    0.3944637 -60.06  0.000633398    1.671    0.401
         6 -13.3275    202.4713     16.7633   3.5243300143e+02   3.2764601829e+01     1.381422    0.8376722 -88.92  0.007954017    1.597    0.374
         7 -13.1348    193.3778      7.8091   3.5080933275e+02   3.5692761181e+01     1.681152    0.9053965  77.22  0.009158962    1.801    0.445
         8 -12.1714    243.5760     13.2568   3.4933278053e+02   2.5005553709e+01    0.9648527    0.4236914 -57.56  0.004565275    1.820    0.451
         9 -13.7910    240.0199      3.9023   3.4756600618e+02   2.6609828624e+01     2.863708     1.014422  71.38   0.01492637    3.037    0.671
        10 -11.0976    171.6804     25.8671   3.5745806795e+02   3.8736344084e+01     0.963095    0.2675963  53.61  0.001440221    4.292    0.767
        11 -12.1800    185.0935     27.5848   3.5659736445e+02   3.5395004602e+01    0.9078872    0.4521576  63.38  0.004432176    2.063    0.515
        12 -10.1202    149.6479     10.5382   3.5516413042e+02   4.5829851316e+01    0.3739722    0.2065073  49.51  0.001184339    2.110    0.526
        13  -9.9791    120.4226      9.4112   3.5840138019e+02   5.3454334213e+01    0.2971654    0.2663372 -37.48 0.0009556126    1.229    0.186
        14  -9.8726    156.9534      5.4985   3.5289120547e+02   4.4494611430e+01    0.3229021    0.1884649  61.93 0.0008600516    1.723    0.420
        15  -8.8241    105.1914      2.8245   3.5809978779e+02   5.8017789896e+01    0.1850235     0.146365  45.37 0.0003845482    1.333    0.250
        16  -8.5890    139.6417    232.2180   4.9522968713e+01   8.1554910199e+00    0.1504391    0.1072611 -31.57  0.000379083    1.548    0.354
        17  -8.5461     96.9365    126.5068   4.2797001362e+01   3.7070568314e+01    0.2230773    0.1521128  37.19 0.0003114866    1.448    0.309
        18  -9.6273    108.0579    120.1157   3.7943894555e+01   3.6498425685e+01    0.2306708    0.2110861 -12.62 0.0004001753    1.216    0.178
        19  -9.5953     67.2053    227.2138   6.5440533006e+01   1.8109339501e+01    0.1957158    0.1729009  31.88 0.0003949968    1.113    0.102
        20 -11.3626    112.1737    104.1923   3.2686095459e+01   3.9370092605e+01    0.4861511    0.3283536 -73.82  0.001383801    2.033    0.508
        21 -11.7556     82.7298     93.1262   3.9166896119e+01   4.8003368390e+01    0.9619425    0.8165224  88.26 0.0004191855    1.327    0.246
        22 -16.3251    181.4692    173.3539   3.1610511461e+01   1.2274006670e+01     3.479112     1.859582  44.26   0.01687536    2.140    0.533
        23 -10.7496    194.4053    222.6731   3.7369294990e+01   2.8683464981e+00    0.3603155    0.2084728   0.21  0.002060591    1.854    0.461
        24  -9.2853     98.8541    102.9221   3.6405944012e+01   4.2436170861e+01    0.2368154    0.2163793 -10.27 0.0004622479    1.243    0.196
        25 -10.8979    157.3289     92.9714   1.8569165769e+01   3.1750975261e+01    0.5637232    0.4141213  23.76  0.001986486    1.857    0.461
        26 -11.4764    158.3035     89.0230   1.7320019436e+01   3.2265142780e+01     0.758372    0.4356911 -37.97  0.002729347    1.692    0.409
        27 -10.3980    114.4818     94.5021   2.9333656454e+01   4.1038823213e+01    0.2930219    0.2326852  27.37  0.001275165    1.462    0.316
        28 -10.1386    117.4253     92.1483   2.7828067483e+01   4.0896439649e+01    0.4141645    0.3191182 -82.17  0.001887884    1.615    0.381
        29 -10.1330     25.2581     94.2092   6.3504776353e+01   5.6105013562e+01    0.3161121    0.1692975 -58.29  0.001196852    1.700    0.412
        30  -8.7658    236.9626    240.5404   3.2852990544e+01  -3.8070621708e+00    0.1432826    0.0812735  21.76 0.0005328098    1.571    0.364
        31  -8.4775    108.8494     93.3790   3.0652187788e+01   4.2523082506e+01    0.2085465    0.1474688  34.98  0.000180411    1.546    0.353
        32 -15.0335    192.0113    191.4201   3.2813849296e+01   7.7950859134e+00     1.759272     1.444914  87.88   0.01004513    2.524    0.604
        33 -15.5142    203.7978    175.1288   2.7815426729e+01   8.7259114607e+00     1.228071    0.8652745  11.66  0.007424511    1.448    0.310
        34 -10.4804    159.1071    219.1636   4.3682496856e+01   7.7623438819e+00    0.3270222    0.1273409  40.55  0.001177824    2.703    0.630
        35  -9.2231    140.1413     79.3609   1.8405014340e+01   3.8231173661e+01    0.2652505    0.1944084  66.87 0.0007002858    1.448    0.310
        36  -9.3059    149.3286     83.0152   1.7483859113e+01   3.5410584480e+01    0.3494478    0.2547097  -4.01  0.001538931    2.122    0.529
        37  -9.2939    138.7335    219.0963   4.7991370698e+01   1.0457951104e+01    0.2203572     0.157902  23.54 0.0007289292    1.183    0.155
        38  -9.6588    142.1128    213.8116   4.6517396132e+01   1.0915857064e+01    0.1864597    0.1769263  -3.02 0.0004802128    1.192    0.161
        39 -11.4886    228.8349     69.0130   2.3118223686e+00   2.0940628540e+01    0.7908282    0.3087117 -30.17  0.001548198    2.511    0.602
        40 -11.7411    233.7004     67.9444   1.6052619592e+00   2.0211689543e+01    0.5172642    0.4687421 -50.13 0.0005454369    1.156    0.135
        41 -10.8378    210.0798     66.6858   3.7749960863e+00   2.4831989308e+01    0.5406201    0.3114326 -65.03  0.001182018    2.011    0.503
        42 -11.1393     55.1354    201.6293   6.6276402487e+01   2.4916266351e+01    0.3899095     0.279037 -49.63  0.001865693    1.674    0.403
        43  -9.6434    190.4841     67.4294   6.3652508550e+00   2.8772577236e+01    0.2383109     0.226113  41.30 0.0008369407    1.271    0.213
        44 -10.7497    142.9081     85.5343   1.9573706448e+01   3.6418776415e+01    0.3728977    0.2864549 -16.47 0.0008374605    1.671    0.401
        45 -10.7631      2.7961     65.3236   7.0185855098e+01   6.5312034388e+01    0.3048377    0.1600584 -62.52  0.001452746    1.630    0.387
        46  -9.3549    215.7794     62.9149   2.2753062326e+00   2.4241372383e+01     0.188064    0.1663775 -74.63 0.0005065569    1.161    0.139
        47  -8.8602     12.2533    200.7108   7.7377349446e+01   2.9489347468e+01    0.1493402    0.1435489 -42.65 0.0004914297    1.333    0.250
        48  -9.7918    151.0833     62.9437   1.1313679608e+01   3.8507062284e+01    0.2219536    0.1802913  18.30 0.0006612384    1.674    0.403
        49 -10.7588    241.7958     61.0910   3.5941891299e+02   1.9696276914e+01    0.2759162    0.1798808  71.66 0.0007372721    1.852    0.460
        50 -10.5921    171.4791     57.0161   6.2575616271e+00   3.4596827062e+01    0.3261545    0.2466582  41.33  0.001716226    1.642    0.391
        51  -9.8908    167.4760     57.4794   6.9825020654e+00   3.5462481107e+01    0.2055513     0.127569  54.34 1.953659e-05    1.722    0.419
        52  -9.8235    144.1002     59.5414   1.1597151505e+01   4.0763742218e+01    0.2810279    0.2161202 -43.57  0.000740524    1.268    0.211
        53 -11.0245      6.4815     84.3114   7.0939141581e+01   6.0126214779e+01    0.2940246     0.224041  70.76  0.001597545    1.362    0.266
        54 -11.0948    230.8428     54.2369   3.5888684385e+02   2.2543748665e+01     0.536906    0.2652645 -43.47  0.001977866    1.564    0.361
        55  -9.4638     88.8271    185.6631   5.5513930873e+01   2.4138330410e+01    0.2871979    0.2067754 -28.52  0.001004534    1.757    0.431
        56  -9.6354    130.4268    244.1622   5.2907131858e+01   7.3934810722e+00    0.1880569    0.1343753  36.01 0.0003346827    1.284    0.221
        57  -8.5336     49.6388    172.7543   6.5045102635e+01   3.2413362750e+01    0.1926755    0.1275347  88.42 0.0005998125    1.615    0.381
        58 -11.0812    127.1464    159.2415   4.1067288258e+01   2.3966549306e+01    0.4613632    0.2028506 -54.42  0.001752094    2.509    0.601
        59 -10.8806    208.9580     34.4501   3.5621815696e+02   2.9347258587e+01    0.6397063    0.1889187  60.16  0.002593532    3.577    0.720
        60  -9.6640    245.8847    240.7036   3.1523661134e+01  -4.6346097901e+00    0.1549143    0.1094328 -15.20 0.0004038866    1.208    0.172
        61  -8.7814    191.1558    240.8998   4.0568448057e+01   7.8287764948e-01    0.1556672    0.1264642  16.25 0.0004640421    1.274    0.215
        62 -10.2707    217.1092     56.9735   7.6929283329e-01   2.4795031255e+01    0.1979796    0.1717681  85.07 0.0003479319    1.270    0.212
        63  -9.5028    196.1651     56.0361   2.7851080023e+00   2.9218792162e+01    0.2280172     0.178802 -17.04 0.0007489237    1.560    0.359
        64 -12.8782     57.5990     90.3369   4.8245379227e+01   5.3131343365e+01    0.8531925    0.6792967 -62.84  0.001112534    1.252    0.201
        65 -10.2260     97.8298    192.5808   5.4079284193e+01   2.1319522643e+01    0.4320553    0.2087057 -70.52  0.001734844    2.911    0.656
        66 -11.4076     17.6755     49.4704   5.7373546020e+01   6.8343661047e+01    0.5123363    0.1302371 -46.34   0.00167446    3.556    0.719
        67 -11.1859    150.6704     48.6818   7.0610153897e+00   4.0838937881e+01    0.4413432    0.2642479 -82.97  0.001883377    2.141    0.533
        68  -9.2937    137.0071    193.2852   4.4586444311e+01   1.5390951746e+01    0.1855489    0.1564773  22.51 0.0002851517    1.062    0.058
        69 -10.6409    188.0495     43.4293   4.7725851245e-01   3.2727225620e+01    0.3015163    0.2626588  26.62 0.0008833819    1.554    0.356
        70  -9.2515    174.0656     41.9933   1.7263451758e+00   3.6130947694e+01    0.1987557    0.1778504 -70.91  0.000335384    1.046    0.044
        71 -10.1362    180.1274     39.6081   3.4847871417e-01   3.5035079183e+01    0.3764387    0.2575529  32.09  0.001721565    2.245    0.555
        72  -9.7947    162.6541     34.4630   9.9955691039e-01   3.9857164901e+01    0.2308105    0.2160077  85.92 0.0004097625    1.140    0.123
        73  -9.3941    166.9815     31.3127   3.5954453819e+02   3.9205073783e+01    0.2001962    0.1690297 -50.63 0.0004296656    1.122    0.109
        74 -10.1907    113.3897    150.1915   4.2946804061e+01   2.8407918916e+01    0.2076548    0.1459865 -66.61 0.0006548527    1.658    0.397
        75 -11.1450     67.5835    144.0421   5.5637090924e+01   3.7436722420e+01    0.8448259    0.4208411  54.08  0.003122377    2.333    0.571
        76  -8.3415    213.3022     58.2720   1.4539733293e+00   2.5369600872e+01    0.1769232   0.09593421 -42.71 0.0003592895    1.503    0.334
        77  -9.5586    138.4101     19.9144   3.5961338178e+02   4.7700832785e+01    0.3457594    0.2131332  33.99  0.001570683    2.308    0.567
        78  -9.2720    179.4899     31.5389   3.5821976752e+02   3.6209451628e+01    0.1976852     0.176396 -67.70 3.836746e-05    1.076    0.070
        79 -10.4809      2.3288    138.0803   7.7278087313e+01   4.5809126960e+01    0.2219956    0.2136617  13.94 0.0004621237    1.200    0.166
        80  -8.7712    101.0305    135.4921   4.3496125687e+01   3.4117307696e+01     0.232444    0.1995067 -56.39 0.0005368075    1.190    0.159
        81 -10.5210    112.0626    141.4719   4.1556316468e+01   3.0679914325e+01    0.3570369    0.2175447 -55.35 0.0005993739    1.711    0.416
        82 -10.9247    197.0171     37.9238   3.5813855012e+02   3.1459513011e+01    0.8254296    0.1962641  58.83  0.002927853    4.183    0.761
