#   1 NUMBER                 Running object number                                     
#   2 MAG_AUTO               Kron-like elliptical aperture magnitude                    [mag]
#   3 X_IMAGE                Object position along x                                    [pixel]
#   4 Y_IMAGE                Object position along y                                    [pixel]
#   5 X_WORLD                Barycenter position along world x axis                     [deg]
#   6 Y_WORLD                Barycenter position along world y axis                     [deg]
#   7 A_WORLD                Profile RMS along major axis (world units)                 [deg]
#   8 B_WORLD                Profile RMS along minor axis (world units)                 [deg]
#   9 THETA_WORLD            Position angle (CCW/world-x)                               [deg]
#  10 FWHM_WORLD             FWHM assuming a gaussian core                              [deg]
#  11 ELONGATION             A_IMAGE/B_IMAGE                                           
#  12 ELLIPTICITY            1 - B_IMAGE/A_IMAGE                                       
         1 -12.8969    189.1871     29.5279   6.5500023071e+01   3.4693119296e+01      0.55257    0.5129489 -54.99  0.003550457    1.198    0.165
         2 -13.2812    199.1509     16.3800   6.1134447590e+01   3.3869981267e+01    0.6372983    0.5561358  32.34   0.00368703    1.549    0.354
         3 -13.4728    133.2276    245.6880   1.2506089870e+02   4.4468833517e+00    0.7573222    0.5559567 -66.74  0.004438938    1.576    0.365
         4 -15.8982    238.5671    235.9886   1.0305136936e+02  -1.1238472834e+01     3.389008     2.230165 -12.15   0.01991597    1.551    0.355
         5 -14.9849    241.1584    186.4230   9.3246663245e+01  -3.8091116406e+00     2.711461     1.009903 -32.85   0.01019734    2.897    0.655
         6 -14.6598    245.3642    162.8997   8.7702095872e+01  -3.9627089828e-01     1.990357     1.227461 -21.28  0.009409097    1.918    0.479
         7 -11.9254    140.4314    224.8359   1.2059667753e+02   7.1704305456e+00    0.5407089    0.4841038   3.63  0.002689298    1.361    0.265
         8 -13.5524    120.1806    249.2242   1.2809147107e+02   5.9699285557e+00      1.11117    0.6222458  39.71  0.004287819    1.614    0.380
         9 -14.3124    145.1714    239.4557   1.2179667451e+02   3.5508580937e+00     1.423139    0.9556196 -67.58   0.00715659    1.870    0.465
        10 -13.2244    139.9750    247.7503   1.2399943757e+02   2.9363569241e+00    0.6439274    0.4671973  58.85  0.002831774    1.346    0.257
        11 -11.5806    107.0374    250.1476   1.3075919410e+02   7.9305203049e+00    0.5270879    0.1822494  40.40  0.001754586    2.552    0.608
        12  -9.8121     99.4516    250.5074   1.3225955513e+02   9.0647292191e+00    0.1275011     0.103079  63.07 5.853073e-05    1.010    0.010
        13 -19.3125      7.5891    135.6740   1.3908794387e+02   4.6493597841e+01      18.6933     2.259128 -71.20   0.04221467    8.936    0.888
        14 -11.1216    112.7871    225.6049   1.2651905917e+02   1.1831582329e+01    0.3554064    0.2125796  58.19  0.001627502    1.653    0.395
        15 -10.1560     65.0508    223.8086   1.3612372662e+02   1.9669865164e+01    0.2074727    0.1401498  68.70 0.0007103464    1.309    0.236
        16 -11.9461     78.8001    218.8999   1.3276850544e+02   1.8729607624e+01    0.3139004    0.2242687  77.02 0.0007747578    1.308    0.235
        17 -12.5687    132.2648    214.4240   1.2071905932e+02   1.0756384176e+01    0.8397235    0.5562436 -46.34  0.004195005    1.697    0.411
        18 -12.1180    163.5074    212.8251   1.1373890220e+02   5.3403158022e+00    0.5920141     0.356764 -51.68  0.002806784    1.812    0.448
        19 -12.2627     39.8392    213.0724   1.4009650249e+02   2.5338110729e+01    0.2922094    0.1604232  58.73  0.001561038    1.658    0.397
        20  -9.1916     88.7001    242.7074   1.3347862680e+02   1.2248281534e+01    0.1079075    0.1019944  -3.18 0.0003228589    1.567    0.362
        21 -12.3440    127.6427    235.8483   1.2485216192e+02   7.2476028279e+00     0.473472    0.2752196  36.20  0.001870084    1.694    0.410
        22 -12.9152    226.2734    186.2536   9.5926382000e+01  -1.2124833426e+00     1.074795    0.5471542 -28.90  0.004565355    2.216    0.549
        23 -11.2356     77.4019    183.8070   1.2843562023e+02   2.7023390565e+01    0.3949319    0.2281514 -43.52  0.001687172    2.214    0.548
        24 -10.9590     81.1224    178.2559   1.2670619064e+02   2.7792844565e+01    0.3150381    0.2159491 -46.22 0.0007900252    1.655    0.396
        25 -11.6691    134.1591    231.4265   1.2288812171e+02   6.9813808774e+00    0.3167547    0.2362421  40.00  0.001096656    1.249    0.199
        26 -11.1350     88.6152    167.7554   1.2313169034e+02   2.9162854135e+01    0.2636952    0.2409573 -84.34 0.0004165399    1.023    0.022
        27 -12.6928     77.0005    163.8759   1.2538719390e+02   3.1938293477e+01    0.4850833    0.2947101 -41.05  0.001439999    2.024    0.506
        28 -12.4168    120.6114    229.5829   1.2543488632e+02   9.6877216855e+00    0.4890162     0.404497 -11.72  0.002445869    1.798    0.444
        29 -11.0582     93.4875    161.5340   1.2078264886e+02   2.9882852891e+01    0.2766394    0.1971486 -52.57 0.0006417279    1.370    0.270
        30 -10.1134    164.5025    250.5130   1.1955200343e+02  -1.6709858476e+00    0.1288463    0.1098287  39.93 -3.803861e-05    1.019    0.019
        31 -10.5709     51.2300    157.4140   1.3089184069e+02   3.7055519570e+01    0.1796834    0.1200049  50.53 0.0004972856    1.596    0.373
        32 -12.0700    124.5801    222.7521   1.2363101474e+02   1.0391680987e+01    0.5047418     0.332423  34.27  0.002557665    1.591    0.371
        33 -12.8117     69.9242    144.7003   1.2384196187e+02   3.7705804051e+01    0.5332336    0.4229595  72.04  0.002204628    1.369    0.270
        34 -11.9862     64.9947    141.7546   1.2463543132e+02   3.9118184106e+01    0.3246456    0.2652892 -49.66  0.000861785    1.204    0.170
        35 -12.5591    242.6316    143.9290   8.4145934035e+01   3.5490753701e+00    0.5332968    0.3248488 -45.48  0.002603683    1.484    0.326
        36 -11.4478     94.4708    144.1798   1.1711396718e+02   3.3976615456e+01    0.2782862    0.2487018 -43.17 0.0004579617    1.173    0.147
        37  -9.6381    114.3300    132.3495   1.0915389381e+02   3.3198056556e+01    0.1599218    0.1229899 -15.40 0.0007048558    1.766    0.434
        38 -10.3145    101.9868    129.1871   1.1175792836e+02   3.6275233932e+01     0.231821    0.2011028 -19.52   0.00091002    1.338    0.253
        39  -9.2530    109.6927    120.7106   1.0759062848e+02   3.6824462781e+01    0.1503154    0.1211458 -11.68 0.0002568158    1.575    0.365
        40  -9.8221     82.9891    230.0300   1.3320070290e+02   1.5709615697e+01    0.1611598    0.1321049  69.39 0.0007412309    1.013    0.013
        41 -12.4509    155.6615    225.8823   1.1757324166e+02   4.2428912318e+00    0.5725337    0.3872305  34.83  0.002978678    1.419    0.295
        42 -11.4209    180.1894     36.7440   6.8594180755e+01   3.5951228221e+01    0.2402044    0.2291529  87.79 0.0008163571    1.120    0.107
        43 -10.1285     83.5463    246.4802   1.3486805438e+02   1.2287769255e+01    0.1265436    0.1012261  67.41 5.876551e-05    1.004    0.004
        44  -9.8705     69.3078    227.6713   1.3567993917e+02   1.8235932071e+01    0.1369687   0.08130804  70.98 0.0004859055    1.659    0.397
