#   1 NUMBER                 Running object number                                     
#   2 MAG_AUTO               Kron-like elliptical aperture magnitude                    [mag]
#   3 X_IMAGE                Object position along x                                    [pixel]
#   4 Y_IMAGE                Object position along y                                    [pixel]
#   5 X_WORLD                Barycenter position along world x axis                     [deg]
#   6 Y_WORLD                Barycenter position along world y axis                     [deg]
#   7 A_WORLD                Profile RMS along major axis (world units)                 [deg]
#   8 B_WORLD                Profile RMS along minor axis (world units)                 [deg]
#   9 THETA_WORLD            Position angle (CCW/world-x)                               [deg]
#  10 FWHM_WORLD             FWHM assuming a gaussian core                              [deg]
#  11 ELONGATION             A_IMAGE/B_IMAGE                                           
#  12 ELLIPTICITY            1 - B_IMAGE/A_IMAGE                                       
         1 -13.5500    199.2228     46.8527   4.0247208103e+01   3.0095927529e+01     2.036374     1.295478  53.76    0.0108373    1.728    0.421
         2 -15.2048    241.3753     78.9431   4.2326919770e+01   1.6521575164e+01     4.981707     1.925192  58.89   0.02220356    2.915    0.657
         3 -11.8618      2.2327     20.3845   9.0293316435e+01   7.1892671059e+01    0.7174075   0.09896439 -51.22  0.002270518    6.246    0.840
         4 -11.9672      2.0963      5.4408   8.3426032581e+01   7.4176001632e+01    0.5814246    0.3367743  -7.00  0.003749963    1.542    0.351
         5 -12.1739    225.5604      3.5374   2.8322804050e+01   2.9647097712e+01     1.193168    0.3686535  78.94  0.005283778    3.129    0.680
         6 -10.9678    236.6757      2.2817   2.7369413400e+01   2.7556255380e+01    0.3587526    0.2122888 -88.51  0.001652882    1.452    0.311
         7  -8.8093     78.4102      4.2103   4.8875725796e+01   6.2516883250e+01    0.1442115    0.1124756 -31.37 0.0003869436    1.528    0.345
         8 -14.9767    241.3254     49.3722   3.6251362479e+01   2.0905591377e+01     2.679985     1.883013 -82.63   0.01390116    1.366    0.268
         9 -10.8307    214.0309      1.8558   2.8781071107e+01   3.2203758768e+01    0.5596845    0.1804336  77.54  0.002512946    2.850    0.649
        10 -10.8892     76.7650    224.7562   1.0610925836e+02   1.6482388210e+01    0.3147775    0.2066809 -76.75   0.00117238    1.627    0.385
        11 -12.8462     34.6081    248.4428   1.1711658820e+02   1.6786880698e+01     1.460925    0.4631014  27.86  0.005780425    3.925    0.745
        12 -13.6943     82.7022    244.8474   1.0694978273e+02   1.1453071308e+01     1.190953    0.6721969  24.74  0.004205263    2.036    0.509
        13 -12.1069     69.5513    246.5949   1.0989097775e+02   1.2873029088e+01    0.5446488    0.4126143  73.95  0.002825181    1.271    0.213
        14 -12.3137      3.0523    245.2474   1.2293304704e+02   2.0723091557e+01     1.083912    0.5867446  77.94  0.006727093    1.544    0.353
        15 -13.2713      6.8205    228.1233   1.2135966810e+02   2.3919388751e+01     2.466212    0.7884634  85.69  0.009606297    3.760    0.734
        16 -15.2594     25.8818    181.9124   1.1373579370e+02   3.2807915025e+01     8.337753     3.133631  83.64   0.02601122    4.619    0.784
        17 -10.7163     65.3950    162.9527   1.0075601263e+02   3.3035500682e+01     0.271403     0.241328 -63.44 0.0003959319    1.080    0.074
        18 -12.9219     50.7920    159.2153   1.0432795441e+02   3.5884436892e+01    0.5663118    0.3335481 -36.99  0.001503758    2.149    0.535
        19 -12.1216     74.1574    155.8951   9.7064319282e+01   3.3624120293e+01    0.6482564    0.5811217  60.42  0.002519861    1.143    0.125
        20 -13.6831     11.7258    205.9918   1.1899867179e+02   2.8385579424e+01    0.8559996    0.5710419  26.58  0.001088209    1.769    0.435
        21 -14.0825     20.6233    198.7716   1.1647508376e+02   2.9228850639e+01     2.156995    0.9240724  54.86   0.00691244    2.269    0.559
        22 -12.7200     68.0187    144.0971   9.6731457446e+01   3.7575023591e+01    0.8579695    0.5681157  66.32  0.003569921    1.921    0.479
        23  -9.9720     90.4882    143.2016   8.9825715911e+01   3.4333147845e+01    0.3060023    0.2432454  34.83  0.001003333    1.315    0.239
        24  -9.2516     94.1798    139.8580   8.8022475846e+01   3.4556873551e+01    0.2486576    0.1849462 -22.61 0.0004267101    1.675    0.403
        25  -8.3756    134.3518    142.2912   7.7401411755e+01   2.6390203631e+01    0.1616228    0.1255336  -4.75 0.0007028311    1.674    0.403
        26 -11.7512     77.9590    141.0696   9.3131109824e+01   3.6892902126e+01    0.3248844    0.2773492 -45.04 0.0004842904    1.156    0.135
        27  -8.3228    138.4564    136.4742   7.4974365949e+01   2.6920822128e+01    0.1576163    0.1521529 -67.07 6.640073e-05    1.059    0.056
        28 -10.3307    105.4901    131.0609   8.2700972286e+01   3.4725924294e+01    0.4079044    0.3351527  -2.87  0.001147738    1.474    0.321
        29  -9.9151     91.2417    127.4849   8.6113946928e+01   3.8177885363e+01    0.2989551     0.245721 -18.73 0.0007361265    1.396    0.283
        30 -11.3172     53.1504    120.0054   9.6724897537e+01   4.5769715700e+01    0.5113919    0.2598246 -78.62  0.001821287    3.015    0.668
        31 -10.6913     51.8883    114.4516   9.5978258618e+01   4.7329491951e+01    0.3231693    0.2292348 -86.72  0.001075283    1.773    0.436
        32  -9.1953    103.1456    119.6635   8.0603804900e+01   3.7939509574e+01    0.2094321    0.1944575  22.57 0.0004207633    1.122    0.108
        33  -9.9217    204.7077    110.7223   5.4576950293e+01   1.8351720669e+01    0.3177804    0.2208757  38.98  0.001568287    1.725    0.420
        34 -12.4147    167.7450     96.3166   5.7943124055e+01   2.9128970889e+01     1.161295    0.7870328 -13.25  0.004833779    2.283    0.562
        35  -8.9488     62.9930    101.6964   8.9094850230e+01   4.8991463271e+01    0.1971389     0.189178  -8.30 0.0005721023    1.077    0.071
        36 -13.0043     57.3382    246.2655   1.1239126159e+02   1.4509987316e+01    0.9503771    0.7598106  13.99  0.004289265    1.673    0.402
        37 -12.4098    103.0901    239.8599   1.0199617366e+02   9.5536935361e+00    0.5436063     0.302155 -78.98  0.002481441    2.665    0.625
        38 -11.9349    232.4132     30.5390   3.3225310310e+01   2.5160557873e+01     0.492482    0.3173092  48.97  0.001320883    2.182    0.542
        39  -8.9182     24.8053     82.7859   9.8884813666e+01   5.7789555149e+01    0.1620906    0.1503897 -81.78  0.000337575    1.274    0.215
        40 -10.4759     13.3788     60.0509   9.7977325561e+01   6.3675645783e+01    0.2337669    0.1704004 -29.82 0.0004337836    1.168    0.144
        41 -11.5986      2.0467     82.2401   1.0796187363e+02   5.9428519855e+01    0.6197217   0.08779337 -64.17  0.001991839    4.144    0.759
        42 -12.6825    113.0991    237.0285   9.9448528374e+01   8.6353073874e+00    0.4354053     0.372809 -67.14  0.002690523    1.317    0.241
        43 -12.0488     85.3232    220.9289   1.0370742048e+02   1.6113952825e+01     0.774334    0.4484025  77.09  0.003414925    2.426    0.588
        44 -13.5630    111.2887    230.1508   9.8956233919e+01   1.0292890695e+01     1.659123    0.2893686  39.47  0.004883359    4.403    0.773
        45 -11.4112     45.7222    178.8650   1.0833279962e+02   3.1439558086e+01    0.3761311    0.2807314 -33.22  0.001143736    1.720    0.418
        46 -11.8509     85.4269    233.8285   1.0518229105e+02   1.3326348489e+01    0.3950498    0.2114774  31.95  0.001925782    1.802    0.445
        47 -11.4825     52.9188    172.7619   1.0564304864e+02   3.2128292583e+01    0.3017566    0.2522569 -46.86 0.0004771603    1.303    0.233
