#   1 NUMBER                 Running object number                                     
#   2 MAG_AUTO               Kron-like elliptical aperture magnitude                    [mag]
#   3 X_IMAGE                Object position along x                                    [pixel]
#   4 Y_IMAGE                Object position along y                                    [pixel]
#   5 X_WORLD                Barycenter position along world x axis                     [deg]
#   6 Y_WORLD                Barycenter position along world y axis                     [deg]
#   7 A_WORLD                Profile RMS along major axis (world units)                 [deg]
#   8 B_WORLD                Profile RMS along minor axis (world units)                 [deg]
#   9 THETA_WORLD            Position angle (CCW/world-x)                               [deg]
#  10 FWHM_WORLD             FWHM assuming a gaussian core                              [deg]
#  11 ELONGATION             A_IMAGE/B_IMAGE                                           
#  12 ELLIPTICITY            1 - B_IMAGE/A_IMAGE                                       
         1 -14.4386    150.0974     58.9492   8.7404203570e+01   4.0413075625e+01     1.372571     1.152947  12.19  0.003544382    1.376    0.273
         2 -14.8288    161.3136     44.0077   8.0232871865e+01   3.9881918326e+01     1.317453     1.069834 -17.95  0.003795361    1.339    0.253
         3 -13.5524    189.4305     13.4034   6.6393293213e+01   3.6352001091e+01     1.390769    0.6419252 -56.97  0.005501835    2.574    0.612
         4 -14.5142    174.7211      9.4102   6.7002250557e+01   4.0571721497e+01     1.068404    0.7871191 -87.93  0.003632046    1.365    0.267
         5 -13.6980    172.3601     16.2300   6.9453468271e+01   4.0484643630e+01    0.9268131     0.511775  78.20  0.003867247    1.881    0.468
         6 -11.9622     12.7580    242.0195   1.5015855869e+02   2.4466281010e+01    0.1557562    0.1168564  79.02  0.001315782    1.226    0.184
         7 -20.1835     78.4094    176.5541   1.3275616619e+02   2.9277884783e+01     16.37067     6.599097 -66.72   0.07134008    2.462    0.594
         8 -12.7424    199.0566    178.6895   1.0763686900e+02   7.0888752857e+00    0.6424032    0.3937206 -62.77   0.00273949    2.887    0.654
         9 -13.5533    195.4554    168.7920   1.0636985359e+02   9.4539429508e+00    0.5554204    0.4748741  63.27 0.0007368057    1.346    0.257
        10 -12.6238    193.4810    164.4762   1.0587387747e+02   1.0597281749e+01    0.4064692    0.3194431  45.76  0.001625379    1.238    0.192
        11 -12.7435    204.0350    169.3368   1.0483466683e+02   7.6700860958e+00    0.6147611    0.4972276 -40.98  0.003460222    1.323    0.244
        12 -12.1812    187.8643    174.7367   1.0903586765e+02   9.9264223325e+00    0.3461119    0.2185304 -69.97  0.001402336    3.055    0.673
        13 -12.1165    165.5644    172.1654   1.1305333884e+02   1.4792264445e+01     0.266797    0.2178915  74.48  0.001047812    1.430    0.301
        14 -11.4866     26.1745    172.4348   1.4358327463e+02   3.6584276006e+01    0.2802003    0.1691682  57.05 0.0009155475    1.488    0.328
        15 -12.2020    230.3006    167.1839   9.9613947753e+01   2.9878244113e+00    0.4079424     0.197127 -48.46  0.001680672    2.824    0.646
        16 -10.6773     20.3958    166.5263   1.4431609156e+02   3.8422838985e+01    0.1834349    0.1615965 -76.95 0.0007390287    1.325    0.245
        17 -11.1539     28.4063    239.0107   1.4755273189e+02   2.3328819442e+01    0.1414169   0.08792549  85.29 0.0005720113    1.310    0.237
        18 -11.9150     21.6598    237.4223   1.4855321244e+02   2.4335420753e+01    0.1723697    0.1170897  84.25  0.001232248    1.204    0.169
        19 -11.8393    191.8834    157.8420   1.0480105774e+02   1.2097849285e+01    0.3667953    0.2564569  20.07  0.001738445    1.751    0.429
        20 -12.5161    131.1037    234.7736   1.2934652089e+02   9.9602051570e+00    0.2067823    0.1764906 -77.21 0.0008092471    1.361    0.265
        21 -10.3743     23.0589    156.1724   1.4283872404e+02   4.0445999252e+01    0.1661421    0.1371892 -76.11 0.0004701305    1.219    0.180
        22 -12.4438     23.3258    218.9091   1.4730654017e+02   2.7506042215e+01    0.3216362    0.1408029 -66.32  0.001903477    2.336    0.572
        23 -11.7750    146.4214    188.7355   1.1996902376e+02   1.5335164502e+01    0.2847103    0.2171745  -1.93  0.001004811    2.025    0.506
        24 -10.6744     17.7557    153.5236   1.4379071418e+02   4.1516886305e+01    0.2094977     0.125405 -78.48 0.0005266982    1.323    0.244
        25 -14.1019    161.9617    154.0312   1.1019261362e+02   1.9032255610e+01    0.6595947    0.5188602 -78.12  0.002586085    1.584    0.369
        26 -10.3639     17.7561    222.4365   1.4844033408e+02   2.7431467451e+01    0.1063528   0.08633123  64.03 0.0003075214    1.311    0.237
        27 -12.8123    174.2152    148.7320   1.0644210517e+02   1.7498094843e+01    0.4353578    0.3303082 -54.33  0.001406114    1.433    0.302
        28 -10.3422      7.2674    149.8067   1.4582960344e+02   4.3212682883e+01    0.1479726    0.1075946 -65.73 0.0004952759    1.370    0.270
        29 -10.4431    218.2858    219.6500   1.1144647059e+02  -2.3015692356e+00    0.1064668   0.09614916  74.48 0.0004609277    1.658    0.397
        30 -11.6867     27.4049    145.6793   1.4079854946e+02   4.2392329520e+01    0.3095405    0.2352201 -60.21  0.001230622    1.376    0.273
        31 -10.9311    130.6622    213.1602   1.2674728406e+02   1.3659475073e+01    0.3093258    0.1882927 -83.95  0.001510699    2.507    0.601
        32 -12.3599    136.0060    243.0307   1.2941293805e+02   7.9011169328e+00    0.4803616    0.3697075  27.66  0.001970695    1.504    0.335
        33 -10.1826    141.7333    240.3938   1.2808891955e+02   7.3899702770e+00    0.1387324    0.1153279 -72.66 0.0006102553    1.467    0.318
        34 -13.1590    160.7844    128.0260   1.0460371841e+02   2.4555977519e+01    0.4912254    0.4300764 -80.34  0.001863979    1.264    0.209
        35 -13.1109     11.6392    206.0576   1.4863020537e+02   3.1132536423e+01    0.4219629    0.2345761  35.46  0.002355994    2.068    0.516
        36 -11.4416    127.0274    250.2333   1.3176674809e+02   8.2144642603e+00    0.1545149    0.1250814  51.42 0.0005004974    1.081    0.075
        37 -12.4001    140.9884    120.9399   1.0747349171e+02   3.0384866006e+01    0.5004506    0.2975936  68.33  0.001823613    2.491    0.599
        38 -11.7224    139.9627    200.2105   1.2308385344e+02   1.4378674441e+01     0.370835    0.2265753  41.02  0.000856662    1.491    0.329
        39 -11.2717    167.3892    112.5468   9.9264777400e+01   2.6189692891e+01    0.3412616    0.2481967 -86.92  0.001223682    1.960    0.490
        40 -12.3875    168.4488    240.4435   1.2333748403e+02   3.0741513891e+00     0.339443    0.1681064  41.09 0.0008461549    1.611    0.379
        41 -10.4656      1.1342    197.4115   1.5004398663e+02   3.3783459998e+01   0.09874093   0.05259469 -74.24 0.0006346175    1.660    0.398
        42 -10.1631    160.4022    240.7377   1.2480291595e+02   4.3350011723e+00    0.1389487    0.1131782 -28.00 0.0009453936    1.615    0.381
        43 -11.5237    200.0735    162.0374   1.0408674270e+02   9.6922309744e+00    0.4198909    0.3407952  41.88  0.001501178    1.193    0.162
        44 -14.3721    204.5079    176.3447   1.0614649337e+02   6.4275567740e+00     1.238453    0.7695471 -61.95  0.005374102    2.799    0.643
        45 -10.8583    205.3063    110.2308   9.1064152971e+01   1.7764428629e+01    0.3150752    0.2092607  45.57   0.00102715    1.562    0.360
        46 -11.0713    139.7232    250.0224   1.2954206039e+02   6.2865990320e+00     0.223424    0.1579933 -79.52   0.00146188    1.910    0.476
        47 -12.6039     30.8866    182.3659   1.4342670354e+02   3.3981790456e+01    0.2506522    0.1954121  73.95 0.0004766689    1.083    0.076
        48 -11.8570     28.0057    179.5193   1.4378230316e+02   3.4884478984e+01    0.2476675    0.1975942 -46.54  0.001286722    1.819    0.450
        49 -10.5017    143.5146     80.9606   9.5868258960e+01   3.8059768128e+01    0.2341887    0.1509333 -39.35 0.0004271794    1.528    0.346
        50 -10.9026    160.1537    247.6747   1.2571034549e+02   3.4046545623e+00    0.2972219    0.1634226  30.08  0.001477568    1.960    0.490
        51 -10.8791     15.5757    246.8036   1.4992997868e+02   2.3365759489e+01    0.1548084   0.06909876  83.77  0.001001046    1.885    0.470
        52 -13.1288    164.9330     35.7263   7.6879798837e+01   4.0089369437e+01    0.4678034    0.4334934  46.24 0.0009154293    1.094    0.086
        53 -10.8959     13.3800     59.8803   1.3164104418e+02   6.2921444263e+01    0.1637692    0.1557066 -81.89 0.0004341519    1.259    0.205
        54  -9.6236    145.3241     34.2752   8.0066722176e+01   4.5300422534e+01    0.1504606    0.1062183  31.85 0.0002138188    1.582    0.368
        55 -12.0067    167.6237    245.4105   1.2412334901e+02   2.5251838823e+00    0.2153102    0.1745016  27.41 0.0007854427    1.223    0.182
        56 -13.1687    125.1984    240.6913   1.3107477463e+02   9.9562497857e+00    0.4921092    0.1761046 -54.52  0.002343341    3.396    0.706
