#   1 NUMBER                 Running object number                                     
#   2 MAG_AUTO               Kron-like elliptical aperture magnitude                    [mag]
#   3 X_IMAGE                Object position along x                                    [pixel]
#   4 Y_IMAGE                Object position along y                                    [pixel]
#   5 X_WORLD                Barycenter position along world x axis                     [deg]
#   6 Y_WORLD                Barycenter position along world y axis                     [deg]
#   7 A_WORLD                Profile RMS along major axis (world units)                 [deg]
#   8 B_WORLD                Profile RMS along minor axis (world units)                 [deg]
#   9 THETA_WORLD            Position angle (CCW/world-x)                               [deg]
#  10 FWHM_WORLD             FWHM assuming a gaussian core                              [deg]
#  11 ELONGATION             A_IMAGE/B_IMAGE                                           
#  12 ELLIPTICITY            1 - B_IMAGE/A_IMAGE                                       
         1 -11.9800    214.8089      2.3298   5.9092112197e+01   3.1577070228e+01    0.9220656    0.4790292  68.45  0.003865433    1.659    0.397
         2 -12.8344    190.1533     26.0971   6.7538858245e+01   3.4852764086e+01     1.401942     1.033743   0.35  0.006240457    2.040    0.510
         3 -13.0826    198.2855     20.2419   6.5027723173e+01   3.3555616130e+01     1.335197     1.087857 -35.07  0.006898913    1.406    0.289
         4 -12.2855    203.5965     13.1465   6.2700757342e+01   3.3075010011e+01    0.6836131    0.5605516  23.88  0.001903777    1.738    0.424
         5 -10.9989     32.5946     12.7250   1.0262849167e+02   6.8196475893e+01      0.55209   0.09100039 -37.54  0.001907422    5.569    0.820
         6 -11.7589     32.4612      4.0655   9.8824831134e+01   6.9229762133e+01    0.4121707    0.3094198   8.46   0.00268978    1.097    0.089
         7  -9.8662    193.3151    195.6264   1.0786512923e+02   3.2944811949e+00      0.45872    0.2232011 -62.75  0.001350213    5.220    0.808
         8 -11.4497    140.8479    248.7347   1.2701421009e+02   3.3803265797e+00     0.536009    0.2439126  38.49  0.002512064    2.013    0.503
         9 -11.9264    108.6970    246.3306   1.3282389013e+02   9.1804374729e+00    0.5392003    0.4082297  79.47  0.003405271    1.281    0.219
        10 -11.8632    100.2034    238.5887   1.3356131769e+02   1.2002827896e+01    0.5356596    0.3225541  50.20  0.002552338    1.391    0.281
        11 -11.6460    101.6103    248.1870   1.3435302650e+02   9.9781732655e+00     0.632122    0.3843376 -65.26  0.003665414    1.817    0.450
        12 -11.6755     94.4523    249.1419   1.3577431183e+02   1.0927214225e+01     0.664344    0.4504158 -57.38  0.003445628    1.790    0.441
        13 -12.4226     72.6546    245.7699   1.3940684318e+02   1.4830045323e+01    0.7736465    0.4919091  62.96  0.004808303    1.269    0.212
        14 -11.7840     82.9863    244.2491   1.3738671105e+02   1.3596998945e+01    0.4856983      0.33293 -89.27  0.002613209    1.407    0.289
        15 -11.1380     81.9684    249.6601   1.3809387254e+02   1.2731642498e+01    0.6006898    0.2954779  35.01  0.002974275    2.464    0.594
        16 -12.9019     57.2657    224.5626   1.4028379406e+02   2.1198826516e+01     1.560236    0.8462896 -50.03  0.004555283    2.679    0.627
        17 -15.2161     19.8988    170.0917   1.4256996909e+02   3.7515827130e+01     10.43531     2.854672 -81.10   0.03117942    5.621    0.822
        18 -14.8233     55.1739    212.0827   1.3948465293e+02   2.4108893554e+01     8.518003    0.2681247  44.90   0.02349283    6.734    0.852
        19 -10.9350     70.6217    191.4559   1.3394981073e+02   2.6542593874e+01    0.4107206    0.2547814 -46.55  0.002056883    2.078    0.519
        20 -10.9136     75.1815    184.8731   1.3206934260e+02   2.7387769883e+01     0.312418    0.2390803 -54.80  0.000623723    1.433    0.302
        21  -9.6937    119.2299    174.8853   1.2027842460e+02   2.2297084027e+01    0.2804146    0.2059218  11.81  0.001251751    2.166    0.538
        22  -9.8588    114.6920    174.4192   1.2126318832e+02   2.3246974544e+01    0.2911739    0.1328283  46.00  0.001142717    2.132    0.531
        23 -10.4570     83.6682    173.3592   1.2842699446e+02   2.8789968436e+01    0.2650623     0.224686 -69.83 0.0003169371    1.131    0.116
        24 -12.5087     71.4000    170.5008   1.3089199196e+02   3.1310541733e+01    0.5026613    0.2869093 -45.35  0.001325844    2.141    0.533
        25  -9.0192    137.6853    172.3326   1.1547873872e+02   1.9303355362e+01    0.1577029    0.1156127  81.67 0.0003587212    1.684    0.406
        26 -11.7676     88.2003    164.7699   1.2594316812e+02   3.0111200992e+01     1.328357    0.5903021  54.76  0.001502154    2.694    0.629
        27 -12.5665     68.0507    145.1096   1.2763868544e+02   3.7864095120e+01     1.162861    0.6566739 -89.42  0.003155376    2.572    0.611
        28 -14.3102     46.1336    226.3497   1.4251107928e+02   2.2291392294e+01     3.041065     1.670527 -50.92   0.01325495    2.679    0.627
        29 -11.0426     32.8965    157.0074   1.3817158177e+02   3.9252202571e+01    0.4954296    0.1342385 -68.24  0.001866657    3.042    0.671
        30  -9.4976    163.6820    155.8566   1.0605058076e+02   1.7545335806e+01    0.3658979    0.2393296 -59.36  0.001509997    1.711    0.415
        31  -9.2595    101.9784    148.7456   1.1953872328e+02   3.1620740265e+01    0.3261699    0.2041626 -51.38 0.0008873469    1.552    0.356
        32  -8.8529    104.3244    145.3557   1.1824861817e+02   3.2012416954e+01    0.2971372    0.2011012 -29.01  0.001280558    2.103    0.524
        33  -9.4132    134.4031    147.1172   1.1103732544e+02   2.5755522030e+01    0.6120762    0.1513026 -52.25  0.001588617    4.408    0.773
        34 -11.2657     90.9474    148.2618   1.2227858988e+02   3.3624281247e+01    0.2877152     0.258034 -38.91 0.0004352808    1.268    0.211
        35  -8.8602    112.0672    135.1960   1.1405001931e+02   3.2992196831e+01    0.2337463    0.2067716 -13.15 0.0008267764    1.379    0.275
        36  -9.8764     99.7701    132.0515   1.1661361313e+02   3.5992885545e+01    0.3354086     0.252481 -26.52 0.0009005223    1.701    0.412
        37 -11.2281     43.8975    127.9526   1.3112245416e+02   4.4931200970e+01     0.501735    0.2533634 -84.03  0.002064398    2.804    0.643
        38  -8.9422    108.6162    122.8018   1.1209952123e+02   3.6543494816e+01    0.2245248    0.2070212  24.47  0.000513077    1.200    0.167
        39 -13.5419     11.0591    206.6995   1.4739114263e+02   3.0349659998e+01     1.218522    0.7820614  52.64  0.006448941    1.483    0.326
        40  -8.7877    135.0000    119.9763   1.0447342040e+02   3.1831453683e+01    0.2604147   0.08798227 -46.47 0.0007987617    2.917    0.657
        41 -12.2633     58.5881    132.1132   1.2784128276e+02   4.2227758883e+01     1.695174      0.57648 -71.90  0.004404675    6.080    0.836
        42 -10.8013     33.1363    106.7121   1.3038277710e+02   5.0900300239e+01    0.9740922    0.0939277 -62.21  0.002176191    8.508    0.882
        43 -10.1824    168.0856    113.0003   9.4785129334e+01   2.5807677493e+01    0.3785299    0.2974282 -75.76 0.0006832049    1.495    0.331
        44 -15.3505      4.5041    236.8659   1.5036005583e+02   2.4942176314e+01     19.92669    0.4829444 -74.61   0.02539727   12.102    0.917
        45 -10.9706     71.2883    229.5397   1.3811192600e+02   1.8217264722e+01    0.4028926    0.1837424  68.44  0.001784294    2.622    0.619
        46 -10.6701     83.4417    230.4845   1.3588631556e+02   1.6220756963e+01    0.2368944    0.1844675  64.44 0.0009263874    1.056    0.053
        47 -10.9245    163.0943    225.7434   1.1933278654e+02   3.4761572427e+00    0.3986255    0.2519391  18.32  0.001807438    2.384    0.581
        48 -10.6161    122.9557     51.3139   8.7671589269e+01   4.7666759912e+01    0.3868668    0.2593355  70.39   0.00173871    1.928    0.481
        49 -10.6161    124.8204    246.4997   1.2978943719e+02   6.4854756722e+00    0.5285818    0.1337629 -52.12  0.001912064    4.590    0.782
        50  -9.6353    120.3880    249.2223   1.3095614197e+02   6.7409543944e+00    0.1650142    0.1135222 -80.58 0.0007612219    1.702    0.413
        51 -10.0476    248.7562    248.3645   1.0687730566e+02  -1.4130229093e+01    0.2221403    0.1279479  26.10  0.001320575    1.520    0.342
        52  -9.4346    226.5215    201.9466   1.0258087971e+02  -3.9715917313e+00    0.2676921    0.2151102 -66.56 0.0008978124    1.828    0.453
        53 -10.5633     66.9433    233.6334   1.3932448274e+02   1.8014974012e+01    0.3071295    0.1313154  42.29  0.001517803    2.145    0.534
        54 -11.4360     57.8274    240.1171   1.4156371716e+02   1.7997292083e+01    0.4178399     0.219292  50.42  0.002418524    1.589    0.371
