#   1 NUMBER                 Running object number                                     
#   2 MAG_AUTO               Kron-like elliptical aperture magnitude                    [mag]
#   3 X_IMAGE                Object position along x                                    [pixel]
#   4 Y_IMAGE                Object position along y                                    [pixel]
#   5 X_WORLD                Barycenter position along world x axis                     [deg]
#   6 Y_WORLD                Barycenter position along world y axis                     [deg]
#   7 A_WORLD                Profile RMS along major axis (world units)                 [deg]
#   8 B_WORLD                Profile RMS along minor axis (world units)                 [deg]
#   9 THETA_WORLD            Position angle (CCW/world-x)                               [deg]
#  10 FWHM_WORLD             FWHM assuming a gaussian core                              [deg]
#  11 ELONGATION             A_IMAGE/B_IMAGE                                           
#  12 ELLIPTICITY            1 - B_IMAGE/A_IMAGE                                       
         1 -14.4198    203.4602      5.4263   5.6587336036e+01   3.3251815129e+01     1.206387     1.026687  50.36   0.00862136    1.404    0.288
         2 -13.5348    190.4711     14.9688   6.0004640488e+01   3.5154741397e+01     1.602755    0.7332574 -74.42  0.006341916    3.698    0.730
         3 -14.1730    168.9146     49.4384   7.1379051680e+01   3.6075337367e+01     1.690722     1.200184  33.37  0.005626322    1.671    0.401
         4 -14.2559    182.8199     35.0029   6.5634999555e+01   3.4692175011e+01    0.8960668    0.7998931  72.00   0.00355743    1.047    0.045
         5 -13.7377    187.2081     28.4162   6.3482727895e+01   3.4456959576e+01    0.6070573     0.524966 -87.63  0.001378666    1.065    0.061
         6 -10.9511     87.1677     12.8026   7.7278155894e+01   5.7735250647e+01    0.2786662    0.1707924  57.66 0.0007086736    1.676    0.403
         7 -10.7622     82.1523     11.3584   7.8071223730e+01   5.8809588433e+01    0.2640748     0.155556  53.49  0.001309231    1.617    0.382
         8  -9.8247     74.2601      9.4233   7.9518103735e+01   6.0423545723e+01    0.1494277    0.1024168  52.54 0.0003854535    1.501    0.334
         9 -13.3853     10.4603    206.6029   1.4293457485e+02   2.9667621802e+01    0.5116342    0.2900584  25.96  0.002997909    2.279    0.561
        10 -18.4623     49.4553    242.9489   1.3861386222e+02   1.7830998679e+01      8.16216     7.157513 -69.02   0.05370274    1.315    0.240
        11  -4.3003     15.5476    187.4173   1.4016570570e+02   3.3420242020e+01    0.1191682   0.09789177 -80.08 0.0002750755    1.049    0.047
        12 -10.8194    153.1797    186.1518   1.0790322388e+02   1.3512243706e+01    0.2262504    0.2007947  -5.09  0.000516697    1.188    0.159
        13 -12.1181    155.6987    197.3573   1.0950313856e+02   1.0699835210e+01    0.5721996    0.3747953  76.85  0.002203127    3.080    0.675
        14 -10.8226     90.2564    183.6383   1.2238282186e+02   2.5106078715e+01    0.2833403    0.2174653  79.25 0.0008780283    1.500    0.334
        15 -12.2931    193.0804    193.2700   1.0063611781e+02   4.6692055248e+00     0.978743    0.4893215 -54.97  0.003765349    2.832    0.647
        16  -9.9077    206.4010    179.1591   9.5056986270e+01   4.9260796213e+00    0.3277096    0.1623041  26.94  0.001245418    2.747    0.636
        17  -9.6326    209.8382    176.0093   9.3724632378e+01   4.8924604746e+00     0.214203    0.1935671 -53.92 0.0007682271    1.275    0.216
        18 -12.4476    140.3844    200.2109   1.1348240550e+02   1.2882007711e+01    0.3781299     0.272115  35.10  0.001899644    1.356    0.263
        19 -19.1355     29.3352    104.6640   1.2448407520e+02   5.1130932962e+01     16.43054    0.8795739 -59.16   0.02722412   15.622    0.936
        20 -10.7427    208.8496    197.1516   9.8217242572e+01   1.1703705750e+00    0.1977466    0.1901027 -38.37 0.0004847554    1.239    0.193
        21 -11.9396    195.4596    169.0238   9.5126066292e+01   8.9237387306e+00    0.4377961    0.3903632 -63.00 0.0005877321    1.315    0.240
        22 -10.3951    192.5351    163.4732   9.4529646517e+01   1.0586195973e+01    0.3095511    0.2598338 -34.73  0.001156936    1.138    0.121
        23 -10.4210     20.5003    197.6893   1.4011854861e+02   3.0660820650e+01    0.1124001   0.09814572  88.11 0.0007775482    1.099    0.090
        24 -10.6036     15.5788    201.2715   1.4145931021e+02   3.0345322596e+01    0.1709871    0.1257006  30.29 0.0006496619    1.666    0.400
        25  -9.9709    202.8706    171.1450   9.4078891983e+01   7.1052300195e+00    0.2076425    0.1998066 -57.02 0.0004532722    1.194    0.163
        26  -9.9318    163.4803    168.9521   1.0201182421e+02   1.5184952120e+01     0.418339    0.1938578  57.37  0.001292046    3.787    0.736
        27 -11.3838    230.2196    166.5180   8.7923883363e+01   2.9891748474e+00    0.3400428    0.1748853 -53.49  0.001388606    2.558    0.609
        28  -9.9291      1.2988    163.2626   1.4088484360e+02   4.0037778986e+01     0.150401   0.08715013 -74.70  0.000872987    1.382    0.276
        29  -9.8125    113.1633    160.2025   1.1229301063e+02   2.6740974387e+01     0.218022    0.1988952 -21.03 0.0004868395    1.159    0.137
        30 -10.4501    189.5843    155.2692   9.3335768995e+01   1.2807115177e+01    0.3456767     0.252873 -78.16   0.00152065    2.152    0.535
        31  -9.9358    128.5289    156.0186   1.0752954655e+02   2.4859909427e+01    0.2100801    0.1361047 -74.73 0.0005231894    2.424    0.587
        32 -10.0972    120.2355    155.8842   1.0958687983e+02   2.6449498154e+01    0.2304769    0.2053799 -86.14  0.001197205    1.268    0.211
        33 -11.2089    165.4111    153.4153   9.8155373419e+01   1.8092444323e+01    0.4118234    0.2908189  85.46  0.001658961    2.473    0.596
        34 -12.3705    133.7101    145.1015   1.0379153219e+02   2.6309614730e+01     1.346653    0.3652592 -53.39  0.003237575    5.445    0.816
        35 -10.5082    129.5133    140.4201   1.0376139194e+02   2.8179395045e+01    0.2833942    0.2501607  51.65 0.0007385975    1.198    0.165
        36 -10.8360     89.0999    203.8959   1.2581787338e+02   2.0664626210e+01    0.4320997    0.2813869  52.65  0.001480201    1.548    0.354
        37 -10.5780    174.3541    148.8088   9.5121061981e+01   1.7221692469e+01     0.313615    0.2717193 -83.53 0.0008267096    1.424    0.298
        38 -12.3875    145.3662    146.9357   1.0135496600e+02   2.3572162456e+01    0.6079462    0.4128179  81.18   0.00232819    2.681    0.627
        39 -10.6152     93.6861    142.2359   1.1361748459e+02   3.4282947603e+01    0.2323736    0.1844501 -68.32 0.0008159022    1.369    0.270
        40 -12.6221     99.2739    139.4577   1.1149091503e+02   3.3987634486e+01    0.2968349    0.2832891   4.16 0.0004696484    1.083    0.076
        41 -11.7953    135.5996    127.4939   9.9119556261e+01   2.9785851103e+01    0.6227323    0.2371724 -48.24  0.002089725    2.704    0.630
        42 -11.3890    116.6758    130.0357   1.0462163390e+02   3.2975184202e+01    0.3626648    0.2941473 -27.73 0.0009244488    1.283    0.221
        43 -10.9138    160.5837    128.0316   9.3286014166e+01   2.4420038443e+01    0.3949674    0.3159149 -69.00  0.001778519    1.516    0.340
        44 -10.9546    120.8848    124.3280   1.0211129141e+02   3.3416919261e+01     0.303172    0.2177453 -35.01 0.0009055925    1.414    0.293
        45 -10.2821    135.2756    120.1268   9.7358414501e+01   3.1414985830e+01    0.3060403    0.1296764 -38.29  0.001043215    2.506    0.601
        46 -10.6288    111.6823    119.1250   1.0326849628e+02   3.6312565371e+01     0.291984    0.2355253  21.28  0.000872124    1.331    0.249
        47 -10.8586    167.9346    112.8604   8.7907579813e+01   2.5855236201e+01    0.4044875    0.3002339 -81.85  0.001547825    1.926    0.481
        48 -10.6878    134.5839    105.5155   9.3739230869e+01   3.4540182222e+01    0.5246033    0.1419017 -44.15  0.001525322    3.733    0.732
        49  -9.3411    175.2587    193.6405   1.0448021134e+02   7.8514384371e+00    0.1381434    0.1163778 -82.15 0.0004046487    1.624    0.384
        50 -10.5284    205.4704    110.1655   7.9935459181e+01   1.8171306865e+01    0.2971449    0.2062486  43.38 0.0009306169    1.565    0.361
        51 -10.2713     65.4476    192.6297   1.2963135287e+02   2.6616152533e+01    0.2859218    0.1928699  76.14  0.001070963    1.699    0.411
        52 -10.2579    163.1931    203.5316   1.0900693847e+02   8.0842873074e+00     0.244899    0.1961739 -41.07  0.000279462    1.286    0.222
        53 -10.5029    166.4565    188.0446   1.0529520126e+02   1.0620720634e+01    0.2655996    0.2564436  39.13  0.001510566    1.098    0.089
        54  -9.4221    127.2040     94.4206   9.2592996635e+01   3.8236624226e+01    0.1913087    0.1413768  55.99 0.0002952665    1.495    0.331
        55  -9.4223      1.3589     91.8405   1.3088592844e+02   5.5905150069e+01    0.1647016   0.07924501 -52.40 0.0001516722    1.527    0.345
        56  -9.7743    151.2961     79.9797   8.2926420629e+01   3.5549195666e+01    0.1972296    0.1874229 -27.53  0.000440354    1.082    0.076
        57 -12.3442    173.3848     72.1113   7.6431579889e+01   3.1786903345e+01    0.8331378    0.4756475 -77.12  0.001254185    3.829    0.739
        58  -9.0660    168.2826    248.2685   1.1556836727e+02  -9.9342757986e-01    0.1240828   0.09208815   7.03 0.0001648299    1.493    0.330
        59 -10.4288    169.1056    236.7567   1.1356518612e+02   8.3425081634e-01    0.2028393    0.1842214 -30.11 0.0003927448    1.198    0.166
        60  -9.9291    220.5894    229.0390   1.0196162908e+02  -6.1121269787e+00    0.3351928    0.1105665 -49.86 0.0009470937    6.708    0.851
        61  -9.9971    199.0446    222.7397   1.0503431673e+02  -1.6830951956e+00    0.1885156    0.1720434  33.27 0.0005292917    1.231    0.188
        62 -10.7713    156.2326    201.2434   1.1011391600e+02   9.8058692784e+00    0.3487331    0.2512582 -67.61  0.001094247    1.838    0.456
        63  -8.9593    115.4978     31.4560   7.6675007506e+01   5.0185496693e+01    0.1297802    0.1122268  39.07 0.0001531898    1.009    0.009
        64 -10.5554     97.5598    213.4590   1.2531083077e+02   1.7260785608e+01    0.3261817    0.2330847  24.90  0.001710832    1.633    0.388
        65 -10.8864     93.6894    205.8139   1.2506024295e+02   1.9534082303e+01    0.2954085    0.2108068 -44.69  0.001037727    1.558    0.358
