#   1 NUMBER                 Running object number                                     
#   2 MAG_AUTO               Kron-like elliptical aperture magnitude                    [mag]
#   3 X_IMAGE                Object position along x                                    [pixel]
#   4 Y_IMAGE                Object position along y                                    [pixel]
#   5 X_WORLD                Barycenter position along world x axis                     [deg]
#   6 Y_WORLD                Barycenter position along world y axis                     [deg]
#   7 A_WORLD                Profile RMS along major axis (world units)                 [deg]
#   8 B_WORLD                Profile RMS along minor axis (world units)                 [deg]
#   9 THETA_WORLD            Position angle (CCW/world-x)                               [deg]
#  10 FWHM_WORLD             FWHM assuming a gaussian core                              [deg]
#  11 ELONGATION             A_IMAGE/B_IMAGE                                           
#  12 ELLIPTICITY            1 - B_IMAGE/A_IMAGE                                       
         1  -8.3685    111.8936     34.3661   4.4193151922e+01   5.2674274362e+01    0.2338436    0.1829434 -50.70 0.0005889725    1.384    0.277
         2  -8.3578    101.6970     29.2003   4.4800321798e+01   5.5747361944e+01    0.2085867    0.1664667 -57.39 0.0006316319    1.437    0.304
         3  -9.2080      3.4947     26.9423   8.7923059013e+01   7.2052831754e+01     0.284615    0.2048618 -83.50  0.001584101    2.032    0.508
         4  -7.6629    119.6019     10.8214   3.3969378459e+01   5.3563607243e+01    0.1750313    0.1165581 -42.42 0.0006726066    1.614    0.380
         5  -8.5477     55.6430      9.7718   5.0916254851e+01   6.7886368824e+01    0.2092467    0.1804188 -61.95 0.0006620914    1.614    0.380
         6  -7.7815     47.6290      9.8229   5.4347899071e+01   6.9348028545e+01    0.1617708     0.109178 -39.06 0.0005188104    1.701    0.412
         7  -8.3265     90.9902      8.9406   3.9271681137e+01   6.0516457521e+01    0.2003377    0.1509859 -70.14  0.000692707    1.683    0.406
         8  -7.9144     28.2713      9.6319   6.4134681793e+01   7.2456331493e+01    0.1044843   0.09628461 -64.32 0.0006999143    1.668    0.400
         9  -7.7244    101.0169      8.0059   3.6555973744e+01   5.8280842055e+01    0.1554111    0.1392302  57.59 0.0005348526    1.011    0.011
        10  -8.6336     33.4258      5.0429   5.8628681323e+01   7.2301522912e+01    0.2845664    0.1827252 -55.53  0.001452959    2.933    0.659
        11  -8.3461     79.1489      3.5376   3.9954730249e+01   6.3678651409e+01    0.2444411    0.1449883 -40.78  0.001016414    1.979    0.495
        12  -7.7662     44.6065      2.7898   5.1810626354e+01   7.0694606356e+01    0.1535472    0.1084787 -33.52 0.0004676429    1.583    0.368
        13  -8.3772    192.5163      2.0775   2.2652726141e+01   3.6894905293e+01    0.1802817    0.1440029 -85.61 0.0005749373    1.081    0.075
        14  -8.0874     62.9033      1.4328   4.3884488521e+01   6.7322387159e+01    0.1814858    0.1109777  57.47  0.000998193    1.552    0.356
        15  -9.2797     77.9193    243.0984   9.8016102622e+01   1.3686471230e+01    0.3471507    0.1583978  59.45  0.001469608    2.561    0.610
        16 -10.2484    248.7829    242.2280   6.5052209962e+01  -8.2160067919e+00    0.4734955     0.183976 -39.66  0.001837094    2.770    0.639
        17  -9.2581    247.8659    234.1517   6.3965960955e+01  -7.1567086462e+00    0.1982426    0.1389278 -28.44   0.00078873    1.396    0.284
        18  -9.6866    246.5224    228.9359   6.3366722729e+01  -6.3690362128e+00     0.444076    0.1790275 -32.83  0.002438906    2.220    0.550
        19  -9.4101    233.0970    246.9951   6.8293864460e+01  -7.1000876177e+00     0.434025    0.2167526 -31.42  0.002072337    1.895    0.472
        20 -10.3460    189.1790    250.0247   7.6417972468e+01  -2.3049928485e+00    0.2487647    0.1484797  23.12  0.000397675    1.417    0.294
        21  -7.6048    125.2642    250.6129   8.8958305571e+01   6.0622686430e+00     0.117206   0.08366378  61.34 0.0006980904    1.696    0.410
        22  -8.4447     94.1416    249.5577   9.5228312710e+01   1.0405773851e+01    0.2598747    0.1279121  55.07 0.0009168021    2.174    0.540
        23  -8.7812    201.9804    243.2469   7.3120916242e+01  -2.9819302500e+00    0.2069008    0.1522242 -43.02 0.0006647296    1.716    0.417
        24  -7.9597     10.0000    244.0216   1.1185906330e+02   2.1173492827e+01    0.1654368   0.05576957 -81.60 0.0007600583    2.927    0.658
        25  -8.8780    169.1131    242.8587   7.9233871732e+01   1.3320590379e+00    0.2077289    0.1980024   9.98 0.0007722133    1.258    0.205
        26  -9.4681    159.9816    239.8523   8.0621106162e+01   3.0366238329e+00    0.3072855    0.2392714 -67.68  0.001595693    1.906    0.475
        27  -9.1166    194.1800    239.8286   7.4047588356e+01  -1.5259236551e+00     0.206454    0.1610614 -49.04  0.001111465    1.753    0.430
        28  -9.1687    182.9209    239.7661   7.6147176393e+01  -5.0025917819e-02    0.3161273    0.2215669  57.16  0.001508078    2.358    0.576
        29  -9.1060    241.1790    238.3936   6.5685027299e+01  -6.9452894096e+00    0.4322771     0.169158 -20.93  0.001935251    3.550    0.718
        30  -8.1721    146.3664    239.2402   8.3281895558e+01   5.0248956742e+00    0.1446336    0.1189869 -69.65 0.0003972731    1.650    0.394
        31  -9.0527    135.6050    238.4869   8.5396976942e+01   6.6600854806e+00    0.2193481    0.1701035  65.15 0.0008281507    1.640    0.390
        32  -8.9943    231.3018    236.4792   6.7014127006e+01  -5.6011108954e+00    0.3349161     0.210423 -37.65  0.001447056    1.739    0.425
        33  -9.0319    235.9627    230.0317   6.5245098958e+01  -5.3153278010e+00    0.3012115    0.1476122 -32.11  0.001455434    1.869    0.465
        34  -8.1814    209.1552    238.1826   7.1088888782e+01  -3.1854162599e+00    0.1411939    0.1293302   2.86 0.0005821338    1.349    0.259
        35  -8.9168    210.9634    246.1950   7.1949329794e+01  -4.4646512635e+00    0.2250647    0.1517703 -46.44 0.0009586032    2.045    0.511
        36  -8.4054     25.8328    236.8676   1.0839846485e+02   2.0988589035e+01    0.2838266   0.09225842  70.54  0.001073619    4.129    0.758
        37  -7.8336     13.3738    237.6860   1.1094023578e+02   2.2078445764e+01    0.1300533   0.05694243  56.54 0.0007032052    1.789    0.441
        38  -8.8151    217.3015    235.6642   6.9275453087e+01  -3.8443305622e+00    0.1792548    0.1582187   8.67 0.0006450156    1.301    0.231
        39  -9.4248    213.6609    231.6286   6.9295585707e+01  -2.8525361073e+00    0.2557671    0.2313997  81.15   0.00134551    2.096    0.523
        40  -9.0123    203.2403    234.4786   7.1594888068e+01  -1.9339255086e+00     0.271863    0.1954804 -54.79  0.001118234    2.185    0.542
        41  -9.8336    175.7577    233.2979   7.6592087633e+01   1.8855498017e+00    0.4326362    0.2243263 -55.11  0.002123873    2.866    0.651
        42  -9.4159    108.7695    233.9005   9.0519443916e+01   1.1252651698e+01    0.3835573    0.2258738  62.89  0.001150151    2.204    0.546
        43  -9.2605     78.5763    234.2785   9.7081884455e+01   1.5281436413e+01    0.2658346     0.180696  74.78  0.001104207    1.615    0.381
        44  -8.6581    123.0547    233.9046   8.7463766663e+01   9.2345635368e+00    0.2611764    0.1591455  60.93  0.001028164    2.181    0.541
        45  -8.4465     99.7102    234.1496   9.2499591049e+01   1.2465000582e+01    0.2013061    0.1429387  67.49  0.001170606    1.584    0.369
        46  -9.2948     68.4328    232.4048   9.9108623524e+01   1.6954527525e+01     0.456875    0.1949864  62.09  0.001916631    3.014    0.668
        47  -8.1906    194.3674    232.6274   7.2946561121e+01  -5.1980756915e-01    0.1521367    0.1362514  49.68  0.001052287    1.581    0.367
        48  -8.6238    140.1883    230.0612   8.3348414430e+01   7.4545730729e+00    0.3553291    0.1518554  49.58   0.00119099    2.975    0.664
        49  -8.4128    132.8560    232.5279   8.5215258493e+01   8.0788457599e+00    0.1809495    0.1554361 -67.64 0.0007676482    1.435    0.303
        50  -8.6665     92.5162    231.6995   9.3800519890e+01   1.3917906329e+01    0.3041112    0.1752257  68.51  0.001072329    2.279    0.561
        51  -9.4635    186.4398    230.3717   7.4100756603e+01   8.7356159435e-01    0.3035028    0.2371952 -77.08  0.001368211    2.493    0.599
        52  -7.7394     44.2806    232.6042   1.0430767930e+02   1.9827915495e+01     0.132471   0.06995907  62.44 0.0005271035    1.757    0.431
        53  -8.2095     88.1587    242.1157   9.5771921299e+01   1.2537393165e+01    0.1658945     0.124028  65.40 0.0006858018    1.356    0.262
        54  -8.7171      1.7536    230.6274   1.1296520202e+02   2.4565918049e+01    0.2298575   0.09287166  65.93  0.001206914    2.087    0.521
        55  -8.4702    149.6840    219.1002   7.9809906204e+01   7.9876098806e+00    0.3802797    0.1793689  21.14    0.0014789    2.852    0.649
        56  -8.8828    151.4740    228.9732   8.0848933597e+01   6.0111178549e+00     0.254752    0.1878752  70.98  0.001403505    2.140    0.533
        57  -9.4222    148.6266    224.3374   8.0788067216e+01   7.2222755572e+00    0.3948874    0.2752168  77.49  0.001579802    2.644    0.622
        58  -7.9533    229.6639    228.5018   6.6052345670e+01  -4.3799853477e+00    0.1827086   0.09270155 -34.99 0.0008172474    1.874    0.466
        59  -8.7866    162.3461    227.6940   7.8442839099e+01   4.6612172935e+00    0.2905813    0.1937494  54.09  0.001579907    1.984    0.496
        60  -8.7593    127.8359    227.0553   8.5578456127e+01   9.7839667426e+00    0.2783105    0.1860733  62.85  0.001239458    1.954    0.488
        61  -8.0322    120.0234    227.0517   8.7267350187e+01   1.0919563061e+01    0.2014428    0.1404581  61.89 0.0005474451    1.699    0.411
        62  -8.7780    206.0325    225.6620   6.9732004508e+01  -1.0416388225e+00    0.2029668    0.1610332 -48.63 0.0008578529    1.715    0.417
        63  -8.1309    200.0297    225.7948   7.0850387631e+01  -2.7029365205e-01    0.1918023    0.1475944 -46.75 0.0007879087    1.660    0.398
        64  -8.9631     94.1339    224.0522   9.2620923497e+01   1.5190211401e+01    0.3680423    0.1975202  61.63  0.001654609    2.324    0.570
        65  -8.4097     76.7542    223.5900   9.6460899519e+01   1.7649811990e+01     0.312737    0.1505362  57.14  0.001435627    2.231    0.552
        66  -8.3243     73.4799    220.9369   9.6937261462e+01   1.8627363448e+01    0.3166119    0.1602048  69.60  0.001387794    2.663    0.624
        67  -9.3035    238.8974    221.8228   6.3462642307e+01  -4.5917744946e+00     0.264637    0.2095231 -22.75  0.001559962    1.253    0.202
        68  -8.7722    216.6353    223.3234   6.7470487715e+01  -2.0748793084e+00    0.1978645    0.1915512 -86.49 0.0009290121    1.726    0.421
        69  -8.8171    180.3439    223.9634   7.4304618089e+01   2.7049601991e+00    0.2142319    0.1809164  32.76 0.0004328424    1.234    0.190
        70  -8.7483    104.6888    223.3221   9.0184315098e+01   1.3841659087e+01    0.3213992    0.1992114  70.28  0.001580033    2.209    0.547
        71  -8.3903     59.9782    223.9275   1.0023550970e+02   1.9731785552e+01    0.2132114    0.1185921  58.92 0.0007786667    1.704    0.413
        72  -7.9587     38.3777    224.2833   1.0501059638e+02   2.2197953353e+01    0.1668451   0.09922703  82.42 0.0007862368    1.659    0.397
        73  -8.3493    173.0222    222.8570   7.5579444412e+01   3.9226476859e+00    0.1936701    0.1635614 -62.57  0.000605283    1.634    0.388
        74  -9.1321    160.3613    221.1204   7.7881623505e+01   6.0516669432e+00    0.5094895    0.2397751  52.30   0.00192973    3.445    0.710
        75  -8.2163    140.5483    222.7341   8.2270490721e+01   8.6980715246e+00    0.1555408    0.1274716 -73.93 0.0006938393    1.593    0.372
        76  -8.1504    113.7656    223.5998   8.8206530048e+01   1.2478712126e+01    0.1842061    0.1028932  43.23 0.0003588491    1.582    0.368
        77  -9.2915    225.8276    221.6156   6.5606960169e+01  -2.9901350220e+00    0.2199378    0.1965483  40.79  0.001296885    1.645    0.392
        78  -9.2927    192.3750    221.1598   7.1554469470e+01   1.4636131018e+00    0.2519307    0.2311308 -87.59 0.0007927385    1.723    0.420
        79  -9.2609    120.6218    219.1683   8.6122460915e+01   1.2322158043e+01    0.4556454    0.2276792  57.68  0.001860815    2.955    0.662
        80  -8.6769     82.8230    220.3594   9.4765343222e+01   1.7496108969e+01    0.2979316    0.1558253  53.62  0.001203466    1.882    0.469
        81  -8.3197     27.5216    220.5148   1.0712554501e+02   2.4159209748e+01    0.2330626    0.1077974 -78.72  0.001198792    2.127    0.530
        82  -7.8863    202.7776    219.8072   6.9398072339e+01   2.4853388502e-01    0.1466647    0.1361115  17.69 0.0003876845    1.309    0.236
        83  -8.7987    249.0110    218.0768   6.1240547023e+01  -5.2731428431e+00    0.2538873     0.195877  60.64  0.001535029    3.072    0.674
        84  -8.3557    209.9783    218.9479   6.7951022696e+01  -5.8559461058e-01    0.1926309    0.1515342 -34.58 0.0006341989    1.376    0.273
        85  -9.1699    133.0222    215.7608   8.2919425127e+01   1.1111018982e+01    0.4787509    0.2905681  74.38  0.001937397    3.523    0.716
        86  -8.8868     51.6308    217.1444   1.0153944566e+02   2.2175837017e+01    0.2531549    0.1643646  74.18  0.001084832    1.510    0.338
        87  -8.6686    169.4389    216.0822   7.5257016630e+01   5.5688778176e+00    0.2523818    0.2050985 -80.67 0.0009761322    1.948    0.487
        88  -8.5685    142.9512    216.3973   8.0851245910e+01   9.4885566886e+00    0.2247824    0.1853406 -86.93 0.0007650885    1.653    0.395
        89  -7.7587    112.2977    217.6203   8.7779504704e+01   1.3855399993e+01    0.1366915   0.09361577  65.25 0.0007022832    1.760    0.432
        90  -8.4545     62.1261    217.0544   9.9147727376e+01   2.0905221824e+01    0.2607647    0.1224879  54.17  0.001115631    2.033    0.508
        91  -8.0369     18.4202    216.1834   1.0885152100e+02   2.6001133074e+01     0.171586   0.09314347  79.49 0.0009461824    1.694    0.410
        92  -8.5868    232.4566    214.6118   6.3349757976e+01  -2.8470716972e+00     0.201677    0.1735401 -27.44 0.0007417883    1.363    0.266
        93  -8.3833    185.6640    214.1187   7.1719439274e+01   3.5213607692e+00    0.1758115    0.1582805 -57.36 0.0008552129    1.492    0.330
        94  -9.0990     93.2310    213.8801   9.1663225357e+01   1.7383689583e+01    0.3516791    0.1629069  54.55  0.001479608    2.471    0.595
        95  -9.3425     73.1433    211.7202   9.6087084182e+01   2.0617342414e+01    0.6667537    0.2300224  56.52  0.002141227    4.401    0.773
        96  -9.3698    214.0974    211.9012   6.6060216442e+01  -9.6753656683e-02    0.3159584    0.2798635  60.90  0.001547472    1.805    0.446
        97  -8.0857    106.7354    212.7738   8.8420797735e+01   1.5647822358e+01    0.1935014    0.1386123  56.40   0.00105659    1.418    0.295
        98  -8.0204    224.9849    212.2268   6.4215943657e+01  -1.5715593527e+00    0.1516687    0.1178046 -43.34 0.0005469684    1.604    0.377
        99  -9.0123    204.3727    210.7042   6.7618905500e+01   1.4093546517e+00     0.269496    0.2028199 -53.30 0.0008104561    1.830    0.454
       100  -8.5808    161.9285    212.1872   7.6191722569e+01   7.3665167337e+00    0.2281532    0.1681842  49.49 0.0009845953    1.538    0.350
       101  -9.7598      6.5219    208.5614   1.1105534261e+02   2.8758142105e+01    0.6729104    0.1879978  77.18   0.00223496    4.977    0.799
       102  -9.2397    175.4966    209.7558   7.3025124550e+01   5.7407574926e+00    0.3061626    0.2376123  70.00 0.0009851727    2.098    0.523
       103  -8.5625    147.9104    210.3620   7.8880703029e+01   9.8427727453e+00    0.2291869     0.188867 -86.38 0.0008947945    1.679    0.404
       104  -9.0678    116.2137    210.1473   8.5903849118e+01   1.4759294576e+01    0.3147011    0.2149031  74.14  0.001004089    2.017    0.504
       105  -8.1481    192.3996    210.2775   6.9792958182e+01   3.1693979572e+00    0.1575319    0.1168655 -47.57 0.0005132514    1.600    0.375
       106  -8.4616     85.8797    209.3676   9.2846738173e+01   1.9376154864e+01    0.3255612     0.190483  77.84  0.001486068    2.354    0.575
       107  -8.4483     32.7962    210.2471   1.0528967081e+02   2.5813627496e+01     0.229184   0.08499748  59.01 0.0009504185    2.736    0.635
       108  -9.0600    236.5849    207.8784   6.1547086321e+01  -2.4270165963e+00    0.2759389    0.1998554 -49.32  0.001350455    1.950    0.487
       109  -8.0279    154.5546    214.8294   7.8144270681e+01   8.0153714019e+00    0.1628046    0.1277599 -67.38 0.0009306208    1.709    0.415
       110  -8.2227     46.1949    209.0191   1.0211706174e+02   2.4583601259e+01    0.2179617    0.1154352  69.76 0.0006363437    1.988    0.497
       111  -9.8090    246.0119    193.8370   5.7632592024e+01  -1.6399442798e+00    0.3878711     0.246937 -55.94  0.002051155    2.869    0.651
       112  -9.4807    250.1734    201.7736   5.8351641886e+01  -3.2514541773e+00    0.3699086    0.1573332 -35.94  0.001325727    2.038    0.509
       113  -8.2285    156.5189    207.9609   7.6663727524e+01   8.9524750573e+00    0.1810108    0.1310505 -50.51  0.000790223    1.553    0.356
       114  -8.3849    139.2901    207.8275   8.0377664989e+01   1.1658017794e+01    0.2419484    0.1950316  72.46 0.0009757921    1.598    0.374
       115  -8.0599    126.4541    208.0544   8.3281570908e+01   1.3608442818e+01    0.1863791    0.1343743 -56.91 0.0004890041    1.553    0.356
       116  -9.1073     99.5150    205.9226   8.9216765078e+01   1.8139940474e+01    0.3975921    0.2341526  72.39   0.00119608    2.504    0.601
       117  -8.4511     56.4455    205.3046   9.9383107333e+01   2.4175087419e+01    0.3003564     0.132649  57.15  0.001030451    2.375    0.579
       118  -7.9283     11.5151    206.5224   1.0985373428e+02   2.8753828349e+01    0.1220237   0.09638417  68.32 5.924911e-05    1.008    0.008
       119  -8.9120    183.7837    203.9367   7.0409099419e+01   5.4827685348e+00    0.2853785    0.2094028  59.14  0.001162925    2.026    0.506
       120  -8.0898    109.1775    205.1503   8.6847233940e+01   1.6852429685e+01    0.1866768    0.1487989  64.69 0.0005557875    1.335    0.251
       121  -9.0699    194.7542    203.4491   6.8197794912e+01   3.9320189969e+00    0.2448581    0.2258946  41.00 0.0009015886    1.348    0.258
       122  -9.4786    192.6073    197.1315   6.7519515525e+01   5.2977922434e+00    0.4649746    0.3393573 -57.39  0.001902819    1.864    0.464
       123  -9.5489    163.8134    202.9107   7.4307428254e+01   8.7342945221e+00    0.4078764     0.245529  51.91  0.001300285    2.088    0.521
       124  -8.4867    131.3280    203.8786   8.1562348662e+01   1.3677022932e+01    0.2562307    0.1950343  70.52  0.001367734    1.685    0.407
       125  -8.2641     35.0071    204.0135   1.0432982835e+02   2.6959585685e+01    0.2222769    0.1174402  60.82 0.0007907572    1.751    0.429
       126  -7.8121     67.2891    203.6025   9.6625332955e+01   2.3170209329e+01    0.1450552    0.0867001  65.89  0.000633096    1.785    0.440
       127  -9.0687    243.1668    200.6757   5.9262403982e+01  -2.2431086608e+00    0.2808013    0.1553247 -38.91  0.000997244    1.728    0.421
       128  -8.9610    140.3334    200.8509   7.9068120529e+01   1.2846690579e+01    0.3197817    0.2272977  89.02  0.001231163    2.297    0.565
       129  -8.1652     48.7131    202.1230   1.0093392740e+02   2.5827892901e+01    0.2378255   0.09919196  61.42 0.0009481732    2.789    0.641
       130  -7.9623    222.2155    201.2515   6.2832937170e+01   3.9592700250e-01    0.1769314   0.08802703 -46.79 0.0005410133    2.397    0.583
       131  -8.4298     80.1280    201.0941   9.3250939322e+01   2.1986407509e+01    0.2787494    0.1409687  55.48  0.001224299    2.112    0.527
       132  -9.0932    237.1427    198.3905   5.9836945436e+01  -1.1569182690e+00    0.2744165    0.1485864 -41.05   0.00110262    1.840    0.457
       133  -9.3484    149.5956    198.4956   7.6635947013e+01   1.1818957194e+01    0.3795603    0.2719315  84.22  0.001370971    2.414    0.586
       134  -8.8669    124.1131    199.0831   8.2492760841e+01   1.5789362844e+01    0.3249618    0.2254909  82.55  0.001270898    2.156    0.536
       135  -9.3113    112.9026    198.4057   8.5022327394e+01   1.7697533412e+01    0.4514349    0.2650404  62.44  0.001838209    2.293    0.564
       136  -8.4993    177.0786    198.8346   7.0884178652e+01   7.3902223655e+00    0.1885614    0.1741414  55.97 0.0005604367    1.345    0.256
       137  -9.0826     88.8697    198.2555   9.0781195438e+01   2.1367928562e+01    0.3714688    0.2328966  74.70  0.001468094    2.037    0.509
       138  -8.2192    202.1530    197.8241   6.5833446086e+01   3.7606706657e+00    0.1744504    0.1672429  14.98 0.0005505442    1.271    0.213
       139  -9.1357     61.5353    196.8172   9.7311126953e+01   2.5451651092e+01    0.4570993    0.2329111  65.42  0.001590905    2.314    0.568
       140  -8.8033    215.9981    195.6078   6.2933922758e+01   2.1167317962e+00    0.2524241    0.1657162 -50.35 0.0009308565    1.938    0.484
       141  -8.4180    133.4321    196.3348   7.9916461746e+01   1.4858038287e+01    0.2337463    0.1358855 -67.74  0.001018107    2.425    0.588
       142  -7.9393     29.5112    197.5322   1.0514556891e+02   2.9014511823e+01    0.1300557    0.1039305  66.96 9.583031e-05    1.040    0.039
       143  -7.9221     12.4879    197.0261   1.0911457216e+02   3.0787422727e+01    0.1870378   0.07482985  71.00 0.0008091166    2.550    0.608
       144  -8.2330     53.6194    196.3584   9.9208365551e+01   2.6551205012e+01    0.2185735    0.1299393  62.75  0.001097317    1.660    0.398
       145  -8.8528    185.2152    194.6145   6.8521802757e+01   6.8618132382e+00    0.2379874    0.1975046 -54.02 0.0007983854    1.474    0.321
       146  -8.0622    230.9427    193.9990   6.0089204334e+01   2.9981984031e-01     0.164136    0.1447463 -53.05 0.0004815606    1.614    0.381
       147  -8.7384    224.5604    193.5939   6.1092277822e+01   1.2299792488e+00    0.2729523    0.1305138 -43.66  0.001205383    2.163    0.538
       148  -8.8822    160.8673    193.8584   7.3411173327e+01   1.0879846543e+01    0.2729001    0.2228694  72.37 0.0009940254    1.690    0.408
       149  -8.9390     77.0737    193.7088   9.3115816362e+01   2.4077811037e+01    0.2766372    0.1991778  65.32 0.0006555656    1.396    0.284
       150  -8.8105     43.4907    192.9299   1.0137852891e+02   2.8549301307e+01    0.3811214    0.1757058  65.24     0.001624    2.463    0.594
       151  -7.9357    205.2708    191.6138   6.4157987383e+01   4.3110022894e+00    0.1703123    0.1529449  85.43 0.0006945272    1.725    0.420
       152  -8.1541    198.8462    191.7461   6.5378365956e+01   5.2549687372e+00    0.1559856    0.1529517  42.85 0.0004893251    1.322    0.243
       153  -8.4919    172.4456    191.6665   7.0589214091e+01   9.4119776378e+00    0.2343218    0.1302563 -49.97 0.0007788499    1.992    0.498
       154  -8.4076    210.8956    201.6141   6.4891373026e+01   1.9026940253e+00    0.2178376    0.1580903 -53.54 0.0008080017    1.897    0.473
       155  -8.2520    179.3509    191.2419   6.9099903053e+01   8.3807456367e+00    0.1785349    0.1222657 -51.65 0.0005056075    1.684    0.406
       156  -9.0378    139.5262    190.5249   7.7575131140e+01   1.5042759864e+01    0.3229943    0.2322885  66.44  0.001166113    1.861    0.463
       157 -10.3347     92.3549    188.6957   8.8646804556e+01   2.2999686240e+01    0.9467481    0.2577645  44.65  0.003031727    3.543    0.718
       158  -7.9464     20.3127    190.6382   1.0686412753e+02   3.1525959990e+01    0.1416032   0.07397794  62.65 0.0007041415    1.753    0.429
       159  -8.2158    148.3354    188.9527   7.5314790362e+01   1.3895968237e+01    0.2397344     0.186774  61.69 0.0009778134    1.565    0.361
       160  -8.7068    129.2549    188.4422   7.9614110490e+01   1.7175192877e+01    0.2853768    0.2011154  65.42 0.0006386156    1.817    0.450
       161  -9.5533    120.7484    186.1518   8.1268196791e+01   1.9069289528e+01    0.5214456    0.2954901 -75.31  0.002069565    2.837    0.648
       162  -8.6330     34.2489    187.9980   1.0324121854e+02   3.0732767587e+01    0.3255059    0.1601768  72.01  0.001469411    2.208    0.547
       163  -9.4729    246.4274    206.9662   5.9813217309e+01  -3.5052244908e+00    0.2665464    0.1651007 -33.54  0.000740926    1.457    0.314
       164  -8.1957    237.2091    188.2339   5.8041308387e+01   3.1349017399e-01    0.1545746    0.1282448 -37.42 0.0005955282    1.348    0.258
       165  -8.8681    216.5756    187.6589   6.1412256989e+01   3.2844562424e+00    0.2273954    0.1944403 -44.59 0.0008890507    1.390    0.281
       166  -8.7883    191.4798    187.2125   6.5970142797e+01   7.1674512318e+00    0.2827488    0.2123996 -67.39  0.001193103    2.065    0.516
       167  -9.3232    155.8397    187.0463   7.3318524657e+01   1.3019622535e+01    0.3501239    0.2441741 -65.05  0.001000991    1.895    0.472
       168  -8.9939     54.7812    186.8637   9.7950544509e+01   2.8626481776e+01    0.4376089    0.2170277  71.28  0.001673458    2.587    0.614
       169  -8.3923    230.3633    187.0345   5.8945603226e+01   1.4246647770e+00    0.1760268    0.1347688 -27.72 0.0006167644    1.153    0.133
       170  -8.6589    165.0337    186.6997   7.1266405529e+01   1.1553345030e+01    0.2695557      0.20982 -88.50  0.001058086    2.027    0.507
       171  -9.0390    109.6584    186.0967   8.3963326360e+01   2.0886119723e+01    0.3735812    0.2478211  66.92  0.001601933    1.906    0.475
       172  -8.9517    249.4609    185.3411   5.5605676363e+01  -8.7173306193e-01    0.2541764    0.1668148 -46.24 0.0009185817    1.788    0.441
       173  -8.8548    210.1430    184.0351   6.1895752355e+01   4.8232429646e+00    0.2736392    0.1646901 -37.95 0.0007160006    1.557    0.358
       174  -8.6684    183.0127    184.5457   6.7153844266e+01   8.9949965978e+00    0.2366053     0.183485 -56.38 0.0005964168    1.573    0.364
       175  -9.2329     66.8219    184.0555   9.4542199040e+01   2.7736057123e+01    0.4435102    0.2626326  70.62  0.001472533    1.965    0.491
       176  -8.5519    224.1500    183.5782   5.9361397567e+01   2.8334577956e+00    0.2017256    0.1500262 -38.72 0.0005288867    1.336    0.251
       177  -8.8792    174.2886    183.5598   6.8751748559e+01   1.0608311479e+01    0.2573448    0.2182056  89.53 0.0007000922    1.691    0.409
       178  -9.0835     44.4291    182.2381   1.0013029449e+02   3.0973440730e+01     0.365522     0.191731  64.70  0.001008415    2.035    0.508
       179  -8.1539      1.9174    183.4703   1.1086406076e+02   3.4805311936e+01    0.1717437    0.1087029  35.95  0.001014956    1.565    0.361
       180  -9.2323    147.6133    180.5528   7.4002216378e+01   1.5715799422e+01    0.3443336    0.2684485 -83.62  0.001099424    1.780    0.438
       181  -8.3498     19.3225    182.6432   1.0654970143e+02   3.3499643718e+01    0.1434402   0.07550987  62.54 0.0007045323    1.766    0.434
       182  -8.3352    235.5186    180.8065   5.6974167532e+01   1.6558406242e+00    0.2412709    0.1025551 -34.19 0.0009537844    2.094    0.523
       183  -8.7556     26.3507    180.0497   1.0457788936e+02   3.3442397102e+01    0.3404813    0.1506409  74.85   0.00141869    2.594    0.615
       184  -8.9715     24.2308    176.2121   1.0481197425e+02   3.4576269949e+01     0.435973    0.1628426  89.15  0.001628552    3.192    0.687
       185  -8.3281    240.5138    179.9656   5.6025312782e+01   1.0961593076e+00    0.1836334    0.1017473 -35.57  0.001020856    1.557    0.358
       186  -8.6800    137.6910    179.2410   7.6060218142e+01   1.7695273096e+01    0.2885585    0.2204885  72.01  0.001001432    1.708    0.414
       187  -8.5154    250.5794    172.6668   5.3152772991e+01   8.1859076745e-01    0.2147369    0.1228482 -37.44 0.0005814646    1.499    0.333
       188  -9.4677    249.0002    177.1696   5.4209188816e+01   3.6932424213e-01    0.3254636    0.2079255 -43.86  0.001179071    1.633    0.388
       189  -8.4716    247.3011    173.6651   5.3827137712e+01   1.1122950626e+00    0.1818944   0.09858143 -38.03 0.0005134091    1.596    0.373
       190  -9.3774    191.5709    178.2234   6.4288551108e+01   8.7348213081e+00    0.2806153    0.2408285  72.27 0.0007886147    1.650    0.394
       191  -9.0053     36.2047    176.7444   1.0173789652e+02   3.3222390332e+01    0.5797586    0.2229708  72.15  0.001856542    4.345    0.770
       192  -8.5704    205.1284    177.6475   6.1619426050e+01   6.6630633340e+00    0.2203754    0.1646819 -43.36 0.0006129409    1.376    0.273
       193  -8.1642    169.0678    178.0782   6.8831753873e+01   1.2524953690e+01    0.2074232    0.1728072  83.98 0.0007584942    1.695    0.410
       194  -8.4658    129.2197    176.9124   7.7665016741e+01   1.9652260564e+01    0.3078352    0.2230808 -85.13  0.000990747    1.922    0.480
       195  -8.4613    231.0775    176.7087   5.6941931881e+01   2.9113621814e+00      0.21237    0.1508566 -41.11 0.0007994564    1.400    0.286
       196  -8.3352    217.6418    177.0942   5.9280036836e+01   4.8273193504e+00    0.1913539    0.1478421 -47.22 0.0007149564    1.459    0.314
       197  -8.7181     89.1877    176.6543   8.7722645142e+01   2.6277456360e+01    0.3059299     0.204028  66.29 0.0008460304    1.721    0.419
       198  -9.9834     57.5695    173.2173   9.5668506521e+01   3.1569728541e+01    0.8915867    0.3892369  75.03  0.002677048    4.756    0.790
       199  -9.1510     13.2762    176.6952   1.0765448647e+02   3.5465092869e+01    0.2888986    0.1535078  60.21 0.0009161027    1.721    0.419
       200  -8.5123    202.9468    184.5189   6.3300578359e+01   5.8402545566e+00    0.2260222    0.1766953 -53.19 0.0006880644    1.580    0.367
       201  -9.0002    183.0974    175.7255   6.5490020212e+01   1.0590475879e+01     0.267341    0.2191131 -48.58 0.0008050174    1.320    0.242
       202  -9.1261    158.8092    174.9042   7.0454866495e+01   1.4920473385e+01    0.3454214    0.2479924  81.08  0.001116978    2.389    0.581
       203  -9.2193    104.2462    174.4083   8.3467181136e+01   2.4419238032e+01    0.5417197    0.2856495  60.85  0.001848156    2.729    0.634
       204 -10.7336     75.9617    170.1310   9.0284432874e+01   2.9818829783e+01     1.231192    0.4912097 -78.27  0.003609896    4.653    0.785
       205  -8.4221    224.4426    174.0361   5.7543481563e+01   4.3022976746e+00    0.1893935    0.1098486 -38.82 0.0005010649    1.565    0.361
       206  -9.4092    175.8300    172.1448   6.6287441023e+01   1.2500248628e+01    0.3310728     0.239182 -49.67 0.0009661397    1.468    0.319
       207  -8.1679    142.9082    172.1878   7.3556793073e+01   1.8278566043e+01    0.2181905    0.1927543  77.70 0.0005617065    1.322    0.243
       208  -8.5244    134.9613    171.5047   7.5311128178e+01   1.9828412815e+01    0.2600877    0.2068295 -79.87  0.000761697    1.560    0.359
       209  -9.2593     45.1542    170.6602   9.8729396183e+01   3.3714853633e+01    0.4131649    0.2245078  83.35  0.001405624    2.102    0.524
       210  -9.4509    121.3340    170.0689   7.8387349413e+01   2.2531486174e+01    0.3708383    0.2669285 -79.37 0.0007594081    1.779    0.438
       211  -8.8360    230.2324    169.2992   5.5691831498e+01   4.1981022878e+00    0.3490073    0.1775451 -46.38  0.001714677    2.075    0.518
       212  -8.5615    205.7583    169.9556   6.0036527881e+01   7.8802392457e+00    0.2346601    0.1723396 -51.85 0.0007754182    1.572    0.364
       213  -8.5294    198.6745    170.0742   6.1371181968e+01   9.0158788693e+00    0.2057891    0.1621058 -54.94 0.0007558704    1.509    0.337
       214  -9.2676    167.3503    168.6771   6.7402850451e+01   1.4657358337e+01    0.3649833    0.2598976  72.90  0.001079171    2.282    0.562
       215  -8.5489    149.9508    169.4313   7.1407707287e+01   1.7605825055e+01    0.2555267    0.2044308 -73.30 0.0007248317    1.560    0.359
       216  -8.0238    244.4762    168.9897   5.3392390254e+01   2.1994869998e+00    0.1830189    0.1013042 -37.53 0.0005013567    1.548    0.354
       217  -8.3661    237.0500    169.3294   5.4605639662e+01   3.1988874704e+00    0.1659039    0.1465589 -11.59 0.0008802039    1.104    0.094
       218  -8.5850    218.8923    168.1242   5.7361396588e+01   6.1081812680e+00    0.1868113    0.1660936 -46.93 0.0006207434    1.304    0.233
       219  -7.9739    211.4744    167.9772   5.8625986660e+01   7.3010363504e+00    0.1991218    0.1175506 -40.72 0.0006664579    1.578    0.366
       220  -8.4699    111.7137    167.3007   8.0336745464e+01   2.4821137194e+01    0.3664927    0.2199635  66.05  0.001097845    2.423    0.587
       221  -8.1997     88.6927    168.3889   8.6586648447e+01   2.8329375633e+01    0.2307564    0.1567791  65.96 0.0007479726    1.679    0.404
       222  -8.9609    191.9443    166.5710   6.1970196446e+01   1.0773219693e+01    0.2564687    0.1871016 -46.88 0.0006200699    1.410    0.291
       223  -8.4585    185.1423    166.6169   6.3315237522e+01   1.1932707661e+01    0.2371535    0.1746087 -49.67 0.0007027697    1.442    0.307
       224  -9.6422    159.0125    165.8707   6.8673432978e+01   1.6712561051e+01    0.4201221    0.2641353 -38.02 0.0009607236    1.640    0.390
       225  -9.7276    137.2349    164.3609   7.3419941100e+01   2.0979071943e+01    0.6618082    0.3181835  55.17  0.002250633    2.955    0.662
       226 -10.0047     95.0704    162.7793   8.3948660334e+01   2.8670034295e+01    0.8779168    0.4556331  71.44  0.002668129    4.336    0.769
       227  -9.2117     20.5536    166.0125   1.0494180455e+02   3.7418191266e+01    0.3561342    0.1385488  49.60  0.001519054    2.434    0.589
       228  -8.4258    233.9662    164.5433   5.4187603759e+01   4.3975522498e+00     0.199718    0.1410101 -33.52 0.0005145164    1.218    0.179
       229  -9.8528     33.6170    163.2431   1.0110708627e+02   3.6832835471e+01    0.6255895    0.2106131  53.02  0.002219201    3.351    0.702
       230  -8.3624    240.2623    163.9718   5.3095131636e+01   3.5648092366e+00     0.174201    0.1354058 -29.09 0.0004752156    1.083    0.076
       231  -8.6358    212.8531    163.4018   5.7490609923e+01   7.8577172788e+00    0.2371009     0.165884 -37.41 0.0005673892    1.303    0.232
       232  -8.4143     57.3679    163.5799   9.4506767462e+01   3.3986828887e+01    0.4064482    0.2038023   7.72  0.001318957    4.462    0.776
       233  -9.1136    246.0195    162.7963   5.2000899950e+01   2.9211435276e+00     0.211941    0.1456685 -32.40 0.0004712334    1.207    0.172
       234  -8.4315    204.9081    162.6550   5.8762296092e+01   9.2899324537e+00    0.2563202    0.1759001 -45.54 0.0006727986    1.460    0.315
       235  -9.7464      3.7890    162.0833   1.0913902572e+02   3.9769606349e+01    0.5109292    0.2214457  45.34  0.002287538    2.112    0.526
       236  -9.1308    177.4393    160.4641   6.3645899314e+01   1.4462710570e+01    0.2718132    0.2301853 -70.63 0.0008090311    1.474    0.321
       237  -8.6540    151.8420    160.7707   6.9279348086e+01   1.9078449429e+01    0.2625843    0.1921635 -80.15 0.0009407705    2.004    0.501
       238  -8.6700     60.8210    159.9941   9.3047499929e+01   3.4437356444e+01    0.4144013    0.2119242  65.13  0.001392489    2.594    0.615
       239  -8.7250    227.6564    159.0654   5.4142984565e+01   6.2337047409e+00    0.2796247    0.1746088 -53.20 0.0009231266    1.980    0.495
       240 -11.9278    242.0309    140.9703   4.8369439057e+01   6.9047598927e+00     1.563731    0.2941906 -37.69  0.004792428    4.650    0.785
       241 -10.0475    242.6734    149.5333   4.9957919279e+01   5.4580395842e+00    0.3065636      0.29263  52.90  0.002164334    1.355    0.262
       242  -9.7342    241.7893    154.1685   5.0988112100e+01   4.8652622026e+00    0.4489713     0.316123  87.33  0.002132692    3.498    0.714
       243  -9.7396    250.2016    157.5692   5.0400548623e+01   3.1213364892e+00    0.3122942    0.1560165 -39.15 0.0009026981    1.684    0.406
       244  -8.8653    246.5536    155.4963   5.0537571766e+01   3.9596984435e+00    0.1775038    0.1263518 -13.61 6.911201e-05    1.427    0.299
       245  -8.3508    237.0275    158.7407   5.2595039318e+01   4.8577379449e+00    0.2254577    0.1400281 -46.80 0.0008161462    1.660    0.398
       246  -8.4840    128.2404    158.8127   7.4551711343e+01   2.3847581465e+01    0.2788791    0.2221086  84.84 0.0008951635    1.565    0.361
       247  -9.5240    105.9036    157.8466   8.0158310885e+01   2.8042184930e+01    0.4800308    0.3055062  70.19  0.001289479    2.221    0.550
       248  -8.6280    196.4838    157.7868   5.9345996990e+01   1.1593001474e+01    0.2427334    0.2134205 -77.61 0.0008714728    1.487    0.328
       249  -8.2651    188.1490    157.6564   6.0921697256e+01   1.3082096953e+01    0.2364729    0.1791462 -49.82 0.0005388671    1.379    0.275
       250  -9.2930    167.6405    157.1455   6.5031511228e+01   1.6905181284e+01    0.3210818     0.247156 -83.50  0.001551311    1.909    0.476
       251  -9.5656     81.7856    154.3832   8.6210315484e+01   3.2839214447e+01    0.5396424    0.3357143  77.09  0.001825737    2.206    0.547
       252  -8.3628    218.1315    156.4212   5.5200342511e+01   8.1865308971e+00    0.2521069    0.1511242 -51.28 0.0007206582    1.906    0.475
       253  -9.2165    157.5423    155.9055   6.6996695072e+01   1.9038173412e+01    0.2705304    0.2280928  86.55  0.001318807    1.506    0.336
       254  -9.2563    119.5919    154.7880   7.5966948384e+01   2.6342428896e+01    0.4351821    0.2938848 -86.43  0.001290489    2.210    0.548
       255  -9.1927     49.7236    154.8476   9.5540367415e+01   3.7147054015e+01    0.4766785    0.2418991  64.89  0.001912352    2.482    0.597
       256  -8.0558    204.7086    155.2077   5.7304402972e+01   1.0637748687e+01    0.2036607    0.1581232 -53.08 0.0007410079    1.433    0.302
       257  -8.5463    144.4929    154.6526   6.9752703604e+01   2.1755907170e+01    0.2834036     0.216029  69.56 0.0007673277    1.668    0.401
       258  -9.4260     68.1018    153.6038   9.0015699672e+01   3.5056446314e+01    0.4652255    0.2585973  68.48  0.001565101    2.451    0.592
       259  -7.9411    232.8241    153.7923   5.2287239812e+01   6.2866222739e+00     0.163861    0.1403959 -49.79 0.0004968927    1.320    0.242
       260  -9.6964    132.9368    152.7366   7.2166548141e+01   2.4350161014e+01    0.4463341    0.3289795  74.56  0.001404334    1.816    0.449
       261  -9.4011    133.4974    148.0061   7.1047670534e+01   2.5309155549e+01    0.4058026    0.2461902 -32.53   0.00167494    2.059    0.514
       262  -8.5963     60.4710    152.9278   9.2136126871e+01   3.6272548869e+01    0.2178269    0.1350003 -69.24 0.0005649978    1.556    0.357
       263  -9.8091     29.5432    150.5090   1.0092130414e+02   4.0463446311e+01    0.5516937    0.2405679  64.79  0.002107711    2.930    0.659
       264  -9.1431     20.2425    152.1744   1.0379527008e+02   4.0904913155e+01    0.2614547    0.1311211  54.33 0.0008501804    1.997    0.499
       265  -8.8972      8.1908    152.8556   1.0728056392e+02   4.1717943893e+01     0.290713   0.09732863  16.49  0.001100451    3.900    0.744
       266  -9.0200      2.7533    150.9354   1.0866244836e+02   4.2589146868e+01    0.3379065    0.1435657 -75.27  0.001573701    1.970    0.492
       267  -9.1135    189.3482    149.4975   5.8998616066e+01   1.4399403364e+01    0.3938402    0.2179321 -53.48  0.001361944    2.106    0.525
       268  -8.3028    182.5765    151.2750   6.0706406134e+01   1.5302514342e+01    0.2064432    0.1653196 -73.88 0.0007225637    1.663    0.399
       269  -8.6005    162.7021    150.3880   6.4696693714e+01   1.9206679183e+01    0.2541253    0.1781078 -57.25 0.0007115841    1.586    0.370
       270  -8.7564     98.1546    150.5773   8.0920392656e+01   3.1122814420e+01    0.3125789    0.2240114  84.64 0.0007692988    1.767    0.434
       271  -9.5005    248.9086    149.0848   4.8967215055e+01   4.6002546900e+00    0.2884422    0.1493309 -36.69 0.0007392665    1.590    0.371
       272  -8.0904    212.9813    149.7098   5.4725638568e+01   1.0191827995e+01    0.1743035    0.1621812 -21.52 0.0003992897    1.071    0.066
       273  -9.8487     40.0018    147.8386   9.7503077011e+01   4.0061312308e+01    0.5570357    0.2645392  62.19  0.001772017    2.627    0.619
       274  -8.4493    198.9073    148.8957   5.7065101328e+01   1.2786459912e+01    0.2015127    0.1656315 -73.26  0.000537453    1.615    0.381
       275 -10.0766     89.4279    146.2437   8.2576830698e+01   3.3649514710e+01     0.707243    0.4032047  86.54  0.002424627    3.287    0.696
       276  -9.1435    233.6161    147.5631   5.0934176000e+01   7.1690210670e+00    0.2455451    0.1339107 -39.73 0.0007499597    1.581    0.367
       277 -10.4721    149.0789    144.8903   6.6612465026e+01   2.2991179235e+01    0.6219516    0.4283259  88.60  0.001706869    2.498    0.600
       278  -9.1451    150.3966    136.3332   6.4412629986e+01   2.4573583626e+01    0.4878432    0.3081473  14.28  0.001844179    2.761    0.638
       279  -9.4893     57.3573    146.6937   9.2127912912e+01   3.8274628774e+01     0.370124    0.2225985  63.23  0.001027935    1.913    0.477
       280 -10.3215     53.9055    143.7458   9.2727265645e+01   3.9474578654e+01     1.178612    0.4029424 -63.23  0.004278001    2.626    0.619
       281  -8.3621    223.3256    146.4533   5.2335746118e+01   9.0143173908e+00    0.2117359    0.1400227 -51.99 0.0006245376    1.671    0.401
       282  -9.8169    139.3989    144.9859   6.8949015740e+01   2.4851311459e+01    0.5141657    0.3068961 -69.81  0.001263823    2.577    0.612
       283  -9.1103    139.4208    137.7466   6.7357483371e+01   2.6454690117e+01    0.4335411    0.2618839 -14.50  0.001413251    3.702    0.730
       284 -10.1007    106.7438    144.0267   7.7257103896e+01   3.1212142002e+01    0.7911862     0.508508  87.50  0.002446191    2.514    0.602
       285  -8.8740     78.1153    146.7804   8.5963288508e+01   3.5310430339e+01    0.3231382     0.210466  78.09 0.0008461206    1.991    0.498
       286  -9.5574     13.3261    145.9751   1.0523235794e+02   4.3049069966e+01    0.3401207    0.1880026  60.72  0.001336699    1.815    0.449
       287  -8.0390    206.8154    146.0816   5.5051480779e+01   1.1893650972e+01    0.2029482    0.1694569 -52.05 0.0005693652    1.277    0.217
       288  -8.1012    175.7801    145.9790   6.0965440459e+01   1.7607531999e+01    0.2254444    0.1621335 -69.26 0.0006778942    1.910    0.477
       289  -9.7641    124.9863    142.4504   7.2036220865e+01   2.8200089201e+01    0.5384434    0.3619694 -86.61   0.00163421    2.356    0.576
       290  -8.8822    247.0739    143.6453   4.8173276398e+01   5.7128970493e+00    0.2326708    0.1482157 -30.94 0.0005041835    1.334    0.250
       291  -8.4148    250.2622    140.4449   4.7102311441e+01   5.7279008855e+00    0.2162631    0.1441168 -40.72 0.0008581328    1.283    0.221
       292  -8.7219    165.5813    143.7244   6.2636529279e+01   2.0021559770e+01    0.2735751    0.2314641 -68.11 0.0006788024    1.352    0.260
       293  -7.7366    194.4483    143.5246   5.6762331699e+01   1.4582307410e+01     0.138624    0.1279075 -37.33 7.926167e-05    1.057    0.054
       294 -11.0145     68.4001    138.6468   8.7449681232e+01   3.8823727625e+01      1.02599    0.6376168 -88.92  0.004204784    2.041    0.510
       295  -8.4430    182.0536    141.3479   5.8690177319e+01   1.7319457524e+01    0.2521124    0.1940886 -66.42 0.0007223884    1.605    0.377
       296  -9.3836      2.7827    141.6948   1.0796838933e+02   4.4891677205e+01    0.3468938    0.1886807  58.18  0.001477617    1.812    0.448
       297  -8.3921    134.0000    140.0246   6.9207887812e+01   2.7012253068e+01    0.2502739   0.08566134 -49.19 0.0007972889    2.907    0.656
       298 -10.0399     23.5249    137.8405   1.0132526634e+02   4.4269397966e+01    0.5315748    0.2361256  62.79  0.002096154    2.807    0.644
       299  -8.2369    218.5327    138.0520   5.1386811059e+01   1.1250897610e+01    0.2057445    0.1169612 -39.77 0.0006349792    1.549    0.354
       300  -8.4984    207.5919    137.6390   5.3138327506e+01   1.3257382332e+01    0.2648106    0.1893914 -54.58 0.0007454123    1.528    0.345
       301  -8.7123    197.5287    137.3105   5.4857241244e+01   1.5161727986e+01     0.273814    0.1999786 -66.83 0.0009101452    1.810    0.447
       302 -10.4078     83.2877    133.2144   8.1868940345e+01   3.7915165349e+01    0.6640354    0.3696776 -60.34  0.001580111    1.772    0.436
       303  -9.0840    248.6114    134.8665   4.6234579006e+01   6.8418953942e+00    0.2772317    0.1685944 -43.97 0.0008766959    1.452    0.311
       304  -8.5160    172.2829    137.8799   5.9922313632e+01   1.9896461178e+01    0.2687541    0.2112422 -70.20 0.0008561097    1.567    0.362
       305  -8.4011    162.8324    136.1714   6.1563247110e+01   2.2117163614e+01    0.2255091    0.1992826 -81.52  0.000738188    1.300    0.231
       306  -9.4160     39.2008    135.8161   9.6143133140e+01   4.3249454352e+01    0.2964711    0.2097283  66.97 0.0008249321    1.476    0.323
       307  -8.7101    188.2822    134.9249   5.6064448247e+01   1.7358903206e+01    0.2895948    0.1148596 -46.96  0.001070844    2.504    0.601
       308  -9.1468    112.7699    132.7911   7.3202961290e+01   3.2792459877e+01    0.3658649    0.2792324 -80.35 0.0009991131    1.574    0.365
       309  -7.9764    237.4469    133.2774   4.7490769437e+01   8.8635036309e+00    0.1799479    0.1034158 -46.07 0.0005184265    1.612    0.380
       310  -7.8923    231.4862    133.5308   4.8422165209e+01   9.8055877069e+00    0.1304488    0.1107907 -30.77 1.348076e-05    1.022    0.021
       311  -9.3730    143.3611    131.5826   6.4997899139e+01   2.7023930484e+01    0.4078508    0.3004708 -79.98 0.0009352172    1.846    0.458
       312 -10.1887    132.1645    130.4980   6.7525809979e+01   2.9527893646e+01    0.6942648     0.409169 -64.19  0.001992277    2.178    0.541
       313 -10.2153     98.0617    129.7482   7.6723533174e+01   3.6244825444e+01     0.702877    0.3451969 -56.19  0.002216412    2.031    0.508
       314  -8.6269    250.8319    129.7846   4.4929526386e+01   7.2854803292e+00    0.3758534   0.07933187 -36.65  0.001219594    4.151    0.759
       315 -10.2897     12.9484    128.5168   1.0363907402e+02   4.7520405984e+01    0.6915923    0.3259441  84.52  0.002718858    2.342    0.573
       316  -8.3904    246.8819    130.0807   4.5520312942e+01   7.8575707268e+00    0.1913995    0.1454335 -48.90   0.00056869    1.290    0.225
       317  -8.0890    204.6626    130.3008   5.2064355022e+01   1.5107191152e+01    0.2018159    0.1531235 -68.29 0.0006120279    1.679    0.405
       318  -8.0085    192.8134    129.8654   5.4089203201e+01   1.7438393058e+01    0.1898161    0.1593309 -60.71 0.0002981442    1.289    0.224
       319  -9.2808    168.3740    129.3370   5.8811264269e+01   2.2399024164e+01    0.2945109    0.2329146 -82.60 0.0005393437    1.644    0.392
       320  -9.3155    152.8541    128.9004   6.2136782941e+01   2.5663527171e+01    0.4042464    0.2549719 -63.81 0.0008657358    2.038    0.509
       321  -9.7322     73.5196    129.4825   8.4148143390e+01   4.0402593600e+01    0.4007091    0.2535068  62.56  0.001101683    1.941    0.485
       322  -8.1009     24.3561    130.3157   1.0016819615e+02   4.6132450066e+01    0.1424341   0.09244143 -40.97 0.0007045051    1.746    0.427
       323  -8.3814      1.6800    130.1382   1.0736173312e+02   4.7867718540e+01    0.2122525    0.1348195  78.69  0.001156928    1.470    0.320
       324  -7.4061    235.2932    129.6607   4.7065429031e+01   9.8031499360e+00    0.1279144   0.09187586 -59.35 0.0007027776    1.650    0.394
       325  -7.6641    220.5119    129.5824   4.9288126693e+01   1.2352716369e+01    0.1323874    0.1167236 -31.32 0.0001015518    1.026    0.025
       326  -7.8650    211.5783    128.8261   5.0572189988e+01   1.4090970551e+01    0.1947857    0.1151803 -48.66 0.0007302579    1.656    0.396
       327  -8.5726    179.6276    133.8281   5.7514645393e+01   1.9254430695e+01    0.2668181    0.2062961 -70.27 0.0007942212    1.621    0.383
       328 -10.7913     45.0575    123.3312   9.2304596740e+01   4.5827338208e+01     1.194754    0.5724448  73.70  0.003797206    4.144    0.759
       329 -10.4043     60.4159    125.1989   8.7534576468e+01   4.3399815708e+01    0.7431442    0.4162343  68.99  0.002684889    2.690    0.628
       330  -9.8064    117.8922    125.0961   7.0034583169e+01   3.3614431081e+01    0.5384745    0.3629428  78.05  0.001288277    2.278    0.561
       331  -7.3952    228.6545    125.3364   4.7144077897e+01   1.1640565790e+01    0.1331968    0.0960327 -65.21 0.0007048908    1.773    0.436
       332  -8.8605    179.2961    124.5326   5.5464203743e+01   2.1134845813e+01    0.2808502    0.2275858 -67.85  0.000544945    1.411    0.291
       333 -10.3208     28.5694    122.0476   9.7673975070e+01   4.7884152723e+01    0.7709419    0.3479519  71.30  0.002670553    3.646    0.726
       334  -7.6010    188.5106    123.5701   5.3469134546e+01   1.9465919005e+01    0.1421995    0.1323323 -50.73 0.0001446256    1.055    0.052
       335  -9.7067    158.7512    121.4079   5.9030447863e+01   2.6010208463e+01     0.424522    0.2752616 -73.45  0.001139165    2.429    0.588
       336  -8.0966    194.9590    121.9779   5.1923901471e+01   1.8484799585e+01    0.2160569    0.1630313 -66.16 0.0004981188    1.581    0.367
       337  -8.7098    171.9359    121.3483   5.6203205358e+01   2.3270065680e+01    0.2447961    0.1947471 -56.65 0.0005226324    1.289    0.224
       338  -8.3904    168.0973    121.1176   5.6945469443e+01   2.4113937989e+01    0.2521245    0.2198328  53.58 0.0006963792    1.205    0.170
       339  -7.7385    202.9800    121.7416   5.0464212818e+01   1.6965084221e+01    0.1586622    0.1220675  48.30  0.000349312    1.437    0.304
       340  -9.9096    130.6921    118.2599   6.4980808898e+01   3.2580144125e+01    0.4523532    0.3178433  86.23  0.001086558    2.150    0.535
       341  -8.7307     99.1224    120.2671   7.4264575726e+01   3.8359570198e+01    0.3426705    0.2280886  -8.46  0.001283335    2.762    0.638
       342 -10.2382    141.7474    117.7977   6.2097612691e+01   3.0362386589e+01    0.6717244    0.3487911 -50.48  0.001502756    1.950    0.487
       343  -9.7089     71.1440    119.3582   8.2845421522e+01   4.3334780274e+01    0.3636544    0.2471631 -87.04  0.001042406    1.850    0.459
       344  -9.7457      3.0499    117.2238   1.0572171517e+02   5.1047912193e+01    0.5316957    0.2267604  68.15  0.002153434    2.936    0.659
       345  -7.8216    231.5178    117.4566   4.5067947638e+01   1.2439009447e+01    0.1316749    0.1109055 -44.33 0.0008079193    1.067    0.063
       346  -8.0715    185.7912    115.7676   5.2169767580e+01   2.1488687388e+01    0.1970841    0.1612755 -65.61 0.0004487208    1.332    0.249
       347 -10.1666    109.3100    113.8454   6.9719071478e+01   3.7937777757e+01    0.5515481    0.3622557 -78.58  0.001542407    2.266    0.559
       348  -9.0305     59.0181    114.9844   8.6001287057e+01   4.6206065430e+01    0.3136381    0.2212411 -28.69  0.001399456    1.753    0.430
       349  -8.0072    193.0011    115.0048   5.0674525004e+01   2.0161394723e+01    0.2141787    0.1629625 -67.59 0.0003489488    1.542    0.351
       350  -8.7737     85.4224    122.2199   7.8894441017e+01   4.0311677015e+01    0.4570678     0.258636  15.70  0.001629344    2.987    0.665
       351 -10.1739     92.6945    112.2418   7.4303826676e+01   4.1479108443e+01    0.6283873    0.3521734 -67.09  0.001487127    2.252    0.556
       352  -8.9397     93.9528    104.0254   7.1838631395e+01   4.3206150206e+01    0.4722011    0.2648693  18.57  0.001605522    3.223    0.690
       353  -9.9333     78.7380    112.0546   7.8725245238e+01   4.3953889201e+01    0.5878423     0.385148 -88.80  0.001759409    2.242    0.554
       354  -8.5255     78.6387    104.8930   7.7036416489e+01   4.5727253912e+01    0.3736367    0.2109471  15.04  0.001329941    3.036    0.671
       355  -8.5470    250.0655    114.5624   4.1981937463e+01   9.7589406575e+00     0.159756    0.1248439  52.63  0.001019308    1.574    0.365
       356  -7.9653    167.4272    114.2198   5.5424907697e+01   2.5634697543e+01     0.206233    0.1356841 -52.71 0.0004034283    1.548    0.354
       357 -10.4770    133.6511    109.1696   6.1928185914e+01   3.3957249714e+01    0.6390471     0.337392 -51.85  0.002516187    1.957    0.489
       358  -9.7682    122.1906    112.3569   6.5746789735e+01   3.5670428677e+01    0.3259218    0.2549958 -70.90 0.0004898307    1.452    0.311
       359  -8.3645    174.7643    111.5165   5.3276000708e+01   2.4605184631e+01    0.2677933    0.1897996 -45.01 0.0005597656    1.334    0.250
       360  -8.5913    159.2792    111.6666   5.6532105544e+01   2.7894745729e+01    0.2612734    0.2171407 -65.72 0.0006933105    1.281    0.219
       361 -10.1516     66.6178    110.4800   8.2432546073e+01   4.6255789060e+01    0.4360119    0.2947134  86.91  0.001337816    2.001    0.500
       362  -9.8476     14.3561    110.8833   1.0107399037e+02   5.1923520067e+01     0.427803     0.215754  82.38  0.001846187    2.379    0.580
       363  -7.7833    183.0069    109.4979   5.1200864948e+01   2.3248139900e+01    0.1842208    0.1273092  86.84 0.0004478393    2.169    0.539
       364  -8.8786     42.9360    109.2845   9.0528776316e+01   4.9685027206e+01    0.3418041    0.1384693  13.71  0.001085554    4.301    0.768
       365 -10.3516    248.7441    107.5059   4.0712506743e+01   1.1064693434e+01    0.3834998    0.2076434 -28.72  0.001851545    1.862    0.463
       366  -8.2085    189.3203    107.9413   4.9672878393e+01   2.2216717321e+01    0.2100849    0.1664285 -44.73 0.0006138884    1.164    0.141
       367 -10.0540    118.1157    104.6732   6.4865588006e+01   3.8242705927e+01     0.570109    0.3804427  79.57  0.002232183    2.398    0.583
       368 -10.2958    108.8616     98.5230   6.5837476962e+01   4.1535395600e+01    0.6610531    0.4174419  71.91   0.00136422    2.526    0.604
       369  -9.3720    107.6327     92.6116   6.4546654003e+01   4.3096567629e+01    0.6011496    0.3467704  28.14  0.002304119    2.382    0.580
       370 -10.6804     22.9351    102.3895   9.6679212707e+01   5.3418962087e+01    0.7860387    0.4040032  70.04  0.002421971    2.844    0.648
       371  -9.5835    150.5365    102.7829   5.6211420887e+01   3.1611908840e+01    0.4474893    0.2729971 -64.54 0.0009735943    2.201    0.546
       372  -9.6010    139.8853    103.8477   5.8991772735e+01   3.3740949821e+01    0.4925711    0.2806987 -55.87  0.001373404    1.959    0.490
       373 -10.4830     45.5832    101.9836   8.8101198555e+01   5.1227617276e+01    0.8465637    0.4783646  74.87  0.003232747    2.991    0.666
       374  -8.8763     45.9829     92.5202   8.5859276340e+01   5.3534486999e+01    0.4061684    0.2397242   1.29  0.001696862    2.575    0.612
       375  -8.3838    166.7677    104.0421   5.3035719697e+01   2.7782092034e+01    0.2331385    0.1901236 -65.92 0.0006889733    1.304    0.233
       376  -9.2467      6.6844    102.4451   1.0276306945e+02   5.4563437237e+01    0.3696195    0.1656723 -87.75  0.001572822    2.400    0.583
       377  -7.8932    175.5925    101.8102   5.0724746993e+01   2.6283071804e+01      0.20335    0.1300704 -50.98 0.0003802546    1.543    0.352
       378 -10.2264    128.4042    101.7417   6.1318900817e+01   3.6693544852e+01    0.3880421    0.2970458 -60.29  0.001318522    1.381    0.276
       379  -8.1308    159.9384    100.9400   5.3668036456e+01   2.9895127627e+01    0.2348651    0.1764465 -72.99 0.0006199935    1.603    0.376
       380  -9.2700     81.9598     99.7008   7.4603093358e+01   4.6407138625e+01    0.4012738    0.2803748 -86.87  0.001179934    2.039    0.510
       381 -10.2615     63.9732     95.9929   7.9933844904e+01   5.0231070037e+01     0.673187    0.3830667 -73.70  0.001632674    2.378    0.579
       382  -9.2141     66.3207     87.1128   7.6733951130e+01   5.1987656058e+01    0.6786544    0.3054941  18.45  0.001963848    4.838    0.793
       383  -9.2774     95.0756     96.9708   6.9601190810e+01   4.4633406078e+01    0.3319843    0.2413773 -65.40 0.0006429343    1.534    0.348
       384  -7.6587    184.2842     96.6641   4.7836713345e+01   2.5347387713e+01    0.1489449    0.1066551 -67.64 0.0003165626    1.624    0.384
       385  -8.6520    151.1985     95.1520   5.4044380031e+01   3.2993005885e+01    0.3104351    0.1854643 -20.78  0.001145872    2.714    0.632
       386  -8.1809    164.8678     94.0676   5.0860528682e+01   3.0121133365e+01    0.2248599    0.1904564 -69.46 0.0003237302    1.226    0.184
       387  -7.3368    188.6664     93.3247   4.6247766183e+01   2.4998126089e+01     0.150404    0.1060373 -70.92 0.0007050998    1.711    0.415
       388  -8.3002    176.6355     93.0866   4.8330150083e+01   2.7675310134e+01    0.2384013    0.1650114 -56.77 0.0007340062    1.488    0.328
       389  -9.2840    139.0990     92.0929   5.6004285315e+01   3.6336163502e+01    0.3906487    0.2846065 -82.53 0.0007859417    1.839    0.456
       390 -10.2565    123.9826     91.0733   5.9532050628e+01   3.9921201886e+01    0.5727188    0.4747723  43.27  0.001314962    1.235    0.190
       391  -9.5597      5.2326     91.9385   1.0190872897e+02   5.7269538714e+01    0.3431233    0.1893688  49.10  0.001148283    2.117    0.528
       392  -8.2240    157.8528     91.5565   5.1642124787e+01   3.2184777661e+01    0.2492382    0.1704915 -47.74 0.0005093046    1.418    0.295
       393  -9.5079     34.8399     89.7059   8.9627737362e+01   5.5485375564e+01    0.4215277    0.2568745  84.16  0.001544488    2.372    0.578
       394  -9.0781     23.0448     89.8370   9.4417600652e+01   5.6557209868e+01    0.3227397    0.2847322  -3.91  0.001340003    1.262    0.207
       395  -8.2621    151.0345     88.9560   5.2401766745e+01   3.4238765846e+01    0.2391757    0.1779959 -74.87  0.000489436    1.632    0.387
       396 -10.1593     86.5279     85.7833   6.9210569644e+01   4.8791960425e+01    0.6560531    0.4049588 -63.17  0.001708152    1.960    0.490
       397  -7.8598    164.0051     86.9914   4.9164769605e+01   3.1640740234e+01    0.1844953    0.1590492 -47.47 0.0005136135    1.114    0.103
       398  -9.7298     48.7077     84.1638   8.2734546701e+01   5.5215795122e+01    0.5575057    0.3415962  70.38  0.002086061    2.788    0.641
       399  -7.5051    179.4848     85.5076   4.5877861401e+01   2.8402419990e+01    0.1490912    0.1299953 -66.65 0.0008079357    1.115    0.103
       400  -8.1651    157.9791     83.9085   4.9547438111e+01   3.3594334145e+01    0.2321811    0.1717289 -71.73 0.0005054354    1.579    0.367
       401  -9.7519    104.7261     82.8031   6.2538016838e+01   4.5808132131e+01    0.4313822    0.3035031 -77.69 0.0009303824    2.051    0.513
       402  -9.4235    140.8538     82.1795   5.2794587735e+01   3.7882133308e+01     0.410777    0.2037202 -45.87  0.001186355    2.003    0.501
       403  -7.9976    185.6280     82.3111   4.4009605799e+01   2.7586806160e+01    0.1528313    0.1046458 -72.94 0.0007033625    1.776    0.437
       404  -9.6504     24.5613     80.1208   9.1804131538e+01   5.8804037053e+01    0.4985235    0.2825022 -85.95  0.001595679    2.342    0.573
       405  -9.3951      9.6642     80.7896   9.8328057520e+01   5.9747461893e+01    0.3375588    0.1895753  55.64  0.001461738    2.291    0.564
       406  -8.5017    150.1778     80.0951   5.0124009388e+01   3.6109118060e+01    0.3258556    0.1786283 -54.53 0.0009508481    2.053    0.513
       407  -8.6075    119.4844     80.1538   5.7538785525e+01   4.3147910914e+01    0.3442366    0.2257405 -64.45 0.0009819606    1.945    0.486
       408  -8.9205     74.6620     79.8880   7.1591382143e+01   5.2253995876e+01    0.4218696    0.2407502 -68.09  0.001320894    2.609    0.617
       409  -8.2015    166.9376     79.4336   4.6569294103e+01   3.2333536583e+01    0.2302674    0.1802036 -43.78 0.0005167149    1.230    0.187
       410  -8.1725    184.3671     78.1895   4.3168685511e+01   2.8570648214e+01    0.2073534    0.1194608 -47.59 0.0006680162    1.631    0.387
       411  -7.9378    174.7923     77.7227   4.4679629894e+01   3.0824260763e+01    0.2304486   0.09608969 -46.92 0.0005712659    2.347    0.574
       412  -9.0331    105.2237     76.8618   6.0566889661e+01   4.6929059457e+01    0.2843561    0.1981172  18.43  0.001221116    2.034    0.508
       413  -8.0874    157.3849     76.2184   4.7541981462e+01   3.5127654930e+01    0.2108024    0.1294824 -50.10  0.000410626    1.630    0.386
       414  -9.4452    128.0036     75.0431   5.3780303924e+01   4.2208142866e+01     0.377109    0.2591011 -67.20 0.0007055853    1.839    0.456
       415  -8.5743    140.7931     75.1551   5.0769885998e+01   3.9213289425e+01    0.2338095    0.1969302 -73.46 0.0005403089    1.263    0.209
       416  -9.9879     63.1499     73.1761   7.3870721912e+01   5.5659129936e+01    0.5181984     0.280563 -60.57  0.001385934    2.154    0.536
       417  -8.4430    163.6170     73.0768   4.5460368765e+01   3.4217198986e+01    0.3217854     0.155156 -48.19  0.001284014    2.082    0.520
       418  -9.6953     82.4815     72.3792   6.6468543396e+01   5.2452751874e+01    0.4356879    0.2898965 -68.68  0.000951643    2.098    0.523
       419  -7.8349    151.3084     73.6235   4.8045641289e+01   3.7017253918e+01    0.1599738    0.1107411 -71.04 0.0007029086    1.781    0.438
       420  -8.5767    115.7139     72.8654   5.6321316118e+01   4.5419740055e+01    0.2711909    0.1981917 -59.63 0.0004883429    1.530    0.347
       421  -8.2836     42.8312     72.7236   8.2078728090e+01   5.8632712306e+01    0.2443943    0.1764473  87.69 0.0007405363    1.971    0.493
       422  -7.8278    175.5165     72.4673   4.3161033622e+01   3.1550857635e+01    0.1432692      0.13332 -67.49 0.0002986063    1.019    0.019
       423  -9.1648    106.0926     71.5771   5.8638419828e+01   4.7794024361e+01    0.2969971    0.2232695 -69.27 0.0007487834    1.646    0.392
       424  -9.2413     95.1697     70.9850   6.1787626629e+01   5.0225059630e+01    0.3859378    0.2425935 -59.48  0.001031315    1.951    0.487
       425  -9.4040     51.6219     69.5634   7.7421142418e+01   5.8186688298e+01     0.438957    0.2752074 -78.73     0.001218    2.634    0.620
       426  -9.0526     29.6696     69.7027   8.7054088344e+01   6.0791755860e+01    0.3332822    0.1646243 -23.25   0.00130528    3.060    0.673
       427  -8.9459     16.6919     69.8387   9.3016865218e+01   6.1888091889e+01    0.2600977    0.2093774  65.53  0.001022318    1.511    0.338
       428  -7.8019    157.2508     69.6444   4.5716908625e+01   3.6307175983e+01    0.1516576    0.1061824 -65.07 0.0004327277    1.602    0.376
       429  -8.9004    147.0474     67.8933   4.7269938967e+01   3.9031475609e+01    0.3183666    0.2007503 -50.55 0.0007630889    1.619    0.382
       430  -8.4114    138.7461     65.8609   4.8452599202e+01   4.1357982716e+01    0.2767448     0.187214 -58.60 0.0007271462    1.644    0.392
       431  -8.8300    121.7370     65.6665   5.2447917685e+01   4.5388331945e+01    0.2857344    0.2285264 -62.77 0.0006185999    1.366    0.268
       432  -8.7018     37.3001     63.8643   8.1945271165e+01   6.1293185263e+01    0.2927159    0.2148214  81.04 0.0009703882    2.037    0.509
       433  -8.9501    110.1393     63.4395   5.4823399660e+01   4.8437219715e+01    0.3048817    0.2211994 -56.18  0.000792438    1.526    0.345
       434  -8.6083     65.5303     62.2746   6.9378576810e+01   5.7585375687e+01    0.4355515    0.2463002   7.23  0.001441723    4.111    0.757
       435  -7.8137    158.2085     61.5916   4.3234604385e+01   3.7422152126e+01     0.187733    0.1325885  51.52 0.0002436804    1.462    0.316
       436  -9.0987     97.7936     60.2764   5.7373111740e+01   5.1728595952e+01     0.338613    0.2421335  63.24 0.0008101263    1.594    0.373
       437  -9.7002     73.4421     59.4057   6.5341763573e+01   5.6763553438e+01    0.4043213    0.2643265 -56.28  0.001028789    1.775    0.437
       438  -8.4692     89.0110     59.4943   5.9899920088e+01   5.3716850038e+01    0.2285736    0.1891298 -41.46 0.0006605819    1.225    0.184
       439  -8.0064    214.8230     59.2105   3.4245832438e+01   2.4885976483e+01    0.1561237    0.1543773  15.67 0.0003320432    1.284    0.221
       440  -8.1325    147.1129     59.1301   4.4649473126e+01   4.0486723236e+01     0.204011    0.1642987 -68.42   0.00042882    1.296    0.229
       441  -8.8544    130.7361     57.4231   4.7631734403e+01   4.4697240111e+01    0.2614635    0.1702168 -50.67 0.0006161662    1.618    0.382
       442  -9.9055     23.4771     56.2045   8.6237266586e+01   6.4425679383e+01    0.4353257    0.2865928  78.32  0.001876081    2.599    0.615
       443  -9.2595      7.4543     56.9499   9.4489138751e+01   6.5475471092e+01      0.28304    0.1953328  77.52   0.00101985    1.956    0.489
       444  -8.0718    140.0045     55.9923   4.5149166613e+01   4.2707027904e+01    0.2318088    0.1672818 -71.89 0.0005387936    1.633    0.387
       445  -9.0831    119.1509     55.2342   4.9696847737e+01   4.7799735527e+01     0.395872     0.229982 -51.24  0.001312967    1.925    0.480
       446  -8.9187     44.0377     55.2515   7.6086710118e+01   6.2299263394e+01    0.2769383    0.1851207 -59.78  0.001061431    1.665    0.399
       447  -8.9818     62.8905     54.5071   6.7679703995e+01   5.9580403862e+01    0.2882082    0.1967462 -55.28 0.0006184551    1.656    0.396
       448  -8.8437     54.0704     53.5341   7.1014148714e+01   6.1199478957e+01    0.3309811    0.1963161 -62.79  0.001196474    2.351    0.575
       449  -8.4888    105.8077     53.0700   5.2503288808e+01   5.1231883657e+01    0.2203186    0.1943027 -71.33 0.0006212675    1.258    0.205
       450  -7.8637     52.3158     61.3699   7.4503088116e+01   5.9859638819e+01     0.148338    0.1003572 -19.99 0.0007035717    1.783    0.439
       451  -9.4561     92.4594     50.3015   5.5479293985e+01   5.4636437500e+01    0.4022633    0.2397504 -50.78  0.001097948    1.931    0.482
       452  -8.5981    129.8754     49.2898   4.5196045709e+01   4.6204782648e+01    0.2566086    0.1864852 -49.57 0.0007618147    1.425    0.298
       453  -8.3092    144.8343     48.8181   4.1955577671e+01   4.2651250132e+01    0.1987697    0.1587383 -70.81  0.000387335    1.310    0.237
       454  -8.3935    120.9055     47.1736   4.6548519808e+01   4.8677277471e+01     0.213243    0.1906985 -80.01 0.0005162555    1.172    0.147
       455  -8.3485    112.2079     46.7323   4.8550470849e+01   5.0792808867e+01    0.2407311    0.1841824 -49.92 0.0006720658    1.393    0.282
       456  -8.9741     82.2328     46.0472   5.7233379698e+01   5.7492912981e+01     0.300412    0.2278921 -63.60 0.0006395369    1.711    0.415
       457  -8.6921     45.0324     44.4962   7.1679768582e+01   6.4300049348e+01    0.2266915    0.1847588 -62.43  0.000713668    1.512    0.339
       458  -9.0070     16.8693     44.6118   8.6092661730e+01   6.7490660998e+01     0.230238     0.173202 -64.62 0.0007183654    1.427    0.299
       459  -8.5198    132.9660     42.9835   4.2468984796e+01   4.6399709911e+01    0.2245986    0.1620225 -68.38 0.0004861066    1.598    0.374
       460  -8.3801     92.7379     42.4543   5.2450574635e+01   5.5860227100e+01    0.2338358    0.1733162  -2.55 0.0008268731    1.728    0.421
       461  -9.4402     69.6638     41.4605   5.9962652507e+01   6.0732298710e+01    0.3589418    0.2680299 -71.26  0.001185567    2.055    0.513
       462  -8.8264     58.4110     42.2528   6.4811129921e+01   6.2614794289e+01    0.3170348     0.220911 -62.82  0.001050129    2.058    0.514
       463  -9.5433      5.2948     41.7128   9.1646968043e+01   6.8936613567e+01    0.3564282    0.2124358 -84.08  0.001481767    2.402    0.584
       464  -7.9616    140.3752     41.1641   4.0410027626e+01   4.4852098069e+01    0.1934631    0.1231453 -46.78 0.0004046137    1.603    0.376
       465  -8.4725    105.8650     41.0760   4.8181439765e+01   5.3125163259e+01    0.2138427    0.1859007 -75.66  0.000494018    1.298    0.230
       466  -8.4073     36.9624     40.4839   7.4018720724e+01   6.6164452404e+01    0.2217103    0.1789356 -62.38 0.0006430542    1.534    0.348
       467  -7.5960    160.5434     39.5082   3.6423101991e+01   4.0152468962e+01    0.1412276    0.1240472 -77.69 0.0001685319    1.054    0.052
       468  -8.2408     95.5225     37.5779   4.9745467978e+01   5.5987836072e+01    0.2317436    0.1237701 -45.72 0.0006211461    2.104    0.525
       469  -7.7998    133.6055     35.8587   3.9996390834e+01   4.7236807364e+01    0.1932193    0.1223788 -46.72 0.0005360824    1.641    0.391
       470  -8.6110    125.9680     35.4609   4.1411201421e+01   4.9150787958e+01    0.2000053       0.1882 -46.36 0.0003408687    1.122    0.109
       471  -8.2068     80.9476     36.3249   5.3813687670e+01   5.9314880373e+01    0.1890206    0.1717623  37.46 0.0005664686    1.045    0.043
       472  -9.2136     26.1258     35.2117   7.7608273019e+01   6.8468840446e+01    0.2629448    0.2208682 -70.71 0.0008880966    1.587    0.370
       473  -8.8921    175.7147    247.5787   7.8606447324e+01  -2.3760376413e-01    0.2517219    0.1946772  67.31  0.001339428    2.297    0.565
       474  -8.9325     48.5522     32.9253   6.5229766556e+01   6.5840360719e+01     0.243862    0.2056511 -49.37 0.0006773683    1.388    0.280
       475  -8.4425    119.0857     33.0050   4.2041298130e+01   5.1141422344e+01    0.2217184    0.1602142 -71.07 0.0004920065    1.676    0.403
       476  -8.4750     60.8284     32.3810   5.9629010261e+01   6.3840187835e+01     0.212579    0.1739042 -42.09 0.0005480556    1.336    0.252
       477  -8.9052     72.2141     30.7743   5.4532553899e+01   6.1918106074e+01     0.255744    0.1988288 -61.40 0.0007896665    1.725    0.420
       478  -8.8998     13.0740     30.4975   8.3281290816e+01   7.0647310481e+01    0.2128388    0.1643241 -69.28 0.0009131983    1.642    0.391
       479  -9.4908    155.8121    247.8173   8.2497065636e+01   2.3692541672e+00    0.3708568    0.2091601 -27.65  0.001593755    2.342    0.573
       480  -8.4414    113.1833    248.3013   9.1175875326e+01   8.0842736114e+00    0.2092546    0.1414503  73.47 0.0009653193    2.044    0.511
       481  -8.6094     91.8241     25.9837   4.6198095238e+01   5.8409652115e+01    0.2325848    0.1777333 -53.25 0.0006689006    1.541    0.351
       482  -7.3091    145.7062     25.6955   3.4577040905e+01   4.5549685229e+01    0.1335177    0.1005239  37.37 0.0002443995    1.578    0.366
       483  -8.9495     81.6117     27.1990   4.9788742551e+01   6.0482521586e+01    0.2834835    0.2127367 -61.09   0.00093119    1.766    0.434
       484  -8.9130     63.7792     21.1316   5.3332414687e+01   6.4920291053e+01    0.2695443    0.1910328 -53.48 0.0009121367    1.907    0.476
       485  -8.8150     48.4844     21.3421   5.9874097478e+01   6.7662986196e+01    0.2365952    0.1945512 -31.32 0.0007145599    1.269    0.212
       486  -7.8497     34.3338     22.6726   6.7566435908e+01   6.9644068638e+01    0.1128895    0.1015078  77.28 0.0006044006    1.718    0.418
       487  -8.0809    120.7871     20.7647   3.7323405143e+01   5.2230043755e+01    0.2057423   0.08888997 -40.45 0.0008577354    2.418    0.586
       488  -7.5907     19.7443     21.3613   7.5304378805e+01   7.1676012839e+01    0.1049617   0.09632849 -80.59 0.0006966215    1.622    0.383
       489  -8.9740     74.2332     19.2105   4.8692124783e+01   6.3064769780e+01    0.2951441    0.2060044 -50.50 0.0006893189    1.811    0.448
       490  -7.7598     38.7052     18.3280   6.3115086123e+01   6.9674915138e+01    0.1096352    0.1014452 -83.64 0.0002687268    1.629    0.386
       491  -8.0655     87.9792     17.2906   4.3642172630e+01   6.0318744650e+01    0.1826104    0.1594936  52.06 0.0004734275    1.057    0.054
       492  -8.2202     30.0726     15.9915   6.6548077123e+01   7.1276996163e+01    0.1627157    0.1532829 -87.29 0.0005623742    1.631    0.387
       493  -7.8799     17.0397     13.7373   7.3245170034e+01   7.3244410323e+01    0.1409089   0.09337452  22.97 0.0004622972    1.465    0.317
       494  -9.1561    103.9499    246.7368   9.2921662790e+01   9.6000089630e+00    0.3701276    0.2099252 -83.79   0.00184749    2.855    0.650
       495  -8.8938    218.6183    247.1219   7.0753164173e+01  -5.4826852239e+00    0.2921995    0.1192516 -39.40  0.001504837    2.590    0.614
       496  -8.7019    132.1978    247.6984   8.7215165534e+01   5.5975714832e+00    0.2133711    0.1629093  56.94 0.0007002144    1.494    0.331
       497  -8.5439     63.9921    248.4408   1.0133557589e+02   1.4432932382e+01    0.1865214   0.09670069  35.10  0.001031538    1.608    0.378
       498  -9.1812    243.1755    245.9449   6.6498883540e+01  -8.0612501758e+00     0.327182    0.1461367 -23.45  0.001871993    2.212    0.548
       499 -10.0314    223.9167    243.8002   6.9359326894e+01  -5.6764744955e+00    0.3908935    0.2086055 -44.68  0.002287726    2.455    0.593
       500  -7.4904    104.6657     34.2983   4.5976666240e+01   5.4375986625e+01    0.1398894    0.1071352 -78.46 0.0004800176    1.650    0.394
       501  -9.1011    147.1724    245.8629   8.3966661099e+01   3.8458424673e+00    0.3287946    0.1977935  59.55  0.001650471    2.673    0.626
       502  -9.1231    119.8776    244.7553   8.9404251770e+01   7.7787936726e+00    0.3246542    0.2084417  71.40  0.001379842    2.375    0.579
       503  -8.7120     68.0272    245.4354   1.0027349612e+02   1.4496531875e+01    0.2812212    0.1389529  62.24  0.001422892    2.202    0.546
       504  -8.2424    139.4754    244.0667   8.5297258671e+01   5.1920811976e+00    0.1571598    0.1233902 -55.16 0.0009012022    1.572    0.364
