#   1 NUMBER                 Running object number                                     
#   2 MAG_AUTO               Kron-like elliptical aperture magnitude                    [mag]
#   3 X_IMAGE                Object position along x                                    [pixel]
#   4 Y_IMAGE                Object position along y                                    [pixel]
#   5 X_WORLD                Barycenter position along world x axis                     [deg]
#   6 Y_WORLD                Barycenter position along world y axis                     [deg]
#   7 A_WORLD                Profile RMS along major axis (world units)                 [deg]
#   8 B_WORLD                Profile RMS along minor axis (world units)                 [deg]
#   9 THETA_WORLD            Position angle (CCW/world-x)                               [deg]
#  10 FWHM_WORLD             FWHM assuming a gaussian core                              [deg]
#  11 ELONGATION             A_IMAGE/B_IMAGE                                           
#  12 ELLIPTICITY            1 - B_IMAGE/A_IMAGE                                       
         1 -13.8180    182.3142     45.8155   5.0809086234e+01   3.3988355886e+01     1.312958    0.9928174  23.40   0.00415462    1.661    0.398
         2 -13.8446    203.5338     16.4510   3.9918530485e+01   3.2358954185e+01    0.9341573     0.860898 -40.37  0.003944196    1.181    0.153
         3 -11.2719     61.3970      2.4995   6.3448051238e+01   6.6614867682e+01     0.352223    0.1152338  39.52  0.001490188    2.700    0.630
         4 -13.1212     68.4127    242.3437   1.1784640045e+02   1.5901960893e+01    0.2606445    0.2552835  71.05  0.001633413    1.397    0.284
         5 -14.0975    245.7427    237.6814   8.3542827632e+01  -9.6843988880e+00     1.974141    0.7484069 -29.79  0.009772128    2.661    0.624
         6  99.0000     51.8884    230.6381   1.1999802082e+02   2.0152354841e+01     8.505615     5.116165  30.72   0.05092216    1.941    0.485
         7  -9.7778     77.8584    192.7210   1.1094226012e+02   2.4603651105e+01    0.1743283    0.1415233  60.78 0.0003338787    1.116    0.104
         8 -10.1773     73.9409    189.9022   1.1148215249e+02   2.5771385404e+01     0.184407    0.1597454  75.51            0    1.012    0.011
         9 -11.2700     68.9318    188.3601   1.1243266627e+02   2.6793814923e+01    0.3624371    0.2269096 -43.41  0.001366353    2.099    0.524
        10 -12.6622    148.0883    185.4603   9.3736167804e+01   1.4601619974e+01    0.4920902    0.3847534 -53.39  0.001890829    1.392    0.282
        11 -10.3331     85.2697    188.6850   1.0873960771e+02   2.4433162237e+01    0.2524648    0.1756078  70.63 0.0004616622    1.512    0.339
        12 -10.3068    184.4626    181.3983   8.4971424174e+01   8.6172302674e+00    0.3774815    0.2352464 -57.49  0.001456033    2.262    0.558
        13  -9.5628    180.5163    176.0387   8.4732271479e+01   1.0364512936e+01    0.2122082    0.1416631 -41.97 0.0009221073    1.549    0.354
        14 -12.0149    147.0048    172.8790   9.1616100983e+01   1.7404471216e+01    0.4961878    0.3311317 -72.37  0.002138427    2.216    0.549
        15 -12.1961    137.4500    173.6235   9.4001348875e+01   1.9036518568e+01    0.3337964     0.268374 -26.83   0.00129109    1.429    0.300
        16 -11.3093     66.8796    205.4695   1.1477579992e+02   2.3342091344e+01    0.2089743    0.1898886 -34.86 0.0004673315    1.503    0.335
        17  -9.9784    185.7161    171.5767   8.2699857081e+01   1.0214018829e+01    0.2768513    0.2389152 -36.88 0.0009059472    1.200    0.167
        18 -19.0150     32.3748     97.5165   1.0877715127e+02   5.2706016652e+01     17.04726     1.980322 -64.19    0.0386662    7.669    0.870
        19 -10.1081    191.3131    167.9476   8.0752540800e+01   9.8169911336e+00    0.3204272    0.2405139  71.92  0.001483994    2.105    0.525
        20  -9.5893     17.0521    167.5334   1.2210897223e+02   3.7255944031e+01    0.1448913    0.1159111  39.82 0.0004353033    1.438    0.305
        21 -11.6326     75.4185    248.1686   1.1703754313e+02   1.3948613650e+01    0.3477544    0.1065119 -60.53  0.001601282    3.538    0.717
        22  -9.0687      2.3896    164.1346   1.2512078822e+02   3.9186504196e+01    0.1397431    0.1068014 -83.13 0.0004979702    1.082    0.075
        23  -8.7801    155.2814    158.2818   8.6684877941e+01   1.8887950789e+01    0.1478733    0.1176016  -1.98 0.0006926259    1.513    0.339
        24 -11.9084     99.5899    134.3069   9.5778570963e+01   3.4957887803e+01    0.3281356    0.2859748  15.66 0.0002475475    1.306    0.234
        25 -11.8771     99.8272    140.2748   9.6969658562e+01   3.3478933081e+01    0.7339361    0.4093187  70.74  0.002394143    3.757    0.734
        26 -11.3541     95.9482    153.7966   1.0063707107e+02   3.0874176201e+01    0.2943161    0.2560411  81.95 0.0004297105    1.179    0.152
        27 -12.6219    100.3894    148.3030   9.8426813949e+01   3.1455177341e+01    0.7176803    0.4869514 -26.95  0.001789744    2.040    0.510
        28 -10.2871    113.5635    151.9188   9.5683793372e+01   2.8308508140e+01    0.3919677     0.254527 -84.40  0.001582364    2.360    0.576
        29 -11.6930    133.7785    145.6390   8.9168139876e+01   2.5952522608e+01      1.21101    0.3074723 -54.36  0.002781497    5.974    0.833
        30  -9.7366     71.5849    201.2639   1.1332133820e+02   2.3611056159e+01    0.2056184    0.1585527  85.10 0.0009312709    1.210    0.174
        31 -10.5904     94.3575    143.6410   9.9136471586e+01   3.3576248833e+01     0.237425    0.1736093  76.50  0.001115952    1.693    0.409
        32 -11.3631    110.6187    135.1550   9.2924763408e+01   3.2804050398e+01     0.507709    0.2955655 -31.78  0.001976482    2.297    0.565
        33 -11.3794    105.7356    130.7185   9.3275609297e+01   3.4743708593e+01    0.4080812    0.3333443 -58.53  0.001202452    1.200    0.166
        34 -11.7848     59.6885    203.3884   1.1608449556e+02   2.4707929948e+01    0.3090406    0.2159459 -45.09  0.001783202    1.924    0.480
        35  -9.8837    116.6929    127.4282   8.9481819605e+01   3.3493132706e+01    0.2602918    0.1828007 -29.49 0.0006699788    1.665    0.399
        36 -10.8635    236.5536    124.4910   6.2323256287e+01   8.7273928004e+00    0.4312644    0.2260281 -50.98  0.001786349    2.315    0.568
        37 -10.9534    132.8411    121.2138   8.3595405944e+01   3.1692930004e+01    0.5331984    0.3796893  68.80  0.001705006    1.916    0.478
        38 -10.5239    104.7798    122.7877   9.1705803021e+01   3.6806631596e+01    0.2796707    0.2353662 -17.18 0.0005851691    1.361    0.265
        39  -9.6270    171.2092    120.7609   7.4074450072e+01   2.3410484515e+01    0.2324434     0.212806 -73.49 0.0009465528    1.242    0.195
        40  -9.3834    111.5050    117.0408   8.8381842944e+01   3.6913814167e+01    0.2219303    0.1478002 -47.66 4.744927e-05    1.441    0.306
        41 -10.4817    192.2240    193.5564   8.5727391107e+01   5.0315124227e+00    0.5719662    0.2978934 -61.54  0.001741237    5.691    0.824
        42  -9.9665    167.0634    112.0452   7.2731864312e+01   2.6129769042e+01    0.2485132    0.1977797 -79.63  0.000805424    1.673    0.402
        43 -11.0577    119.2465    110.5701   8.4516201414e+01   3.6888505675e+01    0.4652188    0.3023874  57.83  0.001944382    1.905    0.475
        44  -9.9640    205.3324    110.1931   6.4323341454e+01   1.7787032069e+01     0.246598    0.2061539  33.51 0.0007334237    1.280    0.219
        45 -10.5198     75.0030    103.9920   9.6150677122e+01   4.6196632410e+01    0.2329171     0.166236 -25.17 0.0005045022    1.636    0.389
        46  -9.2762    182.3560     83.3141   6.1553863293e+01   2.8015262935e+01    0.1608232    0.1196866  17.70 0.0007044678    1.741    0.426
        47  -9.7475     92.1871     65.8969   7.9236280864e+01   5.1676772543e+01     0.203677    0.1986718 -32.40 0.0004761389    1.166    0.142
        48 -13.0211    167.2061     60.5196   5.7883809019e+01   3.5589003143e+01    0.6193748    0.5919573 -27.91 0.0008963172    1.062    0.059
        49 -11.8673     62.6321    241.4677   1.1883997929e+02   1.6799019000e+01    0.2018491    0.1290168 -77.55 0.0008973644    1.604    0.377
        50 -12.4637     58.8984    246.6707   1.1990759068e+02   1.6325981180e+01    0.2144551      0.18796  22.41   0.00159439    1.631    0.387
        51 -12.2500    187.3341     39.5280   4.8229689296e+01   3.3583499879e+01    0.4469086    0.3672626  13.56  0.001087143    1.507    0.336
        52 -11.1756     82.5160    194.8585   1.1016111839e+02   2.3474224804e+01    0.3425044    0.2094803  38.72 0.0005453423    1.585    0.369
        53 -10.2373    167.0103    222.9468   9.5994655950e+01   4.3913273759e+00     0.262141    0.1950397 -58.50   0.00140142    1.770    0.435
