#   1 NUMBER                 Running object number                                     
#   2 MAG_AUTO               Kron-like elliptical aperture magnitude                    [mag]
#   3 X_IMAGE                Object position along x                                    [pixel]
#   4 Y_IMAGE                Object position along y                                    [pixel]
#   5 X_WORLD                Barycenter position along world x axis                     [deg]
#   6 Y_WORLD                Barycenter position along world y axis                     [deg]
#   7 A_WORLD                Profile RMS along major axis (world units)                 [deg]
#   8 B_WORLD                Profile RMS along minor axis (world units)                 [deg]
#   9 THETA_WORLD            Position angle (CCW/world-x)                               [deg]
#  10 FWHM_WORLD             FWHM assuming a gaussian core                              [deg]
#  11 ELONGATION             A_IMAGE/B_IMAGE                                           
#  12 ELLIPTICITY            1 - B_IMAGE/A_IMAGE                                       
         1 -13.7725    159.7202     52.5618   8.0510215449e+01   3.8701844142e+01     1.486173     1.057029  33.14  0.005026703    1.627    0.385
         2 -13.9134    172.1677     36.9780   7.3755557368e+01   3.7790048382e+01     1.008884    0.9210926  24.36  0.003733758    1.262    0.208
         3 -11.4148    189.9509     14.9657   6.5271490899e+01   3.6004260704e+01    0.2811101    0.1996914 -83.88 0.0008645233    1.380    0.276
         4 -13.5311    188.8369      5.1300   6.2934706065e+01   3.7286512779e+01    0.9630689    0.6253035  67.51  0.004007597    1.312    0.238
         5 -19.0262     51.1166     95.3848   1.2306275973e+02   5.1317783717e+01     18.56341     1.214631 -56.66   0.03058348   14.933    0.933
         6 -18.6388     67.2425    245.1178   1.4080892979e+02   1.5848456655e+01     6.027306     5.126356  59.65   0.03694019    1.287    0.223
         7 -11.2064    167.7544    190.6097   1.1295571329e+02   9.3823868059e+00    0.3546347    0.3023618  14.20  0.001895562    1.339    0.253
         8 -10.9870    163.1616    210.1298   1.1743231195e+02   6.4690542955e+00     0.239026    0.1969609 -60.04 0.0009809107    1.368    0.269
         9 -10.9212    208.5199    196.8158   1.0574442180e+02   2.3981075054e-01    0.2147812    0.1904785  58.42 0.0004823806    1.306    0.234
        10 -10.0612    176.5321    187.9951   1.1057967359e+02   8.1425838966e+00    0.2158047    0.1451264 -45.88 0.0008723827    1.573    0.364
        11  99.0000     10.4741    206.8116   1.4788374524e+02   3.0343948450e+01    0.3622943       0.3001 -87.72  0.002797118    1.263    0.208
        12 -10.4879     30.9135    207.5545   1.4419479983e+02   2.8045700177e+01    0.2128802    0.1614409   5.34  0.000962318    2.617    0.618
        13 -12.0515     37.6104    183.7909   1.4063810222e+02   3.2471104235e+01    0.2124367    0.1745627  87.75 0.0003596076    1.063    0.059
        14 -10.7070    160.8564    198.1424   1.1582208386e+02   9.2408938644e+00    0.2239048    0.2076075  48.72 0.0004922867    1.008    0.008
        15 -11.5063    205.5133    180.4894   1.0308110779e+02   3.7661332664e+00    0.4948543    0.3088891  44.78  0.001926155    1.581    0.368
        16 -11.3845    208.6910    178.6617   1.0207093022e+02   3.4744255772e+00    0.4015508    0.3357451  -4.12  0.002168261    1.285    0.222
        17 -10.0574     27.0891    179.9800   1.4245033708e+02   3.4459214028e+01    0.1591052    0.1447013  17.35  0.000835446    1.608    0.378
        18  -9.3087     17.6789    180.7743   1.4445787699e+02   3.5215279917e+01   0.09973563   0.08231103 -55.49 0.0004560906    1.501    0.334
        19 -10.8544    158.7480    204.9757   1.1747310973e+02   8.3023634484e+00     0.344312    0.2020986  63.61  0.001443419    2.284    0.562
        20  -9.7767     34.3474    178.1802   1.4073698108e+02   3.4095348341e+01     0.267955    0.1673359  16.67  0.001378744    2.690    0.628
        21 -11.7425    155.1100    196.9881   1.1684811847e+02   1.0594278462e+01    0.3871509    0.2786769  87.71  0.001820188    1.931    0.482
        22 -11.9369    196.0988    171.7812   1.0318024371e+02   7.3326111859e+00    0.6477211    0.3892549 -48.94  0.002018498    1.776    0.437
        23 -10.4745    194.1740    166.1114   1.0237001936e+02   8.8490879959e+00    0.3287033    0.2536292  46.17  0.001022657    1.288    0.224
        24 -10.8707    122.8857    165.9522   1.1840955248e+02   2.3636815076e+01    0.2494249    0.2056943  66.62            0    1.216    0.178
        25 -10.9870    163.4809    203.9590   1.1629864389e+02   7.5895924720e+00    0.3507185    0.2698319 -54.44  0.001388472    1.435    0.303
        26 -10.0196    198.8652    222.6583   1.1239261388e+02  -2.3458977999e+00    0.1873223    0.1496081  36.50 0.0004195003    1.117    0.105
        27 -10.3707    223.7584    163.8641   9.6023071611e+01   3.2049327885e+00    0.2575549     0.191114 -56.61 0.0006812724    1.592    0.372
        28 -12.8006    193.4886    192.8151   1.0798338573e+02   3.8495709696e+00    0.9961569    0.5554454 -55.48  0.002828605    2.335    0.572
        29 -11.6744    111.5414    158.4481   1.1970878592e+02   2.7508289322e+01    0.3578725    0.2835447  82.27  0.001335688    1.368    0.269
        30 -11.5552     24.9722    156.6538   1.4043128294e+02   3.9949146185e+01    0.4670916    0.2647589  50.37  0.002652717    1.877    0.467
        31 -11.0454    139.9115    156.4348   1.1241636930e+02   2.2429680077e+01    0.2692396    0.2382879 -65.84 0.0003452976    1.133    0.118
        32 -13.7952    137.3118    199.3969   1.2111335593e+02   1.3516733272e+01    0.8303347    0.5338427  51.34  0.003458911    1.455    0.313
        33 -12.8663    134.0040    145.7732   1.1153818850e+02   2.6079704521e+01     1.247568    0.3259293 -54.78  0.003024929    5.254    0.810
        34 -10.1889      9.9672    152.6481   1.4340442014e+02   4.2160416168e+01    0.2721384    0.1841893  10.99  0.001700174    2.271    0.560
        35 -11.3315     27.4604    151.0656   1.3918623018e+02   4.0996466854e+01    0.3522484     0.202609  60.32  0.001923166    1.922    0.480
        36  -9.0591     17.2974    151.3196   1.4159141042e+02   4.1855455324e+01    0.1188146   0.07633025 -51.47  0.000635364    1.616    0.381
        37 -10.2518    174.7736    148.9043   1.0271331116e+02   1.6587726633e+01    0.2971923    0.2189901 -65.54 0.0008704187    1.606    0.377
        38 -11.7297    144.4752    145.9730   1.0903924812e+02   2.3842964956e+01    0.4092419    0.2802493 -80.39  0.001671126    2.088    0.521
        39 -11.9674      2.1915    145.6665   1.4445283052e+02   4.4303906936e+01    0.3346419    0.2403186 -29.09   0.00119489    1.984    0.496
        40 -12.0586      5.2366    112.2960   1.3974649167e+02   5.1518180367e+01    0.4570635    0.2859281   2.30  0.002381481    2.293    0.564
        41 -13.5365      3.2181    126.4701   1.4210160083e+02   4.8507436938e+01     1.388049    0.6114511 -75.43  0.007306144    1.850    0.459
        42 -12.1698    104.0745    138.3428   1.1751252129e+02   3.3605377908e+01    0.3011695    0.2741443  57.04 0.0004020119    1.126    0.112
        43 -12.1261     18.1413    141.7874   1.4027855272e+02   4.3953816744e+01    0.2734004    0.1832616  17.85  0.000816997    2.074    0.518
        44 -12.5752     12.3630    115.9534   1.3833188097e+02   5.0236899643e+01    0.4771105    0.2572541 -19.56   0.00241645    3.028    0.670
        45 -11.9758    105.9656    130.8963   1.1538081698e+02   3.5011742005e+01    0.4215879    0.3567621 -67.17  0.001227419    1.164    0.141
        46 -10.9938    107.8317    125.4198   1.1362594238e+02   3.5941212903e+01    0.3057838    0.2698417  -3.33 0.0006780057    1.361    0.265
        47 -12.0039    119.2783    129.3457   1.1151938545e+02   3.2839358798e+01    0.4154481    0.3521677 -61.60  0.001092583    1.164    0.141
        48 -12.3442    123.8895    126.7127   1.0969657216e+02   3.2520606569e+01    0.6400141     0.412075  77.25  0.002433509    2.566    0.610
        49 -12.0065    135.6807    122.3878   1.0562159969e+02   3.1035267481e+01    0.6229824     0.243907 -50.63  0.002069496    2.658    0.624
        50 -10.8077    160.6341    127.8213   1.0092412970e+02   2.4301790090e+01     0.325594    0.2468266 -78.75  0.001436731    1.677    0.404
        51 -10.9381    113.1056    118.3677   1.1051395805e+02   3.6556769672e+01     0.351127     0.264129  77.25  0.001274138    1.725    0.420
        52 -10.4713    117.6023    115.9200   1.0869778837e+02   3.6226665363e+01    0.3018212    0.1942946  60.90 0.0008678265    1.923    0.480
        53 -12.8940    113.3228    139.2349   1.1530498988e+02   3.1690955258e+01    0.7896118    0.5734146   4.22  0.003405532    2.232    0.552
        54 -10.5548    168.2525    113.3402   9.5536014894e+01   2.5602258164e+01    0.4082087    0.2947824 -86.39  0.001347528    1.939    0.484
        55 -10.3243    135.0000    112.0037   1.0314694489e+02   3.3467143605e+01    0.2623835   0.08765829 -45.12 0.0008048217    2.959    0.662
        56 -12.2447     84.5916    109.0447   1.1621031699e+02   4.3709713096e+01    0.5163234    0.2388157 -42.62  0.002073379    2.180    0.541
        57 -10.2931    205.5679    110.2025   8.7082486506e+01   1.7392281291e+01    0.2769774    0.2174958  55.60 0.0006426834    1.307    0.235
        58 -12.0790     16.8534    128.7484   1.3892967083e+02   4.7024395923e+01    0.2661385    0.1973378  44.34  0.001754888    1.589    0.371
        59 -10.4365     92.0285     79.0002   1.0587172868e+02   4.8840969598e+01    0.2079014    0.1972887 -13.23 0.0003972998    1.032    0.031
        60 -11.3326      5.5920    222.0476   1.4970519482e+02   2.7739501395e+01    0.1376052    0.0750675 -67.05 0.0008811913    1.806    0.446
        61 -10.9797     13.4895    244.8841   1.4974984308e+02   2.2544235746e+01    0.1598849   0.08136473 -77.24  0.001041546    1.697    0.411
        62 -12.1732    159.0934    235.8083   1.2233085873e+02   2.5864968076e+00    0.3597443    0.2839387  21.30  0.001253607    1.445    0.308
        63 -12.4466    175.9816     29.6353   7.1104403997e+01   3.7765790460e+01    0.4243669    0.3430053  29.30  0.001234119    1.492    0.330
        64  -9.9989     13.2958     59.5953   1.2720927047e+02   6.2026150537e+01    0.2038053    0.1260003 -53.70 0.0006194866    1.316    0.240
        65  -9.8978    129.0366     27.8527   7.9268064199e+01   4.9262491195e+01    0.2014224    0.1727158  77.99 0.0005297844    1.301    0.231
        66 -10.3749    168.9196    234.3822   1.2018751734e+02   1.0788450551e+00     0.198146    0.1814745 -88.85 0.0005326825    1.288    0.224
