#   1 NUMBER                 Running object number                                     
#   2 MAG_AUTO               Kron-like elliptical aperture magnitude                    [mag]
#   3 X_IMAGE                Object position along x                                    [pixel]
#   4 Y_IMAGE                Object position along y                                    [pixel]
#   5 X_WORLD                Barycenter position along world x axis                     [deg]
#   6 Y_WORLD                Barycenter position along world y axis                     [deg]
#   7 A_WORLD                Profile RMS along major axis (world units)                 [deg]
#   8 B_WORLD                Profile RMS along minor axis (world units)                 [deg]
#   9 THETA_WORLD            Position angle (CCW/world-x)                               [deg]
#  10 FWHM_WORLD             FWHM assuming a gaussian core                              [deg]
#  11 ELONGATION             A_IMAGE/B_IMAGE                                           
#  12 ELLIPTICITY            1 - B_IMAGE/A_IMAGE                                       
         1 -14.0750    101.0428     49.8946   2.3778446454e+01   5.3222311442e+01     1.014774    0.9112197  69.76  0.003189744    1.105    0.095
         2 -13.9197     64.3840     53.2309   3.9162886964e+01   6.0834026178e+01     2.447366     1.050987 -31.51  0.007307857    4.095    0.756
         3 -15.0032      6.5515     71.1416   7.5189392480e+01   6.3307426782e+01     1.228326    0.8620426 -71.94  0.004872473    1.285    0.222
         4 -14.1328     41.5250      5.1016   2.5293449775e+01   7.3657746458e+01     1.068344    0.6870832  11.43  0.004451945    1.903    0.475
         5 -13.2637      8.4338      2.8309   5.1429592752e+01   7.9093919963e+01    0.6789493    0.5267159  31.84  0.002610099    1.451    0.311
         6 -16.0266     11.9027     22.4321   5.9041470207e+01   7.4849701925e+01     2.258182     1.168305 -32.86   0.01097122    1.901    0.474
         7 -14.0324     26.3289     13.4188   4.1802683144e+01   7.5023039314e+01    0.8180636    0.4757719  13.38  0.003900473    2.066    0.516
         8 -13.0280    229.7551      2.6584   3.5132756976e+02   2.7305901406e+01    0.8025196    0.2699893  78.39  0.003748608    2.984    0.665
         9 -15.1969    217.6696     16.8025   3.5521977426e+02   2.8391356223e+01     2.037761     0.882988 -35.50   0.01021103    1.900    0.474
        10 -15.0703    189.6115     20.8968   3.5836901862e+02   3.4298228598e+01     1.751313     0.813414 -43.61   0.00823201    1.851    0.460
        11 -15.0584    147.6897     29.5989   5.8784738978e+00   4.3920267611e+01     1.842435    0.8949946  59.99  0.007792042    1.907    0.476
        12 -13.3584     57.4328     26.9245   3.0245342829e+01   6.7212379353e+01     1.225133    0.4003029  42.44  0.004218539    2.934    0.659
        13 -13.3783    242.8231     35.0341   3.5766975964e+02   2.1310328076e+01    0.6077498    0.5206165  89.37  0.002889954    1.297    0.229
        14 -12.6297    120.4343     26.5101   9.5592214194e+00   5.1632561881e+01    0.6878375    0.4303724  55.75  0.002840931    1.481    0.325
        15 -15.3044     99.7408     12.0279   7.8661960866e+00   5.8852761612e+01     1.652661    0.8904381  61.06  0.003119037    1.599    0.374
        16 -11.8945     61.2519     14.8695   2.1622646258e+01   6.8178976785e+01     0.663954     0.256058  41.91  0.002489489    2.575    0.612
        17 -11.7565     71.0861     16.2308   1.8401167926e+01   6.5709305269e+01    0.3563481    0.2719229  -8.06   0.00165376    1.503    0.335
        18 -11.7415     74.5071     10.4665   1.3998199758e+01   6.5553318738e+01    0.3102475    0.2428594  20.02  0.001000973    1.395    0.283
        19 -14.2219    122.3225     36.8455   1.3125061982e+01   4.9750432116e+01     1.094287    0.5851535  46.02  0.002620158    1.968    0.492
        20 -11.8123     46.7663     12.8922   2.7609921027e+01   7.1550642542e+01    0.3790414    0.2757992  59.34    0.0013754    1.610    0.379
        21 -12.2043     85.4739     13.6167   1.2272205004e+01   6.2432581328e+01     0.466317    0.3688224 -40.35  0.001926488    1.401    0.286
        22 -11.0496    123.5376     10.8722   2.8797992542e+00   5.2522841589e+01    0.3852251    0.2032261 -68.55  0.001567471    2.317    0.568
        23 -11.8701    152.7622      8.5591   3.5826991808e+02   4.4878835668e+01    0.2802306    0.2464943  48.88  0.001654782    1.308    0.236
        24 -14.8167    212.1565     40.8046   1.4345698066e+00   2.6816990940e+01     2.079944    0.6822386  77.87  0.007330259    4.258    0.765
        25 -14.7218    166.9153     29.5916   3.2340936478e+00   3.8907021873e+01     1.094704    0.8342515  85.10  0.003595073    1.236    0.191
        26 -10.6686    192.8837      2.6827   3.5328300388e+02   3.5384110079e+01    0.1809321    0.1411213 -72.91 0.0005755346    1.073    0.068
        27 -11.0950     67.7787      2.7925   1.1817613950e+01   6.7997661020e+01    0.3109595    0.2037603  38.07  0.001592627    1.467    0.318
        28 -11.8479     80.6357      1.7300   7.3696780807e+00   6.4848955178e+01    0.7040488   0.09936173  61.47  0.002021207    4.123    0.757
        29 -11.9837    120.2268      3.0807   3.0194208097e-01   5.4131969397e+01     0.582862    0.2544297 -82.22  0.002073697    3.029    0.670
        30 -11.4805     61.5142      1.4728   1.3233868089e+01   6.9640034881e+01    0.4310567    0.1210841  61.19  0.001469592    3.171    0.685
        31 -13.9247     40.6497    196.1008   7.4764801388e+01   2.8453331582e+01    0.9089193    0.4180882  50.86  0.003762146    1.872    0.466
        32 -12.7219    107.6167    247.4659   6.3176991939e+01   1.0409641679e+01    0.7167687    0.3915011  56.99  0.003762693    2.468    0.595
        33 -11.1099    109.4028    242.7386   6.2327855628e+01   1.0935597639e+01    0.4387471    0.1855949  43.36  0.002155936    2.085    0.520
        34 -13.1718     98.3502    239.0263   6.4397035607e+01   1.2957355437e+01    0.8909701    0.4127161  24.97  0.004413642    1.907    0.476
        35 -14.2304     91.6762    232.1351   6.5248052250e+01   1.5000515276e+01    0.7406647    0.7270551  56.25  0.005432177    1.265    0.210
        36 -12.4830     51.5777    248.3846   7.5415077845e+01   1.6909472963e+01    0.4742365    0.3429798  25.21  0.003218829    1.303    0.233
        37 -12.6765     57.4731    246.6371   7.4033831664e+01   1.6562104306e+01    0.5585562     0.339434  21.75  0.003005804    1.580    0.367
        38 -11.6753     41.3093    250.0007   7.7701329624e+01   1.7724391569e+01    0.2565461     0.164186  53.09  0.001715796    1.274    0.215
        39 -13.2865     28.1154    246.5626   8.0363409813e+01   1.9667787273e+01    0.5973193    0.4294391  27.27   0.00354226    1.320    0.243
        40 -12.1547      2.8762    249.6282   8.5682776164e+01   2.1446762778e+01    0.3670511     0.167115  44.07  0.001947664    1.442    0.307
        41 -14.0344      9.3740    245.5405   8.4267298223e+01   2.1604710822e+01    0.9365163    0.3290333  44.28  0.003855291    1.803    0.445
        42 -10.9010    212.4979    199.9932   3.5454701443e+01   3.5279898756e+00     0.174556    0.1025451 -29.74   0.00103643    1.603    0.376
        43 -13.2725    164.4635    194.7822   4.3873501826e+01   1.1111621521e+01    0.5765224    0.3973491 -68.68   0.00280128    2.825    0.646
        44 -10.8589     81.0636    192.5562   6.3719263406e+01   2.4199335974e+01    0.2232909    0.1183509  32.03   0.00103304    1.611    0.379
        45 -12.0240     98.8546    186.5024   5.8255109762e+01   2.2910698977e+01    0.4091771    0.2542962 -12.04  0.001677244    2.832    0.647
        46 -12.3145    200.9702    191.1398   3.6019461258e+01   6.3178548008e+00    0.3290278    0.2299404   9.70  0.001408579    1.299    0.230
        47 -12.3524     48.5207    181.5138   7.1470738837e+01   3.0892383888e+01    0.4964065     0.324593 -47.58  0.002538637    1.892    0.471
        48 -11.2097    109.5022    183.4840   5.5042835409e+01   2.1900426557e+01    0.2653383    0.1299015  22.66  0.001039556    2.351    0.575
        49 -13.1317    197.9048    180.1480   3.4645642604e+01   8.3888906736e+00    0.4866554    0.3851234 -75.37  0.002616639    2.653    0.623
        50 -11.2066    122.3185    181.1639   5.1410208646e+01   2.0322118175e+01    0.4039557    0.2449913  72.49  0.001499798    3.560    0.719
        51 -12.7651     85.0375    180.1282   6.1111437621e+01   2.6372285004e+01    0.4189799    0.3045222  79.89  0.002137181    1.659    0.397
        52 -13.1597    124.2960    166.4007   4.8404022838e+01   2.3047599656e+01    0.6706696    0.4660346 -72.52  0.003125024    2.022    0.505
        53 -12.5888    237.7164    159.5153   2.4159309204e+01   5.6218696571e+00    0.5055494   0.09932736  39.16  0.001712864    5.753    0.826
        54 -11.9159     28.1074    158.8796   7.5575615705e+01   3.8582457313e+01    0.2285859    0.1612527  57.44  0.001046456    1.271    0.213
        55 -12.1122     85.5736    152.9660   5.6942480018e+01   3.2660370222e+01    0.7114578    0.5547569 -11.11  0.003445135    1.664    0.399
        56 -12.4684     77.1649    157.0125   6.0136747918e+01   3.2979708682e+01    0.6244524    0.3674984  29.35  0.001984348    1.630    0.387
        57 -13.3755     74.0086    153.4899   6.0575437581e+01   3.4320058439e+01    0.8262303    0.5444605  32.82  0.001855861    1.414    0.293
        58 -11.2344     89.9779    169.7635   5.8282820953e+01   2.7986292676e+01    0.2043846    0.1126017  32.47 0.0008855034    1.638    0.390
        59 -12.3435    111.8678    155.7706   4.9797461262e+01   2.7547303859e+01     0.613378    0.3738016  68.44  0.002338813    2.724    0.633
        60 -11.9353     55.0656    155.7415   6.6818869598e+01   3.6373558765e+01    0.5368313    0.3442925  -5.70  0.002300716    2.379    0.580
        61 -12.8127    208.6691    154.4603   2.7838928948e+01   1.0660434433e+01     0.639319    0.3313851  35.08  0.003193239    2.009    0.502
        62 -12.8665      8.8180    149.6120   8.0987653710e+01   4.2529598757e+01    0.7831834    0.3977548  53.45  0.003784837    1.753    0.430
        63 -11.5149     12.6768    148.6684   7.9711146993e+01   4.2487009739e+01    0.2437689    0.2233226 -39.25  0.001080586    1.301    0.231
        64 -11.7375    103.5961    149.6310   5.0999894855e+01   3.0418375751e+01    0.3865495    0.2961922 -13.64  0.001449137    1.697    0.411
        65 -12.2638     59.6104    148.8753   6.4473890872e+01   3.7523229080e+01    0.2986558    0.2295051 -13.66  0.001204352    1.703    0.413
        66 -11.4669     38.4602    145.6386   7.1028342379e+01   4.0920075103e+01    0.2475912    0.2206407  25.44 0.0005953911    1.188    0.158
        67 -10.3126     44.3621    145.2872   6.9024258321e+01   4.0353479657e+01    0.1443905    0.1086321 -27.78 0.0003973447    1.690    0.408
        68 -11.4528    149.8584    141.1472   3.6992517888e+01   2.3547442127e+01    0.3727095    0.1996891  62.52  0.001214987    3.748    0.733
        69 -12.5808     42.4327    138.3873   6.8843980287e+01   4.2378808483e+01    0.5240148    0.2977709  31.75  0.002381322    1.659    0.397
        70 -12.5789    246.1371    133.9878   1.8085912584e+01   7.8840673677e+00    0.3331016    0.2720149 -58.50  0.002236245    1.690    0.408
        71 -12.3261     44.3874    132.7957   6.7437302897e+01   4.3632287151e+01    0.3390926    0.2400785 -40.29  0.001462605    1.649    0.393
        72 -10.3284     10.9663    134.0070   7.9345464596e+01   4.6391073125e+01    0.1598269    0.1412253  43.97 0.0004041137    1.132    0.116
        73 -12.6497    136.2070    131.9505   3.8311341296e+01   2.8167570677e+01    0.7874823    0.3345411  41.91  0.002867418    2.268    0.559
        74 -13.1049    223.1572    127.6835   2.0036831154e+01   1.2354385655e+01    0.4427415    0.3401823 -67.88  0.002542621    1.951    0.487
        75 -11.2941     34.2232    129.4599   7.0661790820e+01   4.5627999326e+01    0.2016128    0.1218461  39.58 0.0002705542    1.559    0.358
        76 -11.0069      5.3142    128.7042   8.0979555273e+01   4.8137070954e+01    0.2866867    0.1573608 -44.14  0.001345783    2.112    0.527
        77 -14.5608    106.0237    120.9572   4.4233121250e+01   3.6755535832e+01     1.824851     1.234846  37.19  0.008074882    1.436    0.304
        78 -12.8620     28.8273    121.7554   7.1743180970e+01   4.8214990693e+01    0.5596319      0.39259 -53.17  0.002629068    1.468    0.319
        79 -11.2756     59.0111    125.1898   6.1011819459e+01   4.3776285902e+01    0.2488744    0.2112946 -74.63 0.0004957012    1.185    0.156
        80 -12.6993    181.6318    121.2214   2.5636840258e+01   2.1005233143e+01    0.5041609    0.3788959 -84.50  0.002412148    2.102    0.524
        81 -13.0944    230.1551    119.5906   1.7336070134e+01   1.2379655337e+01    0.4347703    0.1656256 -39.84  0.001929657    2.283    0.562
        82 -11.7719     79.4567    119.0177   5.2512974309e+01   4.2190307895e+01     0.347694    0.2727527 -60.31  0.001360662    1.311    0.237
        83 -12.1495     78.6267    110.7839   5.0959971526e+01   4.4434841794e+01    0.3926446    0.2958358 -65.17  0.001496378    1.394    0.282
        84 -13.0406     84.8775    114.9860   4.9728851595e+01   4.2254381274e+01    0.8993582     0.439542  31.41  0.002401923    2.145    0.534
        85 -12.0111     88.5188    110.0132   4.7289405558e+01   4.2821587697e+01    0.5679732    0.3411672 -63.99  0.001871891    1.904    0.475
        86 -10.9300     73.7100    120.0466   5.4753659693e+01   4.2890330071e+01    0.4004145    0.2160564  18.15  0.001443589    2.536    0.606
        87 -11.8140     42.9045     90.3554   6.0729343150e+01   5.5170275968e+01    0.3912612    0.2841815 -75.28  0.001085762    1.422    0.297
        88 -13.0976      5.0437    118.1609   8.0413769707e+01   5.0922119653e+01    0.9294431    0.5170041 -66.59    0.0037032    1.665    0.400
        89 -14.2304     18.2267    110.9259   7.4652767778e+01   5.2011280163e+01    0.9501541    0.7587287 -50.68  0.003392873    1.289    0.224
        90 -14.1167     10.8756    103.0010   7.6858078921e+01   5.4628462058e+01     0.898761    0.7528664  31.05   0.00443184    1.257    0.204
        91 -13.6244      2.3132     96.9944   7.9968727817e+01   5.6666636000e+01    0.9229125    0.3567311 -79.53  0.003333046    2.295    0.564
        92 -12.4356     36.8391     92.8289   6.3978581433e+01   5.5212494082e+01    0.5364391    0.3786327   6.98  0.001738628    1.628    0.386
        93 -14.3297     23.3709     95.2862   7.0471000173e+01   5.5830580096e+01     1.578954    0.6710925  15.23  0.006177248    2.621    0.618
        94 -12.6492     29.8371     89.4990   6.6554633671e+01   5.6815664235e+01    0.5839471    0.3768073  80.88  0.002453153    1.808    0.447
        95 -11.7728    186.4036    116.1822   2.3566250482e+01   2.0931106092e+01    0.2217299    0.1715484  54.30 0.0007743914    1.429    0.300
        96 -13.0648     21.4024     86.1091   6.9950234542e+01   5.8447170249e+01    0.8350933    0.6111825  -0.07  0.002876589    1.537    0.349
        97 -12.8244    121.2464    111.6355   3.7424894597e+01   3.5745342704e+01    0.4719999    0.3768169 -88.60  0.001158104    1.596    0.373
        98 -11.2412     45.8476    110.1256   6.3373494675e+01   4.9528270772e+01    0.3386212    0.2189399 -47.74  0.001408226    1.617    0.382
        99 -10.5416     42.7954    107.3570   6.4119012966e+01   5.0638655962e+01    0.2114176    0.1908863  32.80 0.0004570139    1.128    0.113
       100 -11.7860     62.9813    110.3031   5.6677060288e+01   4.7127800355e+01    0.8355594    0.4035397 -73.19  0.002956366    2.640    0.621
       101 -11.0372     64.5315    101.5399   5.4121981290e+01   4.9178567010e+01    0.3407723    0.2349774  31.09  0.001071609    1.455    0.313
       102 -11.9890     61.7602     98.0543   5.4408886008e+01   5.0520105011e+01    0.5742971    0.3410467  50.87   0.00171025    1.839    0.456
       103 -11.3628    222.6718    109.1098   1.6136092572e+01   1.5195873057e+01    0.2033961    0.1816425  71.50  0.001211224    1.387    0.279
       104 -13.1476    134.9676    102.7770   3.1365632740e+01   3.4616521195e+01     1.019384    0.3761882  49.17  0.002954203    2.724    0.633
       105 -13.3639    120.4529    102.3537   3.5186625009e+01   3.7975560993e+01    0.7610689    0.3675307  43.27   0.00281561    2.028    0.507
       106 -12.1400     48.9510     93.1815   5.8674262805e+01   5.3651175663e+01    0.8803533    0.5039953 -42.75   0.00263018    1.900    0.474
       107 -11.0116     48.5941    101.2033   6.0549230449e+01   5.1571160424e+01    0.4690743    0.3007969  56.50  0.001845723    1.744    0.427
       108 -12.0393     52.2502     97.9235   5.8318145340e+01   5.1951973635e+01    0.5698012    0.3573796  -2.03  0.002278257    2.357    0.576
       109 -11.9387    249.1460     99.0357   1.0689872970e+01   1.2134999526e+01    0.2822931    0.1189278 -43.77  0.001378981    2.116    0.528
       110  -9.8510     75.2811    100.6753   4.9743618700e+01   4.7593394705e+01    0.1594086    0.1210186  73.90 0.0004481811    1.594    0.373
       111 -12.6811    163.6624     97.3932   2.3307138277e+01   2.9132253882e+01     0.418249    0.3148713  49.40 0.0008957436    1.354    0.262
       112 -13.0362    137.3310     95.2090   2.8679370409e+01   3.5625074443e+01    0.5117487    0.4220108  74.30  0.001302877    1.359    0.264
       113 -13.3084     32.0807    112.2315   6.9239571872e+01   5.0473710464e+01    0.7659712    0.4007093 -56.70  0.003333114    1.834    0.455
       114 -12.0252    129.4448     96.0097   3.0939480552e+01   3.7292197123e+01    0.3160292    0.2246433  64.81  0.001378637    1.609    0.378
       115 -14.8285    106.2322    104.5674   4.0048472589e+01   4.0570069113e+01     1.590054     1.239962  40.38  0.007464409    1.250    0.200
       116 -11.3375     25.4871    126.5318   7.3523956248e+01   4.7236273263e+01    0.2197003    0.2105208  80.56 0.0008292855    1.065    0.061
       117 -11.5531    100.9353     89.3574   3.7451676787e+01   4.5209073361e+01    0.4262659    0.1890817  46.27  0.001491647    2.201    0.546
       118 -13.8871    214.4493     77.4135   1.0016490599e+01   2.1407985249e+01    0.9566368    0.7878776 -76.38  0.005818499    1.335    0.251
       119 -13.7555    188.5284     83.9870   1.5300134653e+01   2.5870077797e+01     1.189034     0.520211  51.24  0.004871821    2.409    0.585
       120 -14.6583    198.5703     70.2214   1.0321857107e+01   2.5786927349e+01     2.536562    0.8564209  45.58   0.00844281    4.209    0.762
       121 -14.2519    164.9043     71.0838   1.5827192989e+01   3.3438193715e+01      1.40493    0.9546573  68.33   0.00651858    1.561    0.359
       122 -14.2570    160.6655     80.8059   1.9389168912e+01   3.2806271823e+01     1.585779    0.6366099  40.68  0.002951895    3.492    0.714
       123 -14.1211    169.3730     76.9296   1.6664971544e+01   3.1398529705e+01    0.8895861    0.5619029  46.00  0.003079062    1.713    0.416
       124 -10.3290     78.6290     86.8779   4.4693798407e+01   5.0397325052e+01    0.2127862    0.1501442 -66.68 0.0004423514    1.625    0.385
       125 -10.8815     34.9344     86.5800   6.3599391245e+01   5.7080921694e+01    0.2610697    0.1877102 -52.85  0.001294824    1.336    0.251
       126 -12.2134    132.3442     85.9106   2.7254371193e+01   3.8668894412e+01    0.2784058    0.2216669  65.94 0.0009219905    1.321    0.243
       127 -11.4074     97.9951     84.1259   3.6837345194e+01   4.7034187083e+01     0.289322    0.2502033 -26.49 0.0009383032    1.289    0.224
       128 -12.6246    242.2888     83.5770   8.1953954250e+00   1.5344021482e+01    0.3669873    0.2279206  64.85  0.002149625    2.012    0.503
       129 -13.0886    237.4048     79.9975   7.9444628260e+00   1.6684536396e+01    0.4022077    0.3134267 -83.86   0.00218174    1.568    0.362
       130 -12.2843     39.5780     67.5729   5.6623341318e+01   6.1461434676e+01     1.304508    0.4190213  23.74  0.004177702    3.513    0.715
       131 -11.7511    235.8900    247.8725   3.8838466730e+01  -4.7362364368e+00     0.171503    0.1023473   2.84  0.001257112    1.267    0.211
       132 -13.9242    170.6437    241.8790   4.9530291909e+01   3.2455128532e+00    0.9071162    0.5177447  19.31  0.005504006    1.434    0.303
       133 -12.8565     51.7397     68.5543   5.0761313404e+01   5.9528070198e+01    0.9563426    0.6202769 -80.67  0.004007048    2.209    0.547
       134 -13.4716     87.3884     65.2383   3.4248823716e+01   5.3496531150e+01    0.7824287    0.5801567  -7.17  0.001782892    1.916    0.478
       135 -13.2232     92.7096     56.8753   2.9220682312e+01   5.3962514117e+01    0.6609601    0.4606405  57.54  0.001736949    1.454    0.312
       136 -13.0197     55.1441     81.0396   5.2866054133e+01   5.5908898908e+01    0.6460209    0.4771636 -32.73  0.002282201    1.510    0.338
       137 -13.9073     61.1533     75.8874   4.8653485622e+01   5.6227816263e+01    0.9340027     0.589678 -41.33  0.001788746    1.682    0.405
       138 -11.9097    114.1192     79.9564   3.0426230626e+01   4.4236536163e+01    0.5061021    0.3600679 -49.62  0.002113764    1.464    0.317
       139 -12.9769    135.2157     79.1752   2.4508196995e+01   3.9285276748e+01    0.8628912    0.4218354  56.16  0.002938715    2.084    0.520
       140 -10.6687     90.0530     81.0118   3.8626766148e+01   4.9458744676e+01    0.2632645    0.1999866  81.90  0.001144578    1.745    0.427
       141 -12.7926    147.6008    238.7965   5.3757994442e+01   6.5961828772e+00    0.4730505    0.2996633  54.11  0.002608185    2.406    0.584
       142 -14.2526      6.2905     63.3418   7.4177583287e+01   6.5338789319e+01    0.8643643    0.5618309  13.43   0.00458071    1.659    0.397
       143 -11.1962     42.5098     79.4748   5.8358473107e+01   5.8066279569e+01    0.3253256     0.249727 -22.12  0.001210411    1.475    0.322
       144 -11.4073     41.7673     75.9757   5.7821365873e+01   5.9059801615e+01    0.3714967    0.2057509 -58.26  0.001610264    1.718    0.418
       145 -11.5270     27.3882     76.2664   6.5138605530e+01   6.0547429840e+01    0.3406434    0.2474384  79.48  0.001179112    1.585    0.369
       146 -11.7137    241.3623     70.5548   5.4890173917e+00   1.7224059178e+01    0.2767243    0.1610407 -61.23  0.001496881    1.970    0.492
       147 -13.0166    135.0257     65.7906   2.0348422146e+01   4.1793416224e+01    0.6661893    0.5277557  28.95  0.001709462    1.515    0.340
       148 -11.9249    100.2884     64.4793   2.9495267518e+01   5.0677036260e+01    0.4579153    0.3710978 -18.54  0.002175694    1.475    0.322
       149 -13.0025     78.9962     60.1543   3.5588195321e+01   5.6394464017e+01    0.8082706    0.5471919 -53.47  0.003626045    1.620    0.383
       150 -11.9850     83.2866     54.3658   3.1662438709e+01   5.6626018133e+01    0.8597299    0.4293948 -23.21   0.00256803    4.133    0.758
       151 -14.0390    177.8450     56.9940   9.7212825267e+00   3.2498460176e+01    0.9248751    0.5941329 -50.26  0.002512512    1.493    0.330
       152 -11.8937     38.8838     59.8149   5.4632927478e+01   6.3460196560e+01    0.5139441    0.3042849  57.77  0.002133631    2.398    0.583
       153 -10.9451     34.5602     60.7542   5.7326662268e+01   6.3758570954e+01    0.3646889    0.2504229 -48.07  0.001766221    1.383    0.277
       154 -12.1709     35.3892     54.8042   5.4961980679e+01   6.5103803224e+01    0.3914894     0.292314 -18.80 0.0008952604    1.458    0.314
       155 -12.0052     24.7816     59.4429   6.2557117437e+01   6.5098868886e+01    0.4792794    0.2538838 -51.43  0.001765734    1.710    0.415
       156 -14.6818    119.7137     54.6717   2.0310506422e+01   4.7649478027e+01     1.251956    0.6727786  50.14  0.001829195    1.786    0.440
       157 -13.0472    136.1071     50.4674   1.5027823731e+01   4.4067249352e+01    0.7029145    0.5322114 -31.17   0.00191856    1.422    0.297
       158 -12.4714    247.7719     53.9306   1.3514902475e+00   1.8167161992e+01    0.5215076     0.271607 -40.23  0.002864821    1.479    0.324
       159 -11.5141    249.2024     48.6103   1.1226151420e-01   1.8551569438e+01    0.2452261     0.208031 -84.88  0.001646433    1.302    0.232
       160 -13.7777     74.6511     73.6333   4.2143425904e+01   5.4306591695e+01     1.731858    0.8800263  20.59  0.005218958    3.823    0.738
       161 -11.1856     17.5615     54.9398   6.5734833447e+01   6.6819603407e+01    0.3330094    0.2193584 -80.66  0.001669598    1.662    0.398
       162 -11.7314    230.9144     54.9269   3.0205749677e+00   2.1190519092e+01    0.3334061    0.1888517  77.74  0.001790155    2.114    0.527
       163 -10.3980     23.5186     49.9720   6.0607050298e+01   6.7545318268e+01    0.1989089    0.1286609 -60.39  0.000417682    1.475    0.322
       164 -10.4111      9.5789     49.2756   6.9465297735e+01   6.8735117485e+01    0.1947956    0.1054343 -56.74 0.0009432739    1.589    0.371
       165 -11.8998    201.6148     46.5827   3.9347251377e+00   2.8402165721e+01    0.2461256    0.1873396 -59.79 0.0008477927    1.195    0.163
       166 -12.7493    154.5360     46.5085   1.0264515721e+01   3.9854686693e+01    0.5580915    0.2671604  61.09   0.00223065    1.986    0.496
       167 -13.4337    158.3292     43.1299   8.5913492428e+00   3.9353397940e+01     0.626672    0.5443007  65.59  0.002039204    1.153    0.133
       168 -11.0449     38.7924     46.2011   4.9816326119e+01   6.6654920272e+01    0.2022406     0.158882 -17.29  0.001061131    1.342    0.255
       169 -12.8602     24.7852    217.1030   7.9906713413e+01   2.5611595186e+01     1.176162    0.2273659  40.23  0.004761838    2.820    0.645
       170 -13.2408      6.1731     43.1370   7.0354608999e+01   7.0410622144e+01     1.191682    0.6002402  -4.21  0.004177838    2.179    0.541
       171 -13.6453     26.6410    225.8819   7.9855420338e+01   2.3677459648e+01    0.7676328    0.4213604 -51.74  0.004193855    2.591    0.614
       172 -13.8885     20.9620    224.5600   8.1101606685e+01   2.4484782423e+01    0.7321675    0.4585043  38.22  0.003680447    1.231    0.188
       173 -12.3602     27.8469    235.4930   7.9985722319e+01   2.1716756996e+01     0.929432    0.5630828   0.96  0.004988345    2.641    0.621
       174 -12.9965    236.7943    229.0167   3.5980996847e+01  -2.8379136056e+00    0.2907063    0.2066597  32.59  0.002140226    1.807    0.447
       175 -13.4807     57.5078    202.4772   7.0870815134e+01   2.5122456657e+01     1.418649    0.6241211 -69.69  0.006516032    2.548    0.608
       176 -13.7774     66.3914    222.7607   7.0333557797e+01   1.9910521108e+01       0.8791    0.5921834  29.50  0.005213813    1.264    0.209
       177 -12.7135    110.1485     41.9397   1.8036884477e+01   5.2211399970e+01    0.5781277    0.2577527  54.51  0.001084804    2.043    0.511
       178 -13.3169    113.6141     38.0318   1.5613948556e+01   5.1893367145e+01    0.5194181    0.3770669  79.41  0.001640629    1.468    0.319
       179 -12.7166     59.4706    212.8403   7.1222786366e+01   2.2718862437e+01    0.4217732    0.2632524  -4.38   0.00111794    2.662    0.624
       180 -12.8569     46.1268     33.1903   3.9630674682e+01   6.8236777705e+01    0.8848766    0.5349358  31.28  0.004187047    1.638    0.389
       181 -11.2598    248.8744    224.8786   3.3490140384e+01  -3.6368528041e+00    0.1720826    0.1069684   0.17  0.001255466    1.234    0.190
       182 -12.1646     40.5827     40.3326   4.6286453065e+01   6.7680115219e+01    0.5462166    0.3018216  34.80  0.002491271    1.775    0.437
       183 -12.9592     32.8315     40.1150   5.1038365529e+01   6.8805402904e+01    0.5982288    0.3912642 -28.55 0.0007964451    1.642    0.391
       184 -13.1520     74.5796     36.9065   2.7559815967e+01   6.1810302286e+01     0.760587    0.3520382  53.32  0.001931164    2.150    0.535
       185 -13.8312     64.0602    214.5240   7.0228208911e+01   2.1821515910e+01    0.5654311     0.394543  28.83  0.002578762    1.264    0.209
       186 -11.6734    104.6782     36.7159   1.7407688242e+01   5.4432068691e+01     0.342178     0.187747 -32.55  0.001427937    1.964    0.491
       187 -12.9003    140.4126     21.2595   4.1267736960e+00   4.6854049011e+01    0.7228314    0.3575315  70.26  0.001383518    1.844    0.458
       188 -12.8748     94.3128    218.3945   6.3256308941e+01   1.7159319588e+01    0.3598059    0.2527986  29.71  0.001339596    1.178    0.151
       189 -10.7876     98.2851     27.0279   1.5017241432e+01   5.7468482959e+01    0.2846748    0.1957221  60.65 0.0009539215    1.327    0.246
       190 -12.1817     30.7560     25.3553   4.5488794175e+01   7.2168416632e+01    0.4718018    0.2884465  10.11  0.001798549    1.955    0.488
       191 -11.3351     35.9585     23.1973   4.0677696211e+01   7.1804883295e+01    0.3393084    0.2333143 -31.14  0.001596737    1.475    0.322
       192 -10.7380      5.5929    219.2518   8.4435718802e+01   2.6916075669e+01    0.1448853    0.1010729 -78.26 0.0008944004    1.627    0.385
       193 -12.0093     48.3801     19.9425   3.1082212627e+01   7.0163696756e+01    0.7299305    0.2487813  47.02  0.002656653    2.843    0.648
       194 -10.7542     60.4418     18.4954   2.4102600799e+01   6.7864865838e+01    0.2452228    0.2123669  12.70 0.0005385725    1.165    0.142
       195 -11.6439     85.6427    215.4859   6.5040230838e+01   1.8874551716e+01    0.2761926    0.1816981  45.70  0.001501499    1.315    0.240
       196 -10.5520    248.6754     18.3019   3.5377108391e+02   2.2050882987e+01    0.1239685   0.06176228 -55.79 0.0003721013    1.637    0.389
       197 -12.1797      5.1344    209.8508   8.4293735048e+01   2.8871987341e+01    0.2945805     0.201823 -35.45  0.001750342    2.241    0.554
       198 -12.7492     72.3344    206.8469   6.7482931335e+01   2.2348686925e+01    0.3261986     0.285402  66.01  0.002078141    1.183    0.154
       199 -10.9456    136.5069    210.9779   5.2496562628e+01   1.2538420007e+01    0.1736329    0.1312732 -46.52  0.001030244    1.584    0.369
       200 -11.1935     39.7151    210.5864   7.5951784895e+01   2.5432807558e+01    0.3934664    0.1368462  35.10   0.00176628    2.086    0.521
       201 -12.5259     46.7160    208.8943   7.4101225725e+01   2.5018591768e+01    0.5082235    0.2108153  64.53  0.002131143    2.871    0.652
       202 -11.1681     80.4765    208.3062   6.5582380290e+01   2.0983453878e+01    0.2484666      0.12311  45.83  0.001069425    1.763    0.433
       203 -11.6881     13.5990    205.6137   8.2129518136e+01   2.9040359651e+01    0.3081291    0.1493986 -53.82  0.001493951    2.802    0.643
       204 -13.4891     16.1974    197.2746   8.1155327484e+01   3.0613232879e+01    0.9637471    0.3530753 -52.90  0.003858527    3.944    0.746
       205 -10.8766    151.0048    206.2072   4.8581913933e+01   1.1223733334e+01    0.2219931    0.1333485   8.87  0.001079361    1.997    0.499
       206 -14.2436     30.1578    168.9353   7.5723742419e+01   3.5891666762e+01     1.216331    0.7673998  26.16  0.004469989    1.539    0.350
       207 -13.9168     22.2808    180.9877   7.8750376171e+01   3.3759651134e+01    0.8857073    0.4896227 -57.19  0.004056333    2.105    0.525
       208 -15.3080      7.9284    183.2708   8.2745601723e+01   3.4460820039e+01     1.422937     1.078156  88.58  0.008969629    1.283    0.220
       209 -15.3017     15.5813    175.0593   8.0296348506e+01   3.5751149848e+01     2.519097    0.9369408  58.09   0.01061055    2.455    0.593
       210 -13.0655    131.3804     33.4274   9.9999885984e+00   4.7791883791e+01    0.5171242    0.4902406 -37.67  0.001679177    1.157    0.136
