#   1 NUMBER                 Running object number                                     
#   2 MAG_AUTO               Kron-like elliptical aperture magnitude                    [mag]
#   3 X_IMAGE                Object position along x                                    [pixel]
#   4 Y_IMAGE                Object position along y                                    [pixel]
#   5 X_WORLD                Barycenter position along world x axis                     [deg]
#   6 Y_WORLD                Barycenter position along world y axis                     [deg]
#   7 A_WORLD                Profile RMS along major axis (world units)                 [deg]
#   8 B_WORLD                Profile RMS along minor axis (world units)                 [deg]
#   9 THETA_WORLD            Position angle (CCW/world-x)                               [deg]
#  10 FWHM_WORLD             FWHM assuming a gaussian core                              [deg]
#  11 ELONGATION             A_IMAGE/B_IMAGE                                           
#  12 ELLIPTICITY            1 - B_IMAGE/A_IMAGE                                       
         1 -11.1501     14.7765     39.5203   9.0960666443e+01   6.7527234543e+01    0.7527934    0.5981672 -61.95  0.004463522    1.670    0.401
         2 -11.6898     24.2269     56.0950   9.1866405269e+01   6.3534551948e+01     1.369789    0.3251738 -51.91   0.00368352    3.352    0.702
         3 -11.2097    104.0682     39.7497   5.5426535820e+01   5.3269339448e+01    0.7091141    0.3083966 -39.52 0.0007115538    2.523    0.604
         4 -12.5116    107.7227     29.0518   5.0697176170e+01   5.3791927196e+01    0.4325532     0.360885   2.78  0.002591315    1.319    0.242
         5 -12.6428    105.1318     20.7519   4.8357765745e+01   5.5278488335e+01    0.3011175    0.2537421  58.39 0.0004304079    1.114    0.102
         6 -12.1041    116.9079     33.3238   4.9997902909e+01   5.1205857314e+01    0.4167747    0.3012777  21.79  0.000448472    1.623    0.384
         7 -11.2899      4.8811     36.2740   9.5067544652e+01   6.8841972857e+01     0.640434    0.3567567 -29.00  0.003785862    1.489    0.328
         8 -10.3765    141.3786     33.0300   4.4886531065e+01   4.5520995561e+01    0.5491459    0.3374515  30.76  0.001610819    2.171    0.539
         9 -11.0492     79.0673     30.6981   5.9455336854e+01   5.9657673781e+01    0.6902135    0.5014514  72.93  0.002871579    2.121    0.528
        10 -10.8074     49.8464     22.6700   6.6959682571e+01   6.5911985549e+01    0.5550043    0.3149358  13.57  0.001273295    2.073    0.518
        11  -9.8189     30.7638     12.4272   7.0923479627e+01   7.0024526118e+01    0.3217215    0.2224572  20.89  0.001173292    1.229    0.187
        12 -11.0347     28.8265     29.7397   7.9889268689e+01   6.7815615966e+01    0.9937502     0.475232 -16.57  0.001833253    2.963    0.663
        13  -9.2891     26.7536     21.4884   7.7305184717e+01   6.9310304590e+01    0.3970804    0.2032001 -21.69  0.002074691    2.031    0.508
        14 -10.0418     31.7996     19.8604   7.3984628771e+01   6.8910894664e+01    0.6846091    0.2947169  20.74  0.003059285    2.807    0.644
        15 -11.2850     42.0673     15.7785   6.7173228160e+01   6.7987632327e+01    0.4260008    0.2068684  26.56  0.001326678    2.035    0.509
        16 -11.0809     19.1271     28.6417   8.4464686392e+01   6.9031241231e+01    0.3197016    0.2020702 -44.88 0.0005901884    1.623    0.384
        17 -10.4202    173.5028     23.3723   3.7291017824e+01   3.9053814269e+01    0.4976594    0.3300475 -69.44  0.002754393    1.557    0.358
        18 -10.3627    131.5933     21.8879   4.3240520286e+01   4.9077504921e+01    0.4228297    0.2686156   0.71  0.002094439    2.302    0.566
        19  -9.1570     75.5261     12.4381   5.3080409697e+01   6.2392086105e+01    0.2846958    0.1870451  -1.44  0.001621503    1.710    0.415
        20  -9.1771     78.6260     11.5156   5.1762866785e+01   6.1853972261e+01    0.1990312    0.1669353  -7.94 0.0005716419    1.278    0.217
        21  -9.9020     70.2243     19.7738   5.7910727780e+01   6.2669950978e+01    0.4542821    0.2107935 -33.87  0.001600573    2.364    0.577
        22 -11.9073     62.1238     17.1234   5.9618651047e+01   6.4472980251e+01     0.545233    0.2657809  35.03 0.0003091378    1.867    0.464
        23 -10.4990     69.8366     11.3146   5.4394217701e+01   6.3621442769e+01    0.2452426    0.1811093  38.65 0.0002517549    1.128    0.114
        24 -10.7394    211.2325     14.5880   3.1300065894e+01   3.1590450025e+01    0.5302045    0.2179318 -33.19    0.0022162    2.509    0.601
        25 -10.9002    218.7005     18.9621   3.1592210398e+01   2.9527807439e+01    0.6267025    0.3900107 -46.19  0.002279393    1.457    0.313
        26 -10.3226    225.3201     18.2654   3.0905825354e+01   2.8238865549e+01    0.3370379    0.2071619 -31.00  0.001024627    1.876    0.467
        27  -9.7335    215.2048      7.6161   2.9511117418e+01   3.1494978150e+01    0.2534267    0.1869223  57.60  0.001104636    1.615    0.381
        28 -10.4352    217.5198      3.3016   2.8454375217e+01   3.1455730775e+01     0.447178    0.2341005 -35.59  0.002357775    1.950    0.487
        29 -11.6402    177.6877      3.0171   3.1734068431e+01   4.0149544138e+01    0.5388798    0.1914556  59.23  0.001082317    2.492    0.599
        30 -11.0151    175.9311     13.1690   3.4416695261e+01   3.9574789272e+01    0.9492387    0.3367745  72.23  0.002486505    2.560    0.609
        31 -10.8289    182.2724     18.4275   3.5008326635e+01   3.7574665893e+01    0.3622966    0.2356378  49.70 0.0005506031    1.739    0.425
        32  -9.7798    184.8376     13.4603   3.3528562340e+01   3.7514922464e+01    0.3327163    0.1475693 -52.11   0.00159422    2.265    0.558
        33  -9.2536    144.1161     17.9210   3.9917260310e+01   4.6533487265e+01    0.4020771    0.1760539 -28.72  0.001838592    2.544    0.607
        34 -10.4150    150.1026     17.4901   3.8885567253e+01   4.5165077968e+01     0.440161    0.2397276  81.05  0.001759213    1.930    0.482
        35  -9.0259    148.4867     12.5155   3.7699674476e+01   4.6030749935e+01    0.1998979    0.1822685 -43.69 0.0006514467    1.241    0.194
        36  -9.7010    144.9502     12.5447   3.8218818204e+01   4.6858947729e+01    0.2869515    0.2285381  40.71  0.001064498    1.369    0.270
        37  -9.1477     20.2015     17.9932   7.9176989043e+01   7.0565838651e+01     0.288017    0.2015124 -43.42   0.00184541    1.738    0.425
        38 -10.8135    231.3380     14.9350   2.9777599309e+01   2.7397771035e+01    0.4931494    0.1968371 -54.89     0.002092    2.180    0.541
        39 -11.1694    236.8644      5.7616   2.7626320360e+01   2.7306049772e+01    0.5627454    0.3793961 -38.64  0.003845259    1.553    0.356
        40  99.0000    127.0000     18.0120   4.2851661005e+01   5.0545425042e+01    0.5031999    0.4565388  15.44  0.002893294    1.247    0.198
        41 -10.0674    127.6525      1.5662   3.7516417869e+01   5.1836008418e+01     0.419132    0.1767233  46.62  0.001026839    2.269    0.559
        42 -11.1379    133.0813     12.4804   4.0046312159e+01   4.9650182270e+01    0.2851326    0.2440657  50.74 0.0003118668    1.134    0.118
        43  -9.2549    128.2701     11.3409   4.0497152395e+01   5.0877235410e+01    0.2132578     0.171045  22.81 0.0002927732    1.448    0.310
        44  -9.4499    126.9998      8.2231   3.9722897213e+01   5.1445985565e+01    0.2747146    0.1745873  79.69 0.0003087373    1.579    0.367
        45 -11.0066    166.1286     18.1419   3.6866236062e+01   4.1335001333e+01    0.3230755    0.2941734  13.03  0.001193563    1.408    0.290
        46 -11.4803     14.2217     11.2208   7.9286078069e+01   7.2161843857e+01     0.347961    0.2544759   8.42 0.0004070493    1.168    0.144
        47 -10.1988      5.5436     16.4655   8.6916456461e+01   7.2184981514e+01    0.2874717    0.2329679  17.39  0.002111436    1.459    0.315
        48 -10.1671      9.1453     14.8451   8.4019236980e+01   7.2128171025e+01    0.2491786     0.152202   3.91 0.0003622266    1.463    0.317
        49 -10.1859     14.8641      4.4065   7.5403066756e+01   7.2991892965e+01    0.2898081     0.157059 -31.12 0.0006064993    1.717    0.418
        50  -9.9704     18.1898      1.8486   7.2107594739e+01   7.2913104245e+01    0.2271528    0.1521437   8.57 0.0007353826    1.197    0.164
        51 -11.0224     24.9890      6.9686   7.1123863738e+01   7.1455205020e+01    0.2168425    0.1776414  -8.49 0.0003417711    1.236    0.191
        52 -10.6967     20.9960      6.1913   7.2871688091e+01   7.2052054321e+01    0.2668003    0.1829816  -5.73  0.001020065    1.206    0.171
        53  -9.5635    116.8969     15.2108   4.3866268716e+01   5.3155352263e+01    0.2787349    0.2053002  28.55  0.001194283    1.480    0.324
        54  -9.2441     51.8157     13.4456   6.1904904311e+01   6.6688479834e+01    0.3625832    0.1289091 -38.37  0.001539917    3.487    0.713
        55 -10.1915    242.9665     14.6795   2.8906434864e+01   2.5145015096e+01    0.1907611    0.1338487 -53.52 0.0006007745    1.200    0.167
        56  -9.4891    101.6315     11.2864   4.5726937990e+01   5.6964733831e+01    0.2560888    0.1661925  70.01 0.0009398732    1.582    0.368
        57 -10.6994     97.2284     12.4721   4.7194278307e+01   5.7829043751e+01    0.4837472    0.3419267 -16.60 0.0005957055    1.611    0.379
        58  -9.7648     93.9730      8.4934   4.6467082110e+01   5.8889046782e+01    0.4271428    0.1669543  63.72  0.001765071    2.532    0.605
        59  -9.9431    202.0605      7.7917   3.0608845180e+01   3.4277707007e+01    0.4117355    0.1952187 -73.10  0.001873882    2.278    0.561
        60 -10.4962    191.4215      9.0521   3.1842011624e+01   3.6486645690e+01    0.5428503    0.2460226 -33.61  0.002784372    2.284    0.562
        61 -10.6979    195.7153      3.5370   3.0206809712e+01   3.6081803364e+01    0.3890589    0.2441762  84.12  0.001092424    1.365    0.267
        62  -8.9071    224.1060      9.6929   2.9267152236e+01   2.9435156754e+01    0.2802823     0.111035 -43.76   0.00146452    2.125    0.529
        63  -9.9119    166.2340      9.4817   3.4585401087e+01   4.2172661946e+01    0.2791152    0.2157836 -45.16  0.001721329    1.372    0.271
        64  -9.1333     56.0205     10.5916   5.8924355789e+01   6.6261949663e+01    0.2139656     0.142779   1.84 0.0007581465    1.528    0.345
        65 -10.6032      6.7559      9.0680   8.2689793500e+01   7.3186598109e+01    0.2604903    0.1750168 -17.10  0.001057688    1.157    0.135
        66  -8.7585     86.4493      9.5857   4.8792747000e+01   6.0406213273e+01    0.1792069    0.1364836   5.82 5.853901e-05    1.411    0.291
        67  -9.3106     87.6577      6.4029   4.7211881475e+01   6.0421838002e+01    0.2542335    0.1513352  56.30  0.001097127    1.437    0.304
        68  -8.8661      1.2857      9.5791   8.6368386796e+01   7.3569593006e+01     0.180985   0.08220024 -42.62 0.0008599097    1.957    0.489
        69 -10.1617    152.8783      5.9553   3.5268282322e+01   4.5600591743e+01    0.3576403    0.2110865  29.46   0.00129168    2.477    0.596
        70  -8.8073    120.1049      8.8394   4.1125462926e+01   5.2989163434e+01    0.1860144    0.1617884 -78.02 0.0005500925    1.272    0.214
        71 -10.3059    183.1142      7.1765   3.2200470864e+01   3.8532021244e+01    0.2009224    0.1980036  16.85 0.0003409216    1.340    0.254
        72  -9.3053     69.7968      2.2029   5.0406435508e+01   6.4432834882e+01    0.1909195    0.1455096  32.54 0.0005971254    1.082    0.076
        73  -9.0968     47.4977      7.9159   6.1024904007e+01   6.8001380990e+01    0.2960978    0.1025116  34.68  0.001262351    2.803    0.643
        74  -8.8553    108.9502      1.1709   4.0585739907e+01   5.6146530749e+01    0.1903177    0.1067827  64.06 0.0004053478    1.497    0.332
        75 -10.0774    106.9193      6.2895   4.2786141091e+01   5.6206788187e+01    0.3333903     0.260587 -57.44  0.001065146    1.581    0.368
        76  -8.3724    103.6699      7.2913   4.3822577108e+01   5.6853093476e+01    0.1724442    0.1217623  75.57 0.0006134995    1.493    0.330
        77  -9.4782     62.2829      6.3013   5.4677976528e+01   6.5531656451e+01    0.2999684    0.2034472  64.52  0.001503258    1.927    0.481
        78  -8.5730     65.5205      4.4130   5.2737230663e+01   6.5083231981e+01     0.199158    0.1275161  32.40 8.049854e-05    1.332    0.249
        79 -11.6122    160.8136      2.7926   3.3461784398e+01   4.4033786722e+01    0.4294835    0.2826559  68.62 0.0009366072    1.289    0.224
        80 -10.2418    248.0001      4.7650   2.6759636626e+01   2.5278911244e+01    0.2089283    0.1356924  82.05 0.0002159531    1.433    0.302
        81 -10.8380    249.9775      1.4258   2.6047883404e+01   2.5263083950e+01    0.1953773    0.1489571 -81.23 0.0003099374    1.143    0.125
        82 -10.9418    208.7030      3.7922   2.9210862740e+01   3.3255245698e+01    0.3979365    0.2684321 -77.67  0.001275735    1.244    0.196
        83  -9.7483     37.4682      3.8806   6.3358301322e+01   7.0024324283e+01    0.2767171    0.2251555  46.16  0.001263666    1.606    0.377
        84 -10.5668     30.9279      2.9468   6.5971383054e+01   7.1097190468e+01    0.2539723    0.1867937 -40.61  0.001109586    2.006    0.501
        85  -8.0094    140.2664      4.2953   3.6481628232e+01   4.8685377603e+01    0.1205482   0.08334962  43.60  0.000251848    1.512    0.338
        86  -9.3943     81.9585      2.4354   4.7078151970e+01   6.1940598234e+01    0.4732547    0.1385976  38.51  0.001731977    3.708    0.730
        87 -10.5994     91.2318      2.2136   4.4695126494e+01   5.9987429092e+01    0.2859448     0.202987  77.64  0.001154236    1.617    0.382
        88  -8.6069    143.7655      2.0219   3.5343514377e+01   4.8056783130e+01    0.1928534    0.1115017  50.20  0.001050448    1.660    0.398
        89  -9.5379    135.5050      1.6163   3.6362079843e+01   5.0010895267e+01    0.2234551    0.1412783  70.96  0.001279789    1.337    0.252
        90 -10.3009    115.7028      1.9143   3.9607210227e+01   5.4557709804e+01    0.2114958    0.1509528  62.28 0.0002950384    1.162    0.140
        91  -9.0060     50.5970      1.6855   5.6731584147e+01   6.8066054048e+01    0.2968878    0.1177389  40.62  0.001471302    2.049    0.512
        92  -8.4222      3.2523      2.0539   8.1298674961e+01   7.4469710734e+01     0.130818    0.0763327 -30.71 0.0005483337    1.474    0.321
        93  -8.2980    103.0311      1.1962   4.1749786515e+01   5.7472506045e+01    0.1498702   0.08166336  61.31            0    1.517    0.341
        94 -11.2516     74.1272      4.6523   5.0181981245e+01   6.3369295763e+01    0.5132094     0.287246 -10.78   0.00280234    2.069    0.517
        95 -10.8442     47.5570    114.8707   9.7498376141e+01   4.7714815124e+01    0.4568855    0.3625799 -55.30  0.001703043    1.127    0.112
        96  -9.6148    201.5021    249.6619   8.2395609970e+01  -6.1979757028e+00    0.2252791    0.1563167  17.66 0.0006669394    1.221    0.181
        97  -8.9670     93.7517    118.9795   8.3089456936e+01   3.9908242107e+01    0.2618592    0.2156748  13.49 0.0009047851    1.349    0.259
        98 -10.3425      3.9452    116.8813   1.1271520751e+02   5.0837929338e+01    0.3753667    0.2952123 -42.66  0.001569245    1.250    0.200
        99  -9.5847     70.0051    116.5804   9.0206471440e+01   4.4354849226e+01    0.3511941    0.2593605 -23.01  0.001394953    1.546    0.353
       100  -8.7391    103.8597    119.1968   8.0043224354e+01   3.8010342076e+01    0.2124728    0.1830835  -3.45 0.0002800949    1.292    0.226
       101  -8.9448     80.0419    116.2438   8.6800977183e+01   4.2894808096e+01    0.2119312    0.2005951 -18.13  0.001093619    1.056    0.053
       102  -9.2879    129.9095    113.7879   7.1201609715e+01   3.4039539112e+01    0.2317094    0.2114308   2.97 0.0003058965    1.175    0.149
       103 -10.5350     62.5430    111.4225   9.1536249749e+01   4.6693996505e+01    0.4695444    0.2262011 -41.97 0.0007199642    2.082    0.520
       104  -9.1421     53.1289    113.1532   9.5195272281e+01   4.7486305278e+01    0.2153324    0.1837998 -28.38 0.0004791478    1.173    0.147
       105  -9.2222     75.9840    112.0119   8.7103885175e+01   4.4574934707e+01     0.220742    0.2075319 -42.92            0    1.027    0.026
       106  -9.3338      8.2837    106.0262   1.0970635514e+02   5.3282698201e+01    0.3428643    0.1383843 -55.59  0.001220314    1.882    0.469
       107 -10.5191      3.9871    109.6794   1.1173162590e+02   5.2620363112e+01    0.4663098    0.3032108  55.60  0.002555982    1.891    0.471
       108  -9.4985      3.2394    103.5248   1.1110726386e+02   5.4168823628e+01    0.3856351    0.1622006 -66.05  0.001797133    1.851    0.460
       109  -9.5112     40.9074    110.7317   9.8972711804e+01   4.9480779100e+01    0.2480049    0.1761877 -54.20 0.0005894458    1.227    0.185
       110  -8.6611     77.1514    108.4185   8.5807945400e+01   4.5261327515e+01    0.2043341    0.1394439  45.99 0.0003086233    1.638    0.389
       111 -10.0045     57.8971    108.0265   9.2358535287e+01   4.8153352905e+01    0.2145376    0.2040529 -13.13 0.0002716241    1.083    0.077
       112  -9.5949     53.0014    107.9697   9.4077635977e+01   4.8789621088e+01    0.2252214    0.1918555 -40.21 0.0003994779    1.076    0.070
       113 -10.5685     51.6006    101.1051   9.2967504445e+01   5.0637097419e+01     0.507127    0.3477994  39.56 0.0009029196    1.638    0.390
       114 -10.0964     33.8194    103.1989   9.9969577930e+01   5.2052630305e+01    0.3798898    0.2086049 -57.64  0.001806129    1.554    0.357
       115  -9.1685     39.5028    102.5281   9.7736668457e+01   5.1656122871e+01    0.2576978    0.1924428 -37.68 0.0006606214    1.247    0.198
       116 -10.1626     40.6816     98.7391   9.6448642014e+01   5.2454163993e+01     0.567453     0.355051  26.59  0.002834734    1.743    0.426
       117  -9.2679     91.2223    105.6217   8.0430596170e+01   4.3540761285e+01    0.4595537    0.2773341 -68.55  0.001520361    2.451    0.592
       118 -10.2986     71.0593    103.8250   8.6708727025e+01   4.7309825797e+01    0.2585833    0.2165665  27.09 0.0006832964    1.252    0.201
       119  -9.0005     29.8363    107.1988   1.0222067132e+02   5.1427580048e+01    0.1977332    0.1423519 -36.73 0.0007817234    1.336    0.252
       120  -8.2076     43.3112    106.6468   9.7250035392e+01   5.0240151698e+01    0.1418807    0.1079229  74.54 0.0007044588    1.726    0.421
       121 -10.4351     65.2109    102.7166   8.8471751075e+01   4.8438478563e+01    0.5301223    0.2913799 -22.35  0.001953544    2.843    0.648
       122  -9.6979    132.1549    104.0288   6.7980158090e+01   3.5690123446e+01    0.2423331     0.220723  42.63  0.000243855    1.112    0.101
       123  -9.6050    108.1240    103.9838   7.4724678541e+01   4.0715131325e+01    0.2320707    0.2065017 -68.98 0.0005613661    1.256    0.204
       124 -10.9859    101.7198    102.3633   7.6222021354e+01   4.2333443267e+01    0.4563009    0.4288788  -0.10 0.0009165722    1.065    0.061
       125  -9.9896    118.9628    103.0250   7.1303424410e+01   3.8716803833e+01     0.246502    0.2226392  33.80            0    1.120    0.107
       126  -9.5022    127.2223    102.0391   6.8746368923e+01   3.7179470093e+01    0.2522756    0.2197712  37.09 0.0004178019    1.165    0.142
       127  -9.1326     85.0633    102.0263   8.1470780951e+01   4.5458887358e+01    0.2538672    0.2152758  27.13 0.0006247085    1.214    0.176
       128 -10.4226     79.3281    100.5608   8.2999833341e+01   4.6767292642e+01    0.4537425    0.4306253 -80.99  0.002505397    1.200    0.166
       129 -10.2727    111.4841     99.5107   7.2475545604e+01   4.1026882056e+01     0.339956    0.2975638 -75.11   0.00171237    1.338    0.253
       130  -9.7725     71.7238     99.7785   8.5413027687e+01   4.8164638379e+01    0.3096754    0.2057136  42.23   0.00144425    1.649    0.393
       131  -8.9298     59.5777    100.5166   8.9924244260e+01   4.9749725900e+01    0.1443205    0.1332767 -44.62 -9.740052e-05    1.060    0.056
       132 -10.2066     37.2202    106.0019   9.9313689072e+01   5.1032667453e+01    0.4337845    0.2192549 -49.05  0.001962795    1.701    0.412
       133  -9.5381     59.1815     97.0559   8.9180349811e+01   5.0624508213e+01    0.2208211    0.1729206 -28.70 0.0002702808    1.252    0.201
       134 -10.1253     18.0318     99.1672   1.0501323357e+02   5.4338848946e+01    0.5109568     0.279395   6.81  0.002501257    2.220    0.550
       135 -10.9668     44.7091     90.0536   9.2810095991e+01   5.4073538148e+01    0.8535398    0.4590979  47.97  0.003150866    2.584    0.613
       136  -9.8312     23.0247     94.6102   1.0223778530e+02   5.5070066463e+01    0.3372338    0.1947518 -62.62 0.0009829964    1.522    0.343
       137 -11.3720     49.5565     82.8345   8.8984682127e+01   5.5143638822e+01     1.173004    0.4536159  41.25  0.004372316    3.180    0.685
       138 -10.8179     31.9466     93.3030   9.8526568431e+01   5.4623097033e+01    0.5595486    0.3730217 -42.06  0.002082616    1.319    0.242
       139 -10.7806     28.0094     86.1404   9.8421236272e+01   5.6663584386e+01    0.8306782    0.4179194 -30.02  0.003703188    2.187    0.543
       140 -13.1233     52.8858     74.5749   8.5244311695e+01   5.6513235165e+01    0.7350065    0.3997684 -59.32  0.001120457    2.218    0.549
       141 -11.3713     45.2184     68.7449   8.6571364993e+01   5.8717933419e+01    0.3328846    0.2242206 -32.45 0.0002189911    1.361    0.265
       142 -11.6106    117.6414     97.9675   7.0257226132e+01   4.0085210652e+01    0.2858464    0.2715526  31.10 0.0003072681    1.056    0.053
       143 -10.4319      7.2679     98.2070   1.0882542923e+02   5.5247941464e+01    0.7424864    0.3529595  -7.28  0.003380239    2.795    0.642
       144  -9.1761      6.5320     94.4956   1.0847644388e+02   5.6182031153e+01     0.421158    0.1964773  11.29  0.002022784    2.553    0.608
       145 -10.3707      2.3019     80.0452   1.0753124379e+02   5.9791745585e+01    0.3961175    0.2284919 -64.83  0.002186868    1.463    0.316
       146  -9.5207      2.0387     92.2965   1.0979728630e+02   5.6934761255e+01    0.2209665    0.1751451 -82.29 0.0003760025    1.302    0.232
       147 -10.3103      2.2546     86.5255   1.0873393828e+02   5.8288333524e+01     0.523811     0.149762 -61.17  0.002171366    2.418    0.586
       148  -9.3568    149.9509     97.0548   6.1658050882e+01   3.3182279524e+01    0.2236828    0.2207358 -47.29 0.0003171954    1.012    0.012
       149  -9.4989    125.9527     96.8334   6.7630619543e+01   3.8552233249e+01    0.2815268    0.2246348 -42.88  0.001082061    1.245    0.197
       150  -9.4019    107.3580     96.1130   7.2732755333e+01   4.2600009824e+01    0.3120963    0.1893675 -45.42  0.001333415    1.632    0.387
       151  -9.1209    105.2214     91.8608   7.2141532516e+01   4.3938863220e+01    0.3702667    0.3299988 -59.93  0.001416091    1.230    0.187
       152  -9.2753     86.8488     96.1940   7.9253905521e+01   4.6477493216e+01     0.254746     0.244603  -2.18  0.000645628    1.039    0.037
       153  -8.4775    184.3232     96.7010   5.4397133735e+01   2.5532837132e+01    0.1497118    0.1113322 -75.21 0.0002852034    1.627    0.385
       154  -8.9777    154.5076     95.9893   6.0325029617e+01   3.2362916096e+01    0.2392456    0.2008892  50.46 0.0005742714    1.211    0.174
       155  -8.5146    165.5022     94.4689   5.7532940183e+01   3.0164930379e+01    0.1491794    0.1434856 -64.67 9.546272e-06    1.007    0.007
       156  -8.9339     52.5533     90.4002   8.9896314217e+01   5.3047920990e+01    0.2481103    0.1335252 -57.67 0.0006608964    1.849    0.459
       157 -10.5449     86.6319     88.7162   7.7152731984e+01   4.8163036356e+01    0.4134582    0.3538622  -3.12  0.001024258    1.213    0.175
       158  -9.5766     86.8731     83.6284   7.5535109752e+01   4.9199565806e+01    0.2575313    0.2280879 -50.92 0.0003616479    1.211    0.175
       159 -10.2355     71.1573     88.5650   8.2491388798e+01   5.0813316483e+01    0.4852681    0.2604859 -55.67 0.0005452311    2.014    0.504
       160 -10.1010     66.0610     85.6998   8.3514402254e+01   5.2233350426e+01    0.3953959    0.3075096   1.47  0.001223325    1.389    0.280
       161 -10.5200     73.0298     79.4620   7.9083077269e+01   5.2476494355e+01     0.461744    0.3900207  24.59   0.00153675    1.187    0.157
       162 -11.1440     80.8580     83.5508   7.7566385465e+01   5.0289697032e+01    0.3531906    0.2732472 -14.23  0.001774114    1.408    0.290
       163  -9.4880     74.7788     83.9850   7.9838174626e+01   5.1229109116e+01    0.4093367    0.2131404  27.41  0.001471292    2.159    0.537
       164  -9.3415     17.6757     89.2723   1.0321268630e+02   5.6738969486e+01    0.4046961    0.2183889 -78.77  0.001843387    2.288    0.563
       165  -9.8016     13.7556     88.5882   1.0461372776e+02   5.7163719590e+01    0.2851998    0.1863016 -43.84 0.0009507988    1.290    0.225
       166 -10.3916      7.1381     89.2927   1.0732978232e+02   5.7388697145e+01    0.3005149    0.2059649  32.22 0.0009909107    1.761    0.432
       167 -10.7139    123.2977     87.1860   6.5563075603e+01   4.1093432240e+01    0.4365559    0.3124598 -34.53 0.0009537003    1.441    0.306
       168 -10.6179    119.4087     84.2893   6.5767563882e+01   4.2511630531e+01    0.4326709    0.2868528  39.65  0.001963705    1.524    0.344
       169  -9.9182    128.4314     85.6772   6.3753725678e+01   4.0257676803e+01    0.4505166    0.3232724  10.74  0.001488359    1.978    0.494
       170  -9.4225    132.5711     82.5111   6.1762772866e+01   3.9937106377e+01    0.2637325    0.2139651 -39.59 0.0005370014    1.245    0.197
       171 -10.2934    155.2539     85.1101   5.7195171521e+01   3.4262228154e+01    0.2883846    0.2670573  10.23 0.0002902324    1.211    0.175
       172 -11.8134    135.2718     64.7547   5.5805685865e+01   4.2458169710e+01      1.18416    0.5697299  36.13  0.004319129    2.811    0.644
       173 -10.3186    145.2637     74.7390   5.6476320887e+01   3.8440602072e+01    0.3904421    0.2915123 -37.72 0.0009441573    1.368    0.269
       174  -9.2974    145.9903     70.5090   5.5092294643e+01   3.9000332610e+01     0.365916     0.205126  56.24  0.001500709    1.765    0.434
       175 -10.2550    140.8008     68.3538   5.5616076180e+01   4.0574441163e+01    0.2941417    0.2405248  56.75 0.0003034553    1.191    0.161
       176  -9.9845    143.7091     66.3305   5.4373045892e+01   4.0231909541e+01    0.3145844    0.2334721 -48.99 0.0008378062    1.406    0.289
       177  -8.9104    104.6971     85.1209   7.0286851482e+01   4.5443207368e+01    0.2466782    0.1700993 -13.70  0.001058826    1.939    0.484
       178  -8.8713    143.6449     84.3091   5.9589630684e+01   3.7079579436e+01    0.1562576    0.1189654 -83.47 0.0007043048    1.726    0.421
       179  -9.1245    140.5973     82.2579   5.9722933351e+01   3.8159901617e+01    0.2096147    0.1445918 -27.84 0.0003874086    1.634    0.388
       180  -8.8847     12.8050     78.1910   1.0282075216e+02   5.9638291641e+01    0.2223795    0.1161816 -37.74 0.0009461708    1.692    0.409
       181  -9.9744     19.0213     80.7872   1.0082794524e+02   5.8620374880e+01    0.3964012    0.3482263  19.99  0.002552157    1.323    0.244
       182  -9.0699     18.4177     76.3498   1.0004101610e+02   5.9673691234e+01    0.2813581    0.1384819 -59.13 0.0006735769    1.757    0.431
       183  -8.6577     18.1086     71.9035   9.9084376853e+01   6.0689229922e+01    0.2869637    0.1620932 -42.58  0.001000988    1.457    0.314
       184  -9.3882     37.4706     81.0169   9.3317546761e+01   5.6934226020e+01    0.3113778     0.198706  18.31 0.0004062253    1.690    0.408
       185  -9.3481    123.6855     79.5372   6.3178419023e+01   4.2486473851e+01    0.2615999    0.2239442  82.04  0.001082119    1.389    0.280
       186  -9.6897     87.0097     68.0754   7.0504631276e+01   5.2250727933e+01    0.2693826    0.2172636  26.99 0.0003227353    1.207    0.172
       187  -9.7397     83.5040     65.1496   7.0707342035e+01   5.3450876220e+01    0.5645813    0.2386852 -45.02  0.001837819    2.493    0.599
       188 -10.7609     94.2857     70.3745   6.8880459411e+01   5.0410847157e+01    0.7155508    0.4524972 -60.22  0.002768721    2.304    0.566
       189  -9.6016     93.9579     79.0483   7.1774139725e+01   4.8800668660e+01    0.3169617    0.2459873   4.68 0.0008513476    1.487    0.327
       190  -9.4915     89.1853     78.1295   7.3048156051e+01   4.9895967797e+01    0.2883342    0.2366505  72.37 0.0009420858    1.659    0.397
       191 -10.3658     89.2375     73.5886   7.1575901552e+01   5.0780298365e+01    0.5362092     0.373211 -20.88  0.001739288    1.633    0.387
       192  -9.9882    168.1211     78.4214   5.2748590330e+01   3.2485469011e+01    0.2633279    0.2585252 -11.35 0.0003716465    1.121    0.108
       193  -8.9197    141.4649     75.4705   5.7553254824e+01   3.9192187413e+01    0.2009349    0.1469197 -24.31 0.0005330482    1.571    0.363
       194  -9.4934    136.8982     79.1282   5.9702324430e+01   3.9583475558e+01    0.2253348    0.2003754 -85.15 0.0005110486    1.252    0.201
       195  -9.5734    111.1559     77.0772   6.5895665301e+01   4.5677451267e+01    0.3520053    0.2422922  31.15  0.001267394    1.564    0.361
       196  -9.6101    111.4911     71.4005   6.4012715276e+01   4.6657821521e+01    0.4557457    0.2508578 -25.82  0.001388949    2.323    0.569
       197  -8.8794    231.3060     77.8509   4.2831659813e+01   1.8883984235e+01    0.1776139    0.1411649 -47.47 0.0002648098    1.109    0.098
       198 -10.5953    179.5999     75.2412   4.9811068519e+01   3.0386301694e+01    0.3483523    0.3005435  17.15 0.0005411061    1.478    0.324
       199  -9.1523    118.3207     75.4664   6.3382206542e+01   4.4428865435e+01     0.311555    0.2358733 -87.27 0.0008127204    1.936    0.483
       200  -9.9154     63.6840     75.0456   8.1176155028e+01   5.4874645159e+01    0.3206591    0.2994896 -87.55  0.001862369    1.392    0.282
       201  -9.2841     68.3126     74.6550   7.9306431546e+01   5.4235814206e+01    0.2557118    0.1830297 -43.85 0.0008517168    1.361    0.265
       202  -8.6022     37.8795     75.5335   9.1647682948e+01   5.8110069382e+01    0.1771845    0.1290242  12.72  0.000329713    1.439    0.305
       203 -10.4664    169.7776     73.2784   5.1063420194e+01   3.2978275952e+01    0.3832737     0.296256 -36.41  0.001672735    1.326    0.246
       204 -10.3797    173.4744     68.7897   4.9204315349e+01   3.2859657063e+01    0.2899955    0.2454324  68.24 0.0003117895    1.165    0.141
       205  -8.2613     84.4519     72.4585   7.2819654782e+01   5.1895975271e+01    0.1470083    0.1317907  -1.93 0.0004397698    1.061    0.058
       206 -10.4347     44.7805     46.8361   7.9215857895e+01   6.2975543789e+01    0.7541222    0.5098888  24.63  0.004278223    1.434    0.302
       207  -9.8401     15.6615     60.0510   9.7035075050e+01   6.3419169296e+01    0.2363802    0.1854095 -28.74 0.0004477534    1.064    0.061
       208  -9.9737     37.3899     47.4464   8.2777421310e+01   6.3806180261e+01    0.2914267    0.1948568  -6.27 0.0007134588    1.518    0.341
       209 -10.3934    115.7461    248.3007   1.0005469361e+02   6.1896723789e+00    0.2406074     0.233064 -19.68 0.0008159454    1.182    0.154
       210  -9.2247     31.9196     47.5735   8.5370191260e+01   6.4410697299e+01     0.202643    0.1553336 -32.02 0.0006449184    1.150    0.130
       211 -12.3893      2.4888     66.4045   1.0463468901e+02   6.2848500839e+01    0.4196685    0.2373299 -62.10 -2.726559e-05    1.527    0.345
       212 -11.3025     31.8612     53.3909   8.7433228206e+01   6.3319054212e+01    0.8250065    0.5007137 -52.32  0.004270355    1.700    0.412
       213 -11.2340      8.1540     51.4563   9.8160031206e+01   6.5693107322e+01    0.6008177    0.3438171  -4.97  0.003094415    1.821    0.451
       214  -9.2881     30.3280    247.6574   1.1780885273e+02   1.7384054730e+01    0.1305221   0.06649282  61.76 0.0007051144    1.742    0.426
       215 -10.6053     16.3470     46.7283   9.2638956726e+01   6.6045501918e+01    0.2381592    0.1825434 -11.99 0.0002640009    1.156    0.135
       216 -10.8337     11.9565     67.1727   1.0060336696e+02   6.2149962952e+01    0.6693556    0.2560072 -30.98  0.002375637    2.813    0.645
       217 -11.4913      5.9629     60.3075   1.0160323496e+02   6.3984900180e+01     0.622813    0.5635089  -0.29  0.004402388    1.272    0.214
       218 -10.7442     32.7993     64.8009   9.0678338169e+01   6.0932591676e+01    0.6077625    0.2512715 -40.85  0.002170257    2.143    0.533
       219 -11.2341     28.0170     63.4503   9.2391922161e+01   6.1681747912e+01    0.5184535    0.2717514 -52.15 0.0002224146    1.710    0.415
       220 -10.5689     26.8940     44.7480   8.6754255614e+01   6.5460689887e+01    0.5082496     0.231393 -31.04  0.001588854    2.189    0.543
       221 -10.5751     21.9378     46.0036   8.9624689734e+01   6.5705119545e+01    0.2570378    0.1885988 -37.78 0.0007305288    1.187    0.157
       222 -10.1164    102.9827     68.3990   6.5533236691e+01   4.9003942243e+01    0.6023675     0.410108  -0.10  0.002642021    2.109    0.526
       223 -11.2218     79.8947     70.0703   7.3612921225e+01   5.3185970507e+01    0.2574973    0.2337279   9.10 0.0003210467    1.038    0.037
       224  -9.6632     37.2333     69.2623   9.0101445994e+01   5.9530709423e+01    0.3815114    0.2073329 -43.01  0.001879837    1.599    0.375
       225  -8.3407    215.5015     70.4808   4.3217260504e+01   2.3251173178e+01    0.1340788    0.1159961 -63.10 1.843106e-05    1.001    0.001
       226 -10.8951    151.4995     80.4502   5.6718986872e+01   3.5978999060e+01    0.6231763    0.3617584  69.45  0.002443166    2.292    0.564
       227  -9.5028    119.1725     67.4562   6.0648144024e+01   4.5671603273e+01    0.3506053    0.2413722 -13.28  0.001483939    1.914    0.478
       228  -9.3216     28.7312     75.4412   9.5454336972e+01   5.9033924260e+01     0.355237    0.2244578 -51.99   0.00190428    1.380    0.275
       229  -9.1529     75.1187     65.9220   7.3924864575e+01   5.4819885057e+01    0.2388554    0.1954351 -37.63 0.0006522778    1.229    0.187
       230  -9.3587     77.2339     62.0073   7.1820363323e+01   5.5170070172e+01    0.2270054    0.1920387  25.42 0.0003328157    1.130    0.115
       231  -8.9990     97.0101     63.6785   6.5793788338e+01   5.1073498500e+01    0.2021615    0.1738186  35.44 0.0002467498    1.115    0.103
       232 -10.5595    161.1152     60.3235   4.9147658804e+01   3.7090776998e+01    0.4356311    0.3120021 -17.73  0.001671702    1.793    0.442
       233  -9.6313    162.7930     55.2259   4.7434874923e+01   3.7463982108e+01    0.2716294     0.159913 -48.53  0.001267845    1.753    0.429
       234  -9.4228    110.4128     62.8470   6.1556527588e+01   4.8387747898e+01    0.2984751    0.1910543  40.90 0.0009223659    1.519    0.342
       235  -8.7552    114.4631     60.9559   5.9824453592e+01   4.7813730505e+01    0.2185301    0.1883706  45.85 0.0006725412    1.109    0.098
       236 -10.1642     44.1487     54.5179   8.2301066953e+01   6.1665431497e+01    0.5446438    0.2445178  36.39  0.002189731    2.371    0.578
       237  -9.7207     61.4809     52.5084   7.4342225062e+01   5.9529179930e+01    0.3858934    0.2341489 -28.47   0.00144583    1.666    0.400
       238  -9.1744     48.9422     57.5009   8.1286860487e+01   6.0472018556e+01    0.2245522    0.1530366  32.10 0.0003273228    1.521    0.343
       239  -9.8496     52.6428     53.3146   7.8236904296e+01   6.0729775374e+01     0.371845    0.2649799 -41.79  0.001438661    1.416    0.294
       240 -10.9389     54.0339     61.2085   8.0447609390e+01   5.9058737511e+01    0.3005286    0.2607909 -56.47 0.0002594376    1.430    0.301
       241 -10.0999     56.3482     56.8263   7.7970849239e+01   5.9547053334e+01    0.2897364    0.1964292  16.02 0.0005894899    1.517    0.341
       242 -10.1813    193.7695     60.8943   4.3953819952e+01   2.9451043732e+01    0.4148163    0.1703948 -41.72   0.00173079    2.244    0.554
       243  -8.5707    175.4636     62.5168   4.7212670693e+01   3.3390827380e+01    0.1375161    0.1312278 -88.95 1.465048e-05    1.059    0.055
       244  -9.4972    100.4079     61.3186   6.3957876609e+01   5.0779363023e+01    0.3641062    0.2458706 -73.63   0.00148573    2.836    0.647
       245  -9.2153     65.3720     61.8426   7.6161519494e+01   5.7219297762e+01    0.2359855    0.2014694   3.75  0.001366589    1.083    0.077
       246  -8.5353     62.3116     62.3076   7.7509596070e+01   5.7616175742e+01    0.2019262    0.1280924 -26.47 0.0008045209    1.632    0.387
       247 -10.5632    167.3222     57.2861   4.7205079479e+01   3.6090548233e+01    0.5030055    0.2312192 -31.05  0.001444127    2.459    0.593
       248  -9.4376    170.5486     58.4667   4.6969693629e+01   3.5156151507e+01    0.2677542     0.211322  29.71 0.0007125032    1.611    0.379
       249  -9.6127    152.6191     60.5230   5.0830851607e+01   3.9065147608e+01    0.3976247    0.2227026  42.71  0.001730326    1.975    0.494
       250  -9.7128    136.6852     55.8665   5.2783035307e+01   4.3533592546e+01    0.3574533    0.2086206 -29.09   0.00132384    1.927    0.481
       251  -9.7109    132.5115     59.0991   5.4717319444e+01   4.4008242503e+01    0.4320588     0.293987  22.28  0.001966907    1.995    0.499
       252  -9.6631    125.6552     57.2719   5.5771803782e+01   4.5877540436e+01    0.4843247    0.2058344  59.95  0.001773135    2.658    0.624
       253 -10.0578     71.9453     60.1956   7.3107571692e+01   5.6427334305e+01    0.3841327    0.2432002  37.68  0.001909009    1.560    0.359
       254  -9.3722     40.0429     59.4410   8.5787134205e+01   6.1223203148e+01    0.2933713    0.1877265 -11.87 0.0009546034    1.708    0.414
       255  -9.2757     65.0926     56.3961   7.4345288708e+01   5.8260294885e+01    0.2433877     0.180886 -27.15 0.0005125717    1.291    0.225
       256  -8.9863     68.4616     54.5288   7.2382382049e+01   5.8027616081e+01    0.4353737    0.2117833  23.91  0.001323219    2.719    0.632
       257  -9.5113     75.5230     52.4778   6.9033356313e+01   5.7135393997e+01    0.5444878    0.2957846  28.32  0.002431442    2.015    0.504
       258 -10.5075     68.4400     48.4685   7.0144831926e+01   5.9052159300e+01    0.5057153    0.3911915  73.06  0.001840176    2.252    0.556
       259 -12.1137     62.1840     44.2611   7.0940975571e+01   6.0791319842e+01    0.4795592     0.283877  35.75  0.000480704    1.609    0.378
       260  -9.0491    131.8920     44.8833   5.0427471670e+01   4.6241357845e+01    0.2454913    0.1683744  48.38  0.000490777    1.371    0.270
       261  -9.7253    127.5458     39.7428   4.9735703901e+01   4.7941894726e+01    0.2810529     0.275765 -89.74  0.001057034    1.088    0.080
       262 -11.1912    126.7295     46.8016   5.2181327570e+01   4.7179583628e+01    0.5953712    0.4380659 -81.92  0.001672981    1.820    0.451
       263 -10.7482    122.4314     50.6510   5.4431649962e+01   4.7618938529e+01    0.7672136    0.4670707  17.67  0.003124075    2.707    0.631
       264  -9.0614    117.8053     52.2017   5.6083192923e+01   4.8442232697e+01    0.4837834    0.3129643  -1.35  0.002098666    2.386    0.581
       265  -8.7903     84.1004     51.7363   6.5789254237e+01   5.5647416538e+01    0.2921559    0.1924486 -43.74  0.001462867    1.688    0.408
       266  -8.8509     96.5231     48.8643   6.0814026666e+01   5.3590098356e+01    0.2301399    0.1707253  34.06 0.0004819887    1.281    0.219
       267 -10.0564     87.5601     49.0112   6.3659939278e+01   5.5398317747e+01    0.4364842    0.2767305 -42.89  0.002101389    1.757    0.431
       268  -9.3633     90.8791     46.6330   6.1739209602e+01   5.5091161025e+01    0.3397956    0.2396444  68.99 0.0003695551    2.015    0.504
       269 -10.3694     92.9120     43.3085   5.9901217253e+01   5.5159059457e+01    0.6705012    0.4103273 -56.32  0.002484046    2.559    0.609
       270  -9.8401     93.3879     55.2208   6.4020551158e+01   5.3239670288e+01    0.3327126     0.230722  37.30 0.0006031144    1.370    0.270
       271 -10.9794     92.8718     51.0320   6.2701536952e+01   5.4012548901e+01    0.3173859    0.2825904  62.16 0.0002970386    1.304    0.233
       272  -9.2968     79.6025     54.1019   6.8182701996e+01   5.6114172069e+01    0.2163051    0.1851294  45.69  0.000573788    1.274    0.215
       273  -9.5139    197.9426     59.5815   4.3045489302e+01   2.8715231970e+01     0.262725    0.2163506  22.56  0.001421127    1.718    0.418
       274 -10.1425    145.3936     51.6837   4.9697250993e+01   4.2101618212e+01    0.4741241    0.3022503 -77.41   0.00206007    2.323    0.569
       275  -8.6912    106.8648     52.8594   5.9213081760e+01   5.0772145271e+01    0.2163978    0.1722085  30.65 0.0003158457    1.240    0.193
       276  -9.5378    175.1718     49.9258   4.3959344829e+01   3.5319784611e+01     0.318639    0.2417071  -3.08   0.00165263    1.923    0.480
       277 -10.8379    153.9151     47.8749   4.6963426002e+01   4.0621359885e+01    0.3375976    0.3183045 -84.32  0.000504375    1.045    0.043
       278  -9.6756    182.3302     48.4837   4.2516322498e+01   3.3859790353e+01    0.2661116      0.23714 -16.71  0.001600659    1.382    0.276
       279 -10.0176    145.8703     46.3779   4.8033321777e+01   4.2737856125e+01    0.2650498    0.2282505 -59.73 0.0004625719    1.218    0.179
       280 -10.1168    202.3537     46.8991   3.9464023158e+01   2.9552849287e+01    0.2560081    0.2329056  41.87 0.0008366897    1.393    0.282
       281  -8.3722    196.7895     48.4022   4.0519214907e+01   3.0582170585e+01    0.1799511    0.1135283  56.05 0.0007010192    1.657    0.396
       282 -10.0147    163.9142     46.4145   4.4819985062e+01   3.8453353182e+01    0.3380465     0.257512   9.63  0.001682875    1.899    0.473
       283 -10.1974    114.6608     46.4413   5.4966211960e+01   4.9992942211e+01    0.2976223    0.2424015 -11.58 0.0006450736    1.372    0.271
       284  -9.8230    112.9518     41.3099   5.3660339769e+01   5.1086071368e+01    0.2290986     0.198609 -21.34 0.0001839609    1.244    0.196
       285  -8.9638    234.8098     47.0971   3.5970076704e+01   2.2710093208e+01    0.1800447    0.1309513 -62.77 0.0002868246    1.151    0.132
       286 -10.6586     79.1794     43.1266   6.4258104839e+01   5.7926098365e+01    0.4165607    0.3707377  72.03  0.001599956    1.506    0.336
       287  -9.8887    244.9806     44.5078   3.4506382123e+01   2.1077735840e+01    0.2104366      0.16446 -28.99  0.001274129    1.592    0.372
       288  -9.3440    185.9201     44.4699   4.1001577264e+01   3.3583484776e+01    0.1984487    0.1218242  66.20  0.000484996    1.553    0.356
       289  -9.6755    178.2047     43.8729   4.1933531911e+01   3.5445135657e+01    0.2638994    0.1986758 -86.29  0.001472384    1.329    0.247
       290  -9.3636    163.7576    246.4007   8.9541997725e+01  -4.7136490308e-01    0.1899043     0.107727  23.04 0.0009571207    1.680    0.405
       291  -8.4962    219.6341    245.6789   7.8288936688e+01  -7.9242154979e+00     0.130916   0.07709462  -2.59 0.0007038788    1.787    0.440
       292  -9.8055    100.3968     26.4452   5.1598083328e+01   5.5712623898e+01     0.376118    0.1820315  60.00  0.001212391    2.045    0.511
       293  -8.6176      1.4421    244.4562   1.2312561844e+02   2.0937241442e+01    0.1133709   0.08360893  69.25 7.038527e-05    1.011    0.011
       294  -9.2582     71.1315     42.4661   6.6848787494e+01   5.9520868307e+01    0.2478123     0.183118   6.53 0.0005924934    1.399    0.285
       295 -10.3327    222.6024     40.8055   3.5854641938e+01   2.6032422146e+01    0.2703849    0.2144354 -85.51 0.0003632037    1.143    0.125
       296  -9.4290    223.7864     34.8032   3.4465134142e+01   2.6563151673e+01    0.2354185    0.1581423 -59.84 0.0004077914    1.277    0.217
       297 -10.7567    228.2263     39.7174   3.5074328818e+01   2.5018964499e+01    0.5102792     0.264814 -31.56  0.002618258    2.154    0.536
       298  -9.2816    227.4213     33.4146   3.3838102816e+01   2.5992023422e+01    0.1856703    0.1507656 -73.95 3.550422e-05    1.034    0.033
       299  -8.7400    191.5293     42.0418   3.9662116340e+01   3.2629335339e+01    0.1856609    0.1237901 -38.24  0.000394358    1.519    0.342
       300  -8.8492    144.1186     41.6664   4.6968151974e+01   4.3787043434e+01    0.2212864    0.1628729  79.79   0.00116345    1.435    0.303
       301  -9.7163     34.6892     41.6672   8.1857818968e+01   6.5151566378e+01    0.3391119    0.1840164  10.38  0.001327595    2.127    0.530
       302 -11.2353     40.6541     39.0741   7.8055783550e+01   6.4842866583e+01    0.3583253    0.2132538  -1.13  0.001770837    2.005    0.501
       303  -9.3069     24.4454     38.8160   8.5759365513e+01   6.6774253496e+01     0.322319    0.1936802 -25.32  0.001155391    1.500    0.333
       304  -8.1608     27.2865     36.6806   8.3508132477e+01   6.6847838840e+01    0.1512253    0.1161937  31.73 0.0009466498    1.547    0.354
       305  -8.5329    196.6957     40.6986   3.8694366483e+01   3.1642880497e+01    0.1200798   0.09947976  36.98 0.0003333325    1.592    0.372
       306  -9.8120    158.3948     39.4372   4.3798738048e+01   4.0686676034e+01    0.3145432    0.2362559  70.33 0.0006480818    1.237    0.192
       307  -9.5358    120.7750     38.7162   5.0912566033e+01   4.9644001691e+01    0.4649689    0.2219813 -42.64  0.002012658    2.353    0.575
       308  -9.1759    244.9022    241.9747   7.3103766296e+01  -1.0399110300e+01    0.1820527     0.121761  -4.83 0.0007507602    1.228    0.185
       309  99.0000     11.5458     32.0245   8.9911004163e+01   6.9130729626e+01    0.5519226    0.2519912  25.48   0.00226842    2.256    0.557
       310  -9.4793      7.5011     39.4975   9.4760630103e+01   6.8069700672e+01    0.2498281     0.172535 -15.82 0.0008687224    1.257    0.205
       311 -10.0500    102.4190    240.9917   1.0207491297e+02   9.5214209242e+00    0.3030655    0.1283487 -60.34  0.001331385    2.675    0.626
       312  -8.0989    215.5029     39.4586   3.6289774462e+01   2.7699877267e+01    0.1272173    0.1043027 -71.51 0.0003152608    1.022    0.022
       313  -8.2102    203.3020     39.2624   3.7579028990e+01   3.0364263650e+01    0.1148915   0.09623218  44.61  0.000244543    1.517    0.341
       314  -9.5900    165.1013     36.9641   4.2053268501e+01   3.9414217494e+01    0.4144789    0.2985522 -61.65    0.0022791    1.445    0.308
       315 -10.5368    178.3458     37.1760   4.0194340499e+01   3.6285732640e+01    0.2843575    0.2254553  73.42 0.0003536042    1.164    0.141
       316  -9.0073    146.1555     33.9598   4.4308186695e+01   4.4276183704e+01    0.2088339    0.1825015  76.69 0.0006432808    1.062    0.059
       317 -10.1705    146.4894     29.0453   4.2803208594e+01   4.4776351577e+01    0.3089928    0.2485982  71.19 0.0008562972    1.125    0.111
       318  -8.6985    127.6367    240.3200   9.6442751808e+01   5.9491086412e+00    0.1376867   0.09375176  58.78 0.0007041048    1.777    0.437
       319  -9.7531     88.0677     33.1255   5.7564734051e+01   5.7536874289e+01    0.3145254    0.2141052  50.23 0.0008780268    1.386    0.278
       320  -9.9898     72.9551     36.6095   6.3892963170e+01   6.0040118391e+01    0.4796066    0.3661837   4.58  0.001592502    1.314    0.239
       321  -9.3889     75.0511     23.0465   5.7669388078e+01   6.1368469776e+01    0.1974406    0.1652411  -1.89 0.0003190007    1.187    0.158
       322  -8.5972     36.3279    239.3382   1.1605144062e+02   1.8427472654e+01    0.1110993   0.09110183 -39.00 0.0004724035    1.731    0.422
       323  -9.7392     71.9856     29.5327   6.1380332925e+01   6.1169648551e+01    0.2859074    0.1882298  28.68   0.00104641    1.419    0.295
       324 -10.2297    249.0787     35.9293   3.2493419384e+01   2.1420216537e+01    0.2024148    0.1919103 -62.33  0.001536689    1.370    0.270
       325  -9.0723    238.4541     37.2848   3.3644971768e+01   2.3289767803e+01    0.1946555    0.1326721  65.11 0.0007610409    1.609    0.379
       326  -9.1242    186.1331     36.4449   3.8980759202e+01   3.4583125167e+01    0.2773021    0.1409151 -52.90  0.001309345    1.999    0.500
       327  -9.3586    131.6902     36.0250   4.7680139958e+01   4.7443130239e+01    0.2736855    0.2277571 -85.37 0.0003959905    1.330    0.248
       328  -8.9542    130.2787     32.3611   4.6805828410e+01   4.8219120669e+01    0.2031941    0.1749018  39.57 0.0005990373    1.169    0.145
       329  -9.9924    134.0660     29.5898   4.5192727105e+01   4.7652477689e+01    0.3430296    0.2764045   8.04  0.001496934    1.528    0.346
       330  -9.8498     56.3385     34.8257   6.9500097817e+01   6.3193964946e+01    0.3961322    0.2114194 -43.58  0.001670282    2.207    0.547
       331  -8.9737     94.0403     35.0351   5.6515446947e+01   5.6046207886e+01    0.2347731    0.1505552  54.99 0.0005716463    1.532    0.347
       332  -9.5487    208.5623     33.4024   3.5672706149e+01   2.9963175368e+01    0.2969005    0.1552938 -62.36  0.001478746    1.956    0.489
       333  -8.7737    189.1749     33.8808   3.7972587602e+01   3.4210619265e+01    0.1922929    0.1504522 -76.99  0.000302659    1.173    0.148
       334  -8.8162     61.3046     34.3260   6.7308690963e+01   6.2440350365e+01    0.2085293    0.1618774   4.38 0.0005867042    1.196    0.164
       335  -9.1827     62.6912     31.2036   6.5476736650e+01   6.2636151841e+01    0.3600507    0.2497385 -28.23  0.002076054    1.471    0.320
       336  -8.8922     49.6566     33.2335   7.1639199700e+01   6.4478610315e+01    0.4405044    0.1838483  23.83  0.001686438    3.345    0.701
       337  -9.5527     42.7813     31.0890   7.3774103273e+01   6.5807078393e+01    0.4273216     0.241959 -50.17  0.002104645    2.580    0.612
       338 -10.0165    248.0303     30.8930   3.1613029533e+01   2.2252718386e+01    0.2546282    0.1586215 -33.06  0.001375056    1.787    0.440
       339  -9.7744    183.7913     31.8525   3.8139382413e+01   3.5689446246e+01    0.2381614    0.1763939  74.81 0.0008367324    1.234    0.190
       340  -9.7341    136.8354     37.8148   4.7207463250e+01   4.6007372924e+01    0.2613563    0.2361105  82.95 0.0009070399    1.104    0.094
       341  -9.5443    222.2889    233.3281   7.5737013642e+01  -6.4368397866e+00    0.1548158    0.1417897  -3.11 0.0005787135    1.361    0.265
       342  -8.8401    140.0289    236.7674   9.3224266107e+01   4.7581795143e+00    0.1792082   0.09917677  34.00 0.0005584642    1.594    0.373
       343  -9.7781     34.6616     31.7131   7.7848541664e+01   6.6798265726e+01     0.249603    0.1923132  -6.85 0.0009569693    1.076    0.071
       344 -10.2442     37.1870     26.4277   7.4347863646e+01   6.7266925785e+01    0.2529677    0.1812053 -10.69 0.0009392943    1.239    0.193
       345  -9.1309     31.9948    232.5289   1.1645833297e+02   2.0346513681e+01    0.1821099    0.1413007  83.31 0.0003649959    1.137    0.120
       346 -10.1135    186.8880    230.8200   8.2272134573e+01  -1.1855787053e+00     0.209675    0.1594876  -0.76 0.0008089687    1.235    0.190
       347  -8.6457    177.9574    231.0000   8.4156954741e+01   9.2623558895e-02    0.2208044   0.06809136  34.35 0.0008078496    2.980    0.664
       348 -10.3228     41.0468     21.3196   7.0232185978e+01   6.7434992359e+01    0.2559665    0.2370664 -17.40 0.0004761435    1.415    0.293
       349  -8.5618    163.3519    226.7021   8.6572758687e+01   3.0691077650e+00    0.1401011    0.1222484  11.57 0.0004677308    1.011    0.011
       350 -10.2769    234.3525     30.2072   3.2578253263e+01   2.4994521706e+01    0.3249453     0.205324  55.23  0.001155719    1.958    0.489
       351  -9.3156    168.8707     30.2245   3.9695180078e+01   3.9349237503e+01    0.2103864    0.1844679 -30.93 0.0006865361    1.313    0.238
       352  -8.8345     93.9862     30.2070   5.4726362349e+01   5.6658975223e+01    0.2427662    0.1568897  46.55 0.0006295896    1.364    0.267
       353  -8.9562     89.9975     29.0066   5.5414494924e+01   5.7644787833e+01    0.1855899    0.1581461 -89.15  0.001085643    1.599    0.375
       354  -8.5230    161.3194    224.2870   8.6622242790e+01   3.8328486209e+00    0.1399668    0.1268973  27.13 0.0002684225    1.122    0.109
       355  -9.1440    189.6640     28.5443   3.6623251692e+01   3.4747717967e+01    0.2039037    0.1818061 -83.05 0.0005940454    1.069    0.064
       356  -8.0377     49.6309     40.0610   7.4454731987e+01   6.3429157371e+01    0.2192357   0.09084595 -22.99 0.0007035376    4.508    0.778
       357  -9.5188    222.4460     26.8829   3.2924813420e+01   2.7820422140e+01    0.2180688    0.1603414  75.74 0.0006644063    1.325    0.245
       358 -10.0423    212.4464     25.8167   3.3612994447e+01   3.0052242817e+01    0.2791935    0.2128152 -22.61  0.001734648    1.729    0.421
       359  -9.2382    182.5306     26.8067   3.7042743913e+01   3.6578471186e+01    0.6093643    0.2511241 -87.72   0.00188418    5.174    0.807
       360  -9.0621    223.8682    225.1133   7.4027052245e+01  -5.3828844747e+00     0.175943    0.1524751  -0.78 0.0005484226    1.190    0.160
       361  -9.0168    169.5026     23.8631   3.7933326759e+01   3.9930874028e+01    0.2407002     0.126071 -31.29  0.001189116    2.089    0.521
       362 -10.0393    161.7105     26.7233   3.9770479565e+01   4.1438446166e+01    0.2580394    0.2011473  59.57 0.0002658044    1.219    0.179
       363  -8.8350    166.0256     26.5289   3.9107864048e+01   4.0445391834e+01    0.1880359    0.1520795  79.20 0.0003900066    1.101    0.091
       364  -9.7134     86.2662     36.3536   5.9353084564e+01   5.7483922798e+01    0.3697121     0.224064   7.01  0.001661371    2.390    0.582
       365  -8.4543     25.7936     27.3610   8.0416216783e+01   6.8535893311e+01    0.1588877   0.09774178  12.50 0.0009205366    1.536    0.349
       366  -8.8474    208.2064     26.5922   3.4192097679e+01   3.0871306914e+01    0.1635394    0.1034365  64.42 0.0005333618    1.571    0.363
       367  -9.6394    205.0383     24.3966   3.4015286194e+01   3.1817830498e+01    0.3507313    0.2309873  56.82  0.001878945    1.666    0.400
       368  -8.6787     68.6206     26.1086   6.1148233983e+01   6.2229008049e+01    0.1801087    0.1119368 -10.75 0.0007728362    1.835    0.455
       369 -10.7996      2.0455     25.3437   9.2687521338e+01   7.0979083793e+01    0.2022543    0.1401554 -32.42 0.0002871521    1.127    0.112
       370  -8.9233    241.3291     25.6015   3.1110568344e+01   2.4185357038e+01    0.2023453   0.09996569  81.23  0.001022982    2.033    0.508
       371  -7.9549    143.3166    225.7129   9.0842416416e+01   6.3700201984e+00    0.1332504    0.1026129  58.97 0.0002795322    1.589    0.371
       372  -8.9376    132.0171    225.0797   9.3299985059e+01   8.2613459935e+00    0.2083991    0.1593389  65.07 0.0004761111    1.633    0.388
       373  -8.4888    125.3410    225.6809   9.4910565150e+01   9.1775677807e+00    0.1414415    0.1005872  61.70 0.0007049614    1.715    0.417
       374  -9.5580     89.1090    220.7272   1.0262978617e+02   1.5684137473e+01    0.2651391    0.2303667  17.83 0.0009386397    1.282    0.220
       375 -10.6092     62.3347     22.5217   6.1912148463e+01   6.3811929473e+01    0.3757183     0.241825  18.75 0.0009310326    1.563    0.360
       376  -8.8062    206.6074    217.8077   7.6047572083e+01  -1.8322989049e+00    0.1635695    0.1180719 -42.63 0.0003224663    1.515    0.340
       377  -9.7043     72.0209     14.9738   5.5264376634e+01   6.2834095964e+01    0.2054185    0.1601903  55.75            0    1.385    0.278
       378  -9.2651    242.5582    210.1027   6.7981997413e+01  -5.4671865459e+00    0.2039448    0.1847468 -36.80 0.0008320033    1.490    0.329
       379 -10.1652    232.5549     23.5647   3.1396113521e+01   2.6158320340e+01    0.3544109    0.1871654 -86.56  0.001355888    1.925    0.480
       380 -10.4633    153.6488     22.9095   3.9896918589e+01   4.3763191736e+01    0.2331552     0.215773  65.56  0.000307163    1.107    0.096
       381 -10.0398    117.0536     21.9279   4.6107707942e+01   5.2454029585e+01    0.2544498    0.1854553 -13.85  0.000528463    1.619    0.382
       382  -8.7403     10.6683     22.7509   8.6657033570e+01   7.0763938622e+01    0.1693897    0.1230093  32.37  0.001045346    1.781    0.439
       383  -8.4336    230.5347    209.5141   7.0012226219e+01  -3.7970556775e+00    0.1309066    0.1020008 -11.56 0.0001861721    1.057    0.054
       384  -8.7006    194.4813    209.4988   7.6988427064e+01   1.4147797288e+00    0.1382198    0.1169194  -4.56 0.0001464425    1.035    0.033
       385  -9.8476    124.0022    206.0013   9.2215373216e+01   1.3562154751e+01    0.2018989    0.1911729  22.12            0    1.028    0.028
       386  -8.2365     95.3146    205.3058   9.9094405035e+01   1.8249316717e+01    0.1389388    0.1102271 -18.77 0.0003449701    1.623    0.384
       387  -8.8574     35.1945    201.3921   1.1323603408e+02   2.7048866762e+01     0.182166    0.1048393  44.82 0.0008236721    1.628    0.386
       388  -9.8990     84.6528     20.7756   5.3762826939e+01   5.9689846351e+01    0.3089715    0.2280533 -57.99 0.0009583783    1.996    0.499
       389  -9.5514    199.4513     18.7615   3.3293885283e+01   3.3683136691e+01    0.2917414    0.2455956   4.40  0.001876323    1.780    0.438
       390  -9.2326    196.2886     16.5825   3.3106022159e+01   3.4620376734e+01    0.2313052    0.1598343  85.62 0.0007365193    1.274    0.215
       391  -9.2142    193.2062     20.0542   3.4219887340e+01   3.4925667504e+01    0.1697456    0.1517915  72.32 0.0003440559    1.215    0.177
       392  -9.2471      9.6455    196.2957   1.1873710309e+02   3.0736037751e+01    0.2442561    0.1332227  72.64  0.001027504    1.726    0.421
       393  -9.0972      6.5070    194.5417   1.1932686547e+02   3.1415340037e+01    0.2456736    0.1284724 -53.06  0.001264781    2.133    0.531
       394  -8.4474     96.4368    195.5122   9.7374267244e+01   2.0374506538e+01    0.1412165    0.1375947  65.42 0.0001651444    1.028    0.027
       395  -8.8467    241.9955    193.9700   6.5103605875e+01  -2.8234912798e+00    0.1526567    0.1243193 -13.38 0.0003529619    1.047    0.045
       396  -9.9361     18.3153    174.3067   1.1486744817e+02   3.5323541941e+01    0.2730207    0.2117013 -12.77  0.001057027    1.769    0.435
       397  -9.6337      6.7810    174.4014   1.1777332055e+02   3.6245308760e+01     0.156959     0.124519  -2.85 0.0009599453    1.719    0.418
       398  -8.4878      3.2956    173.6416   1.1857315363e+02   3.6693493278e+01    0.1358353   0.07767047  68.55 0.0007032725    1.701    0.412
       399 -10.0977     15.1474    165.0908   1.1481413023e+02   3.7899228052e+01    0.2310299    0.2263574  32.29 0.0002667285    1.245    0.197
       400  -9.5286     15.5838     18.6806   8.2063036305e+01   7.0945725689e+01    0.2826144    0.1791238 -34.17  0.001130742    1.419    0.296
       401  -9.7304      8.2701    161.9503   1.1633180526e+02   3.9221290676e+01    0.1964888     0.150926  79.20 0.0003834108    1.192    0.161
       402 -10.5627      7.7347    165.9111   1.1682321539e+02   3.8272533456e+01    0.3498186    0.2060142  44.75  0.001585421    1.753    0.430
       403 -10.2287     11.5185    163.9649   1.1566285314e+02   3.8470640643e+01     0.357913    0.1840011 -73.91  0.001396412    1.621    0.383
       404  -8.5748    139.4427     19.1764   4.1041670695e+01   4.7508996650e+01     0.167842    0.1164139 -46.27  0.000928435    1.583    0.368
       405 -12.1945     19.8670    151.1313   1.1204382091e+02   4.1059442969e+01     1.256435    0.3721998  36.39  0.004839087    3.272    0.694
       406 -12.3748     35.1456    149.3874   1.0738941426e+02   4.0125876473e+01     1.705647    0.6569608 -35.58  0.005096202    5.020    0.801
       407 -11.8231     35.8376    158.8039   1.0844461179e+02   3.7618180168e+01    0.6022793    0.4013742  47.53  0.002513223    1.576    0.365
       408 -10.0805     20.4583    162.2691   1.1310952972e+02   3.8168292823e+01    0.4153283    0.1290596 -68.28  0.001600461    2.574    0.611
       409  -9.8387     24.1614    162.8389   1.1216611183e+02   3.7698057009e+01    0.2037998    0.1633803  78.11 0.0007537045    1.184    0.155
       410 -10.0051      9.8901    158.1938   1.1555088253e+02   4.0044303778e+01     0.275097     0.162192  61.03  0.001425405    1.787    0.440
       411 -10.7228      2.0984    156.1013   1.1744294872e+02   4.1114052878e+01    0.4624947    0.1767894 -74.41  0.001607698    2.104    0.525
       412  -9.4719    248.8452    153.8961   5.6209661377e+01   2.9275094464e+00    0.2017237    0.1532828 -21.63 0.0005860042    1.237    0.192
       413  -8.9014     45.9003    151.4973   1.0451684341e+02   3.8441868026e+01    0.2153049    0.1709832 -68.42 0.0003230425    1.133    0.117
       414 -10.4105     15.1141    143.3276   1.1251054747e+02   4.3428725688e+01     0.504648    0.2544546 -40.75 0.0009294469    2.235    0.553
       415 -11.2115     12.5465    150.6615   1.1406245514e+02   4.1752139693e+01    0.5330477    0.2985263   4.89  0.002596203    2.500    0.600
       416  -9.8354      8.9224    147.7781   1.1478060248e+02   4.2744128018e+01    0.3023345    0.1776958 -21.01 0.0008863712    2.403    0.584
       417 -10.1471      3.5583    145.6483   1.1607668205e+02   4.3638466766e+01    0.3923839     0.226686  60.02  0.002038437    1.895    0.472
       418  -9.0249     63.0318    148.9969   9.8999640641e+01   3.7000811001e+01    0.2116424    0.1976361 -74.81  0.001182489    1.022    0.021
       419  -8.9067    241.2209    144.0415   5.5402428916e+01   5.8286185253e+00    0.1851604   0.09262376 -39.21 0.0006105395    1.664    0.399
       420 -11.4042     40.6161    161.7337   1.0747802971e+02   3.6363418502e+01    0.5292801    0.3500812  74.04  0.001549325    1.671    0.402
       421  -8.5546    111.7444     15.1872   4.4913282704e+01   5.4335326650e+01    0.1749181    0.1286374  39.63 0.0005411756    1.289    0.224
       422  -9.2034     84.6965     14.7188   5.1327447824e+01   6.0299166483e+01    0.2254617    0.1423262  41.51  0.001261565    1.350    0.259
       423  -9.2505      7.7327    141.9947   1.1451099793e+02   4.4289213674e+01    0.2122197    0.1563426  64.23 0.0003759824    1.433    0.302
       424  -9.9209     21.8985    139.8808   1.1006584358e+02   4.3781305083e+01    0.3859644    0.2036217 -47.24  0.001826447    1.847    0.458
       425 -10.3232      8.2059    133.1857   1.1338244533e+02   4.6488549692e+01    0.4616548    0.1600963 -46.91  0.001850129    2.789    0.641
       426  -9.8643      1.5510    139.3171   1.1601932745e+02   4.5352538193e+01    0.3885221    0.1856225 -89.36  0.001460613    2.087    0.521
       427 -10.8607      3.0497    134.2143   1.1504757163e+02   4.6546376817e+01    0.3231621    0.2999908 -72.98 0.0009645441    1.140    0.123
       428  -9.4124     47.1733    133.7950   1.0124959380e+02   4.2909521153e+01    0.3697941    0.2402889  81.97  0.001662959    2.004    0.501
       429 -10.7785     41.0389    138.2798   1.0394257126e+02   4.2412335948e+01    0.3794642    0.2595314  64.95  0.001862637    1.732    0.423
       430  -9.6057     41.3787    133.8300   1.0310508160e+02   4.3531934565e+01     0.275848    0.1911371 -53.06 0.0006010362    1.298    0.229
       431 -10.0536     42.1737    130.6203   1.0230241454e+02   4.4279074379e+01    0.5097691    0.2456146  12.41  0.002000768    2.912    0.657
       432  -9.2416    230.8148    137.0948   5.5607316261e+01   8.8083558682e+00    0.2053768    0.1725992 -53.16 0.0006410147    1.214    0.176
       433 -10.0606     35.1589    135.3549   1.0532271941e+02   4.3765937546e+01    0.4552875    0.1992256 -47.20  0.001870853    2.203    0.546
       434  -8.8771    235.7762    136.6101   5.4717925384e+01   8.0442376276e+00    0.1650788    0.1312981  63.73 0.0009450917    1.631    0.387
       435  -8.0526     83.3087    135.7051   9.0219197297e+01   3.7485438971e+01     0.153098    0.1191956  73.54 0.0004046295    1.588    0.370
       436  -8.6117     58.5734    135.2955   9.7891535283e+01   4.1147790496e+01    0.2161934    0.1223791 -50.93 0.0009420596    1.619    0.382
       437 -10.4169     61.4678    131.0773   9.6148755049e+01   4.1862548054e+01    0.4330308     0.322417  34.14  0.001112449    1.438    0.305
       438 -10.0431     15.8060    134.8974   1.1127577274e+02   4.5530768907e+01      0.27783    0.1561665 -44.42 0.0009698104    1.779    0.438
       439  -8.8968    249.1286    133.8710   5.2149938127e+01   6.3115253153e+00    0.1826946    0.1344731 -25.22 0.0004789487    1.340    0.254
       440  -9.8437     20.6798    131.7704   1.0934914548e+02   4.5960741607e+01    0.3217819    0.2396089  51.88  0.001322282    1.509    0.337
       441  -8.8881     29.0752    132.3545   1.0678398126e+02   4.5107794434e+01    0.1777979    0.1708709  86.77 0.0005509795    1.126    0.112
       442 -10.0806     18.5098    126.9420   1.0936044789e+02   4.7360589772e+01    0.4296771    0.1743069 -49.82  0.001836626    2.165    0.538
       443  -9.4579     50.6952    125.9692   9.8661374937e+01   4.4525226646e+01    0.3906171    0.1927047 -67.32   0.00138665    2.040    0.510
       444  -9.3553     12.4292    126.8492   1.1128540626e+02   4.7816068174e+01    0.2019659    0.1798555  57.37 0.0006668579    1.269    0.212
       445  -9.7072     55.7006    125.9199   9.6998972330e+01   4.3930604766e+01    0.2209149    0.1784534 -59.80  0.000818151    1.136    0.120
       446  -9.3163     44.8768    125.9303   1.0057773389e+02   4.5197137817e+01    0.2209907    0.1937974 -58.57 0.0005480922    1.018    0.018
       447 -10.1997     61.8751    120.9461   9.3911598364e+01   4.4399717847e+01    0.2874544    0.2270605 -60.94 0.0004003985    1.204    0.169
       448  -9.4282    241.1472    123.9059   5.1261677995e+01   9.3579932243e+00    0.2128131    0.1608476 -53.88  0.001234456    1.278    0.217
       449  -9.2669     19.9220    104.4291   1.0528224906e+02   5.2913957916e+01    0.2631285    0.1653873 -51.79  0.001396069    1.322    0.244
       450 -11.6626     20.4629    111.0170   1.0623909051e+02   5.1238665250e+01    0.6889036    0.5688818  84.91  0.004095197    1.337    0.252
       451 -10.2224     38.4755    116.1570   1.0090072791e+02   4.8365260303e+01    0.2779212    0.2710403   6.91  0.001705877    1.148    0.129
       452 -10.9847     32.8960    113.3417   1.0230534461e+02   4.9615209926e+01    0.4957687     0.367146  22.74  0.001348348    1.523    0.343
       453 -11.8620     21.3667    119.7256   1.0734890219e+02   4.8978061222e+01    0.7217841    0.5357716  34.26  0.004106378    1.545    0.353
       454  -9.7826     14.0429    113.7661   1.0889859411e+02   5.1004827739e+01    0.2541396    0.2199267 -76.29 0.0006314694    1.118    0.106
       455  -8.9563      2.7875    124.2421   1.1399907986e+02   4.9064032194e+01    0.1894383    0.1227224 -50.91  0.001063792    1.381    0.276
       456  -8.4169     71.7535    123.5751   9.1225929412e+01   4.2342333277e+01    0.2084876    0.1390689  43.90 0.0009458677    1.637    0.389
       457  -9.1915     39.3902    123.3508   1.0192955970e+02   4.6440223979e+01    0.2176333    0.1448877 -36.55 0.0009208678    1.563    0.360
       458 -11.5044      8.0728    122.7387   1.1213675535e+02   4.9133480316e+01     1.164069    0.1843667 -54.31  0.003836125    3.732    0.732
       459  -9.8043    221.5384    119.3481   5.3278130745e+01   1.3703818728e+01    0.2939665    0.2553279  29.16 0.0009601885    1.367    0.269
       460 -10.6571     45.2391    119.2801   9.9187542996e+01   4.6858645763e+01    0.4373257     0.298024  17.52  0.001416128    1.680    0.405
