#   1 NUMBER                 Running object number                                     
#   2 MAG_AUTO               Kron-like elliptical aperture magnitude                    [mag]
#   3 X_IMAGE                Object position along x                                    [pixel]
#   4 Y_IMAGE                Object position along y                                    [pixel]
#   5 X_WORLD                Barycenter position along world x axis                     [deg]
#   6 Y_WORLD                Barycenter position along world y axis                     [deg]
#   7 A_WORLD                Profile RMS along major axis (world units)                 [deg]
#   8 B_WORLD                Profile RMS along minor axis (world units)                 [deg]
#   9 THETA_WORLD            Position angle (CCW/world-x)                               [deg]
#  10 FWHM_WORLD             FWHM assuming a gaussian core                              [deg]
#  11 ELONGATION             A_IMAGE/B_IMAGE                                           
#  12 ELLIPTICITY            1 - B_IMAGE/A_IMAGE                                       
         1 -12.9778    192.5184     40.6644   4.7331659569e+01   3.2464522893e+01      1.37836    0.9933814  35.53  0.004929366    1.696    0.410
         2 -12.5246    218.5311      9.0390   3.6300687469e+01   3.0007440546e+01    0.8957673    0.7855738 -72.46  0.003969505    1.051    0.049
         3 -11.3614     62.8321      5.9517   6.4066922787e+01   6.6091150110e+01    0.5085145     0.196979  46.82  0.002343597    2.374    0.579
         4  -8.6834     72.1153    244.9132   1.1678806615e+02   1.4846817984e+01    0.1458571     0.132425 -42.46 0.0007400661    1.579    0.367
         5 -11.1956    247.7153    245.4479   8.3703995836e+01  -1.0651227804e+01    0.6268584     0.300116 -17.38  0.003378731    2.282    0.562
         6  -9.8775    148.6772    209.3324   9.6915795700e+01   9.9287537791e+00    0.3069223    0.1613641  31.81  0.001392653    1.888    0.470
         7 -12.2334     32.6186    206.7568   1.2140088095e+02   2.7088994603e+01    0.3117324      0.15928  54.19 0.0008474598    1.711    0.416
         8  -9.7508     65.5424    205.3904   1.1445413111e+02   2.3510596805e+01    0.3901702    0.1841764 -80.55  0.001441622    2.437    0.590
         9  -8.1914     93.3666    205.7857   1.0847107211e+02   1.9555628172e+01    0.1697527    0.1166237 -54.02 0.0004738478    1.600    0.375
        10 -11.1827     56.2210    196.4810   1.1555763914e+02   2.6620494422e+01    0.6626819     0.254527 -50.58  0.002708688    3.328    0.699
        11  -9.5737    194.1864    197.7462   8.5348158109e+01   4.1496492682e+00    0.2795873    0.2020215 -40.77  0.001517962    1.487    0.328
        12 -10.9851    133.6676    196.2462   9.8103561088e+01   1.5056909434e+01    0.4141831    0.2668685 -80.24  0.001831255    2.445    0.591
        13 -11.0745    126.3565    191.5434   9.8996569124e+01   1.7285943210e+01    0.3743443    0.2718923  68.60  0.001886666    1.654    0.395
        14  -8.4734     34.5301    197.1368   1.2025864396e+02   2.8950309909e+01    0.1349812    0.1004765 -86.74 9.481877e-05    1.150    0.131
        15  -9.5318    105.6309    194.3489   1.0417995787e+02   2.0109304557e+01    0.2233292    0.1525125  67.72  0.001120168    1.666    0.400
        16 -11.0837    110.0015    186.7549   1.0202382935e+02   2.1059270660e+01    0.4978233    0.3241976 -82.31  0.002321735    2.008    0.502
        17  -8.3856     73.9972    188.8533   1.1071250629e+02   2.6019391156e+01    0.2123858    0.1351757  67.62 0.0009750122    1.664    0.399
        18  -9.3771    149.0286    187.4518   9.3129786502e+01   1.4138672924e+01    0.2737873    0.2002051 -29.80   0.00137503    1.576    0.365
        19  -8.0568     60.8054    188.0559   1.1363732513e+02   2.7933337816e+01    0.1717043    0.1463256 -87.44  0.001080477    1.070    0.065
        20 -10.8147     68.9876    182.4881   1.1108591228e+02   2.8144936178e+01    0.6584446    0.3802065 -71.88  0.002387256    1.683    0.406
        21 -10.3192     65.0894    182.6432   1.1201840484e+02   2.8620968478e+01    0.6079674    0.3155487 -78.96  0.002817416    2.069    0.517
        22  -9.1986     93.9757    185.9925   1.0567550859e+02   2.3768761256e+01    0.2192985    0.1515298  70.59 0.0004534752    1.615    0.381
        23 -11.1384    114.8634    183.0227   1.0028095064e+02   2.1075134890e+01    0.3846396    0.3163199 -14.60  0.002047217    1.579    0.367
        24  -9.6927     99.5456    181.0049   1.0360999366e+02   2.4028288019e+01    0.2486206    0.2029553  30.99 0.0006867661    1.316    0.240
        25  -9.0623    187.6316    176.2978   8.2509927630e+01   9.1754752555e+00    0.2948452    0.2735071   7.70  0.001044885    1.034    0.033
        26 -11.0620     63.4464    249.4592   1.1873623134e+02   1.5135601799e+01    0.2479353    0.1409458  56.53 0.0008210744    1.431    0.301
        27  -8.1979    148.9985    176.5165   9.1101621661e+01   1.6400093655e+01    0.2157267    0.1387863  40.46 0.0004645045    1.493    0.330
        28  -9.0577     58.0013    175.9470   1.1288326529e+02   3.1069983957e+01    0.2022626     0.165664  73.05 0.0004667792    1.117    0.105
        29 -11.4507    113.0541    173.5814   9.9125821137e+01   2.3496441639e+01     0.728325    0.2637547  39.70   0.00263837    2.640    0.621
        30 -11.0519    102.8696    172.2396   1.0139750421e+02   2.5501143735e+01    0.5959753     0.403499  34.42  0.002943895    1.528    0.345
        31  -8.0523    193.4509    171.2109   8.0242143322e+01   9.0339588717e+00    0.1944504    0.1363711 -49.35 0.0007647604    1.610    0.379
        32  -9.4281    138.3445    169.8924   9.2325926728e+01   1.9803137799e+01     0.260846    0.2004314  49.28  0.001036041    1.310    0.237
        33  -8.0257    185.5129    169.4812   8.1546541960e+01   1.0868842955e+01    0.1461791    0.1355583   2.41 0.0008102409    1.008    0.008
        34  -9.2146     79.0504    236.6808   1.1475256978e+02   1.5443376070e+01    0.1813097    0.1501368  89.29 0.0005944841    1.212    0.175
        35 -19.4881     13.9812    142.1136   1.2001847354e+02   4.3510750932e+01     19.44284     3.234389 -74.48   0.05527753    5.556    0.820
        36 -10.6386     95.0639    151.1245   9.9674998874e+01   3.1769137653e+01    0.6363558    0.4785384 -36.23  0.002245277    1.521    0.343
        37  -8.4305    187.3298    151.6878   7.7278794218e+01   1.3974093030e+01    0.1463419     0.122442 -86.05 0.0007043196    1.671    0.402
        38  -9.8650    134.0000    145.9863   8.8442431910e+01   2.5988358399e+01    0.7151145     0.191173 -51.39  0.001968033    4.023    0.751
        39  -8.0981    109.2633    147.4194   9.5174186685e+01   3.0263001386e+01     0.200321    0.1382048  51.04 0.0006145745    1.533    0.347
        40  -9.3701     84.6671    142.3253   1.0084302801e+02   3.5542835260e+01    0.3694351    0.1747863  41.24  0.001508781    2.175    0.540
        41  -9.9178    107.0456    137.5043   9.3688825539e+01   3.3026645050e+01    0.4289376    0.3174551 -32.90  0.002027948    1.527    0.345
        42 -10.8784     95.0316    137.0629   9.6917882656e+01   3.5188373872e+01    0.2941698    0.2655115 -42.74 0.0004060771    1.123    0.110
        43  -9.7494    105.8756    130.7174   9.2510548168e+01   3.4862691061e+01    0.3799848    0.3369291 -78.48  0.001318854    1.195    0.163
        44  -9.5812    114.3178    128.5978   8.9677319964e+01   3.3822182600e+01    0.3158612    0.2496322 -25.81 0.0007457358    1.439    0.305
        45  -9.4020    101.9725    124.5982   9.2210089145e+01   3.7022105723e+01    0.2877584     0.220533 -35.19 0.0007635946    1.375    0.273
        46  -9.1636    120.1397    123.1414   8.6760752826e+01   3.3986118764e+01    0.2489845    0.2139893 -19.18   0.00123544    1.278    0.218
        47  -8.6346    109.9357    118.0329   8.8347431194e+01   3.7133735673e+01    0.2288676    0.2156074 -40.74 0.0003266911    1.023    0.022
        48  -9.1577    231.4082    113.7423   6.0034117182e+01   1.1993847270e+01    0.2637738    0.2457864 -27.47 0.0007929923    1.050    0.048
        49  -8.6045    167.7682    112.3671   7.1957619953e+01   2.6148692443e+01    0.3330295    0.1793589 -65.17 0.0009607759    4.112    0.757
        50 -10.3250    119.0421    109.9527   8.3679323737e+01   3.7235127473e+01    0.4280193     0.310295 -84.87  0.001786662    2.117    0.528
        51  -8.7348    205.4344    110.2065   6.3667683310e+01   1.8104451240e+01    0.2312872    0.1819187  58.09 0.0006278452    1.414    0.293
        52  -9.5286    134.7456    105.6148   7.8216240386e+01   3.4926740600e+01    0.4260444    0.1278896 -48.45  0.001184537    3.644    0.726
        53  -8.5299     58.2000    227.9244   1.1802515968e+02   1.9820401075e+01    0.1150837   0.08204995 -89.11 0.0007352469    1.317    0.241
        54  -9.2659     40.0951    223.9334   1.2119467620e+02   2.2748447798e+01    0.1763528    0.1126452  68.62  0.000579623    1.314    0.239
        55  -7.9726     59.1602    220.3120   1.1718914531e+02   2.1217244591e+01    0.2745323    0.1871759  31.83  0.001669976    1.646    0.392
        56 -11.7444    177.2151     54.0138   5.3537880397e+01   3.4358832995e+01    0.5787612    0.5106422  20.21 0.0009048763    1.288    0.224
        57  99.0000     58.5010    248.9737   1.1959118914e+02   1.5834915291e+01    0.1365969   0.09893716 -84.97 0.0009574756    1.377    0.274
        58 -11.7773    197.4915     34.7096   4.5038097828e+01   3.2025163000e+01    0.5762944    0.4657174  72.11  0.001257732    1.193    0.162
        59  -7.4491     53.9235    221.2103   1.1830512204e+02   2.1679472394e+01    0.2566622   0.08960228  52.10  0.001146142    2.591    0.614
        60  -8.7488     90.1414    212.8994   1.1002723005e+02   1.8553047173e+01    0.1992243    0.1479939  67.42 0.0005295283    1.292    0.226
        61 -10.2487    198.2048     23.5150   4.1974650044e+01   3.3203669663e+01    0.2481374    0.1827167 -34.14  0.001170779    1.399    0.285
        62  -8.4416    160.6873    211.6450   9.4738242196e+01   7.4672649972e+00    0.1378883    0.1006942  -0.79 0.0007044596    1.735    0.424
