#   1 NUMBER                 Running object number                                     
#   2 MAG_AUTO               Kron-like elliptical aperture magnitude                    [mag]
#   3 X_IMAGE                Object position along x                                    [pixel]
#   4 Y_IMAGE                Object position along y                                    [pixel]
#   5 X_WORLD                Barycenter position along world x axis                     [deg]
#   6 Y_WORLD                Barycenter position along world y axis                     [deg]
#   7 A_WORLD                Profile RMS along major axis (world units)                 [deg]
#   8 B_WORLD                Profile RMS along minor axis (world units)                 [deg]
#   9 THETA_WORLD            Position angle (CCW/world-x)                               [deg]
#  10 FWHM_WORLD             FWHM assuming a gaussian core                              [deg]
#  11 ELONGATION             A_IMAGE/B_IMAGE                                           
#  12 ELLIPTICITY            1 - B_IMAGE/A_IMAGE                                       
         1 -13.3625      2.7951    128.8115   1.3178402535e+02   4.7366733076e+01     1.203406    0.2852557 -73.16  0.005647775    3.042    0.671
         2 -12.9151    197.0837     32.5404   6.2014050685e+01   3.1679632116e+01     1.243023    0.9347274  38.21  0.006116316    1.371    0.271
         3 -13.7193    211.9065     15.0620   5.4684163107e+01   2.9706558410e+01     1.606429     1.043199  27.72  0.007417283    1.813    0.449
         4 -11.3270      2.0808     13.6263   1.1478085666e+02   7.1381335990e+01    0.4278098    0.1446889 -66.32  0.001972792    2.837    0.648
         5 -11.5041      3.2206      4.2593   1.1084004694e+02   7.3105649523e+01    0.4900323    0.2537228 -39.24   0.00309838    1.542    0.352
         6 -10.2892    132.4825    223.9314   1.1560804171e+02   1.5209759144e+01    0.2128442    0.1649937  51.89 0.0009772214    1.033    0.032
         7 -10.9209    184.6659    250.2471   1.1019101420e+02   4.4312465177e+00    0.3129408    0.1178972  44.33  0.001812569    1.878    0.468
         8 -10.7340    169.6884    248.6387   1.1229025460e+02   6.7759279465e+00    0.2583466    0.1600795  24.94 0.0008694134    1.886    0.470
         9 -11.0520    149.9713    248.6785   1.1530941020e+02   9.6173497059e+00    0.2526865    0.1951832  83.00  0.002041857    1.709    0.415
        10 -10.5041     91.6565    225.5450   1.2245812897e+02   2.0685344077e+01    0.3581029    0.1228055  49.53  0.001355933    2.177    0.541
        11 -11.5618    100.2011    247.7903   1.2283248002e+02   1.6533656765e+01    0.6336153    0.2545642  52.83  0.003742947    1.868    0.465
        12 -12.4805    123.9447    242.9268   1.1879432925e+02   1.3971032100e+01    0.6277313    0.5381814  16.92  0.005255607    1.705    0.413
        13 -10.8442     85.2950    234.8578   1.2418136525e+02   2.0176161982e+01    0.3896962    0.1631634  59.90  0.001801391    2.186    0.543
        14 -10.5948    115.5913    250.4121   1.2070462242e+02   1.4179181797e+01     0.393333    0.1147003  45.17   0.00111097    2.369    0.578
        15 -11.2518    109.4324    246.4001   1.2132195300e+02   1.5502154506e+01    0.3161386    0.2425761  75.70  0.001509751    1.327    0.246
        16 -11.0557    112.8963    230.8412   1.1947182232e+02   1.7078832270e+01     0.352446    0.2355385  43.10  0.001627818    1.285    0.222
        17 -11.2794    104.8871    227.7454   1.2049462673e+02   1.8605694673e+01    0.4033094    0.2543361  64.54  0.002290315    1.417    0.294
        18 -11.3653     98.9180    223.5137   1.2110438298e+02   2.0015578224e+01     0.461673    0.2200662  57.32  0.002847856    1.804    0.446
        19 -11.5320     98.6382    232.6652   1.2190913529e+02   1.8758530445e+01    0.6873133    0.2885237 -79.38   0.00337342    4.492    0.777
        20 -10.3870     91.4572    241.5250   1.2370785537e+02   1.8480177181e+01    0.1939858    0.1361725  51.90 0.0007094056    1.113    0.101
        21 -10.5215     89.8150    238.2269   1.2372178257e+02   1.9137014066e+01    0.1896685    0.1555214  76.41   0.00090136    1.254    0.202
        22 -11.1813     87.7270    248.6491   1.2477026120e+02   1.8003278295e+01    0.3950071     0.188193  51.88 0.0008148176    1.470    0.320
        23 -10.1247     81.9376    246.8218   1.2551572785e+02   1.8958618447e+01    0.2015064      0.12829 -76.34   0.00164062    1.822    0.451
        24 -11.0186     74.1657    242.7934   1.2642553791e+02   2.0443927312e+01    0.3867162    0.3011074  11.92  0.002860951    2.778    0.640
        25  -9.3134     62.5236    250.4821   1.2859633024e+02   2.0760090979e+01    0.1701481   0.09818375  35.74 0.0008039863    2.009    0.502
        26 -11.4587     60.3926    245.9543   1.2866112439e+02   2.1615600796e+01    0.4308867    0.2449978  48.24  0.003076319    1.329    0.248
        27  -9.2323     66.9482    243.8271   1.2757028034e+02   2.1154431278e+01    0.2293183    0.1137944  39.39 0.0009361068    1.891    0.471
        28 -13.0211      3.1778    187.3739   1.3478982286e+02   3.6439020945e+01     1.715551    0.2394769 -78.26  0.006945136    5.639    0.823
        29 -13.7589     10.8915    208.6815   1.3439813982e+02   3.2250191519e+01     1.673291    0.7605157 -67.60    0.0118273    2.402    0.584
        30 -13.2828      3.8244    245.1320   1.3663382095e+02   2.7431101630e+01    0.8269904    0.3743056  78.16  0.006733292    1.711    0.416
        31 -12.7904     13.9028    238.6809   1.3504394084e+02   2.7431185139e+01    0.6162091    0.2965621  57.64  0.005052306    1.364    0.267
        32 -12.7914     32.9270    227.4262   1.3181743384e+02   2.7236166588e+01    0.3533921    0.2502294 -74.26 0.0008155809    1.667    0.400
        33 -14.1798     39.5941    218.6323   1.3035038251e+02   2.7888317871e+01     1.435571    0.9797025  23.98   0.01045293    2.508    0.601
        34 -11.7210    134.2242    232.4815   1.1619147425e+02   1.3835302662e+01    0.4289844    0.2255309 -39.34   0.00254777    3.261    0.693
        35 -11.2656    166.2172    242.0659   1.1212267220e+02   7.9920307893e+00    0.3096684    0.1313087  46.91  0.001836893    1.750    0.428
        36  -9.5535    152.5059    242.9886   1.1435328541e+02   9.8997248634e+00    0.1255987   0.08316381  84.88 0.0008102055    2.547    0.607
        37 -10.2540     84.6467    241.7288   1.2476533682e+02   1.9309634452e+01    0.1984297     0.139988  42.09  0.001502277    1.425    0.298
        38  -9.1264     83.6319    238.3188   1.2468519321e+02   1.9903174021e+01    0.1694333   0.04966726  49.66 0.0009101796    2.414    0.586
        39 -10.6622    135.9982    225.4697   1.1518880294e+02   1.4485587067e+01    0.3861583    0.1639888 -55.27  0.001391057    3.106    0.678
        40 -10.4558    244.2185    240.5956   1.0013165848e+02  -3.3550943309e+00    0.1545987   0.06694833  34.86 0.0004990618    1.656    0.396
        41 -10.7902    116.8039    238.1720   1.1949518148e+02   1.5564163095e+01    0.2802554    0.2226877 -26.01  0.001633741    2.284    0.562
        42 -11.0589    122.5267    232.9470   1.1811548036e+02   1.5450024110e+01    0.2818623       0.2276 -67.39  0.001927823    1.580    0.367
        43 -10.7018    105.3805    237.1869   1.2120963480e+02   1.7245393126e+01     0.242974    0.2152033  15.94  0.002043112    1.764    0.433
        44  -9.2267    173.1055    236.1869   1.1038899579e+02   7.6111343794e+00    0.1395857    0.1000867  53.23 0.0002340484    1.302    0.232
        45 -10.6532    156.7260    231.8774   1.1250912594e+02   1.0578823166e+01    0.1913876    0.1676979  35.49 0.0004713838    1.233    0.189
        46 -11.7950    131.7840    248.8039   1.1810508035e+02   1.2166399276e+01    0.7349116    0.1685455  42.59  0.003357215    3.206    0.688
        47  -8.8314     62.6697    232.9951   1.2757195772e+02   2.3179377210e+01    0.1254575   0.09026121  67.90 0.0003112094    1.087    0.080
        48  -9.4885    142.5566    227.7409   1.1435425056e+02   1.3215917266e+01    0.1290251   0.09897816 -85.17 0.0009531776    1.711    0.415
        49 -12.8187    135.5182    241.0312   1.1681479123e+02   1.2579342919e+01    0.7514678    0.5119699  50.92  0.005798702    1.081    0.075
        50  -9.1614     45.8488    231.1365   1.3004159109e+02   2.5332193076e+01    0.1568284   0.08487687  62.89  0.001199712    1.353    0.261
        51  -9.4502    250.3196    230.6673   9.7855667736e+01  -3.4439828441e+00   0.09004483   0.07707825  47.07 0.0007048873    1.696    0.410
        52 -10.7368     84.7973    229.3619   1.2385682956e+02   2.1018504698e+01     0.173366     0.138647  59.11 0.0001488933    1.164    0.141
        53  -9.1864     61.5539    238.9761   1.2809618440e+02   2.2453466848e+01    0.1535517      0.10167  47.21  0.000817211    1.326    0.246
        54 -10.4124     79.6298    225.4767   1.2439653433e+02   2.2234222322e+01    0.3148443    0.2004409  88.08  0.001330318    1.615    0.381
        55  -9.2533     77.4334    220.5632   1.2438839242e+02   2.3239989650e+01    0.1488468    0.1072608  50.55 0.0004549525    1.203    0.168
        56  -8.4165     55.2447    227.2826   1.2838119189e+02   2.4866907995e+01   0.07601015   0.06854874  72.26 0.0001866987    1.458    0.314
        57 -10.4563    116.9987    224.4844   1.1821822644e+02   1.7376874490e+01    0.2526242    0.1735089  39.53   0.00049275    1.377    0.274
        58  -9.4095    160.0784    223.7612   1.1103984761e+02   1.1052530999e+01    0.1844597    0.1079529  27.53  0.001091329    2.042    0.510
        59 -10.8121    142.1391    221.6223   1.1376021071e+02   1.4072773010e+01    0.2935452    0.1615095  40.73 0.0009972753    1.482    0.325
        60 -10.9236    245.9630    219.7566   9.6898133552e+01  -1.9023841578e+00    0.2796544    0.1522991  -1.52  0.001687555    2.242    0.554
        61  -9.3527     65.0728    224.6207   1.2666709317e+02   2.4130776342e+01    0.1580343    0.1192734 -57.74  0.001273224    1.921    0.479
        62 -10.3734     70.0102    218.2001   1.2543000770e+02   2.4512557499e+01    0.4426384    0.2233541  86.94  0.002786552    2.283    0.562
        63 -11.0193     96.9601    239.8533   1.2273459824e+02   1.7997605353e+01    0.2630876    0.2315375  -1.58  0.002180992    2.066    0.516
        64  -9.0806     62.5762    217.9423   1.2662553387e+02   2.5439379939e+01    0.1523839    0.1109326  47.00 0.0006158391    1.338    0.253
        65  -8.8855    118.5003    217.5708   1.1729247388e+02   1.8134993075e+01    0.1086925   0.08344276  51.58 0.0001047375    1.057    0.054
        66  -9.8048    137.1261    214.2270   1.1377818696e+02   1.5834086688e+01    0.1772587    0.1403169  65.28 0.0003447454    1.232    0.188
        67  -9.5051     88.3372    213.0018   1.2196887893e+02   2.2992338782e+01    0.2469349    0.1435933  86.22  0.001425506    1.983    0.496
        68  -9.1078    159.9892    213.7267   1.0983866807e+02   1.2331915361e+01    0.1538974    0.1173829  44.49 0.0003785062    1.015    0.015
        69  -9.2896    101.8574    211.6823   1.1954697404e+02   2.1363837898e+01    0.2571364   0.08963789  56.55   0.00116299    3.137    0.681
        70  -9.2479     97.1996    210.8168   1.2026441237e+02   2.2137739847e+01     0.171675    0.1333338 -53.50   0.00056972    1.744    0.427
        71 -10.1073     92.7686    205.2724   1.2051740897e+02   2.3604165913e+01    0.5295691    0.1867567  45.97  0.002371822    2.207    0.547
        72  -9.1381    106.8326    209.8844   1.1851770976e+02   2.0937953440e+01    0.1508794    0.1345253  46.35 0.0005774355    1.302    0.232
        73  -9.7993    112.5779    208.3646   1.1736910333e+02   2.0343892933e+01     0.205652    0.1482653  55.72 0.0004455806    1.089    0.082
        74  -8.6069    134.3524    208.3251   1.1358014758e+02   1.7090771029e+01    0.1079691   0.08233238  20.66 0.0007047629    1.761    0.432
        75  -9.2727     74.9354    208.3191   1.2385996849e+02   2.5448267450e+01     0.201959    0.1025684  45.34  0.001299996    1.604    0.377
        76 -10.8097    134.6304    236.8198   1.1655159512e+02   1.3227531219e+01    0.2010668    0.1776832 -15.49  0.000606633    1.733    0.423
        77  -8.9540     32.8671    207.0189   1.3080947564e+02   3.0425310691e+01    0.1192638    0.1040145 -78.06 0.0004134498    1.545    0.353
        78 -10.4403    246.2421    206.0460   9.4730910052e+01  -7.2869827087e-01     0.250351    0.1003312  27.42  0.001184536    2.681    0.627
        79  -8.8484    125.6346    205.8011   1.1481261715e+02   1.8791064853e+01    0.1358194    0.1014124 -80.82 0.0005161319    1.600    0.375
        80  -8.8101     74.6492    203.7086   1.2353564667e+02   2.6224796628e+01    0.2139046    0.1275186  29.72 0.0008343476    2.321    0.569
        81  -9.3440    103.9005    203.0902   1.1834944813e+02   2.2400961108e+01    0.1502206    0.1329801  10.85 0.0007708797    1.712    0.416
        82 -10.3689    250.0307    201.1507   9.3361012015e+01  -8.7093539343e-01    0.2572007    0.1344681  -1.49  0.001395523    2.412    0.585
        83  -9.4167    114.2379    201.3008   1.1632658912e+02   2.1180627074e+01    0.2618079    0.1879409   8.48  0.001482943    2.869    0.651
        84  -9.9681     84.4185    201.2425   1.2161335130e+02   2.5366866307e+01    0.2872955    0.2118182 -38.32  0.001776537    2.356    0.576
        85  -9.1884     86.1187    195.6215   1.2078909261e+02   2.6063285861e+01    0.1541155    0.1169977  54.46 0.0004576726    1.121    0.108
        86  -8.9624     64.3943    201.7862   1.2516129577e+02   2.7798936775e+01    0.1442686    0.0990027  58.18 0.0006037296    1.128    0.113
        87  -8.9532    183.0637    200.3376   1.0409471450e+02   1.0259432375e+01    0.1647414    0.1178036  42.50 0.0003200519    1.122    0.108
        88  -8.8152    127.9134    199.6977   1.1370245319e+02   1.9356287517e+01    0.1573982    0.1187219  51.22 0.0004066579    1.063    0.059
        89  -9.6509     44.4731    199.1348   1.2840550531e+02   3.0510111454e+01    0.2279048    0.1843037  28.93  0.001817255    1.803    0.445
        90  -9.4264     27.8958    198.1186   1.3115407814e+02   3.2387756922e+01    0.2334555    0.1353959 -72.28  0.001744522    1.745    0.427
        91  -8.9919     31.6058    195.4078   1.3037605698e+02   3.2476492442e+01    0.2342968   0.06373659  49.98  0.001256305    2.643    0.622
        92  -8.8350    119.8325    199.2146   1.1509331518e+02   2.0666733041e+01    0.1401247    0.1196953  40.51 0.0002871043    1.260    0.206
        93 -11.6422     59.9611    194.3806   1.2536728985e+02   2.9564320214e+01    0.3288805     0.302058 -72.66  0.001227155    1.490    0.329
        94  -8.7990    145.0471    198.0008   1.1042885359e+02   1.6892859352e+01    0.1331759    0.1176817  54.84  0.000359597    1.103    0.093
        95  -9.9675    102.6734    196.1655   1.1785078869e+02   2.3678931186e+01    0.2547315     0.209203  -7.00  0.001265479    2.187    0.543
        96  -9.9591     96.4899    195.8928   1.1894191524e+02   2.4598949135e+01     0.258101    0.1398782  50.31  0.001581765    1.496    0.332
        97  -9.3053     38.5031    192.4330   1.2900699387e+02   3.2278607124e+01    0.1542522    0.1038345 -75.09 8.640953e-05    1.499    0.333
        98  -9.8174     40.6586    188.2464   1.2835359276e+02   3.2775668272e+01    0.2328057    0.1563693  73.04 0.0007092178    1.152    0.132
        99 -10.6999    249.4755    194.0004   9.2252660056e+01  -1.1374016568e-01    0.3051389    0.1775957  27.30  0.001878773    1.417    0.294
       100 -11.5571     41.4995    205.8868   1.2932492518e+02   2.9713783052e+01    0.5562061    0.1588404  46.00  0.002365289    2.491    0.599
       101 -11.4191     39.6523    230.3939   1.3094281007e+02   2.6100495752e+01    0.2749573    0.1880591  86.10 0.0008815841    1.324    0.245
       102  -9.5881     53.9717    198.4597   1.2672269305e+02   2.9569712818e+01     0.251333    0.1284704  47.57  0.000949238    1.589    0.371
       103  -8.8098     72.5403    192.9740   1.2299812877e+02   2.8271181335e+01    0.1366407   0.09541097 -77.52 4.164852e-05    1.443    0.307
       104  -9.7799     25.8069    192.5642   1.3120648813e+02   3.3529540269e+01    0.1898664    0.1150752  72.93 0.0007404525    1.255    0.203
       105  -9.6116    191.5034    191.4811   1.0130164196e+02   9.9346701880e+00     0.208267    0.1670022  36.84 0.0006220919    1.014    0.014
       106  -9.1602    113.5291    191.1360   1.1530559883e+02   2.2897700630e+01    0.2380602   0.09741112 -47.38  0.001130834    3.345    0.701
       107 -13.6196     28.5833    246.7430   1.3327105102e+02   2.4886265398e+01     1.237324    0.4724443  44.63  0.008918879    1.901    0.474
       108  -9.5424     31.7136    189.9329   1.3003616215e+02   3.3401517929e+01    0.2794636   0.09318863  44.35  0.001619882    2.332    0.571
       109  -9.5643     77.1061    188.5390   1.2176311681e+02   2.8446412363e+01    0.1681579    0.1331097  88.19 0.0001603051    1.188    0.159
       110 -10.4715    250.3642    187.5797   9.1012034391e+01   3.6181125808e-01    0.2347575    0.1309358 -12.66  0.001354857    1.934    0.483
       111 -11.0058     83.8017    186.8492   1.2035860123e+02   2.7855950929e+01    0.1884345    0.1511423  70.64 0.0002425778    1.040    0.038
       112 -11.5475     66.4252    186.9578   1.2358764112e+02   3.0065150809e+01    0.2155637     0.200414  88.63 0.0004658055    1.361    0.265
       113  -8.7857     65.7532    182.0211   1.2327577209e+02   3.1015786516e+01    0.1314081    0.1167568  82.49 0.0002136792    1.239    0.193
       114 -13.5842     39.7275    242.8032   1.3151729189e+02   2.4302899777e+01     1.154737    0.5856659  52.20  0.009181784    1.358    0.264
       115  -9.8986     28.6696    184.2894   1.3023225407e+02   3.4685126381e+01    0.2257558    0.1858159  27.67   0.00114409    1.783    0.439
       116  -9.1687     24.1647    184.1617   1.3102229347e+02   3.5140375599e+01    0.1567583    0.1194165  49.45 0.0006736878    1.370    0.270
       117  -9.3166     36.9471    183.2876   1.2868564266e+02   3.4032694085e+01    0.1981991    0.1083564  73.66  0.001327261    1.568    0.362
       118  -9.1621    140.1374    183.1747   1.0932349353e+02   1.9944952316e+01      0.16812    0.1446143  41.04 0.0003048753    1.138    0.121
       119 -10.4716    127.7630    182.6492   1.1158204529e+02   2.2057802394e+01    0.2013117    0.1721589  65.41 0.0003091204    1.084    0.077
       120  -9.3879    107.8161    182.5695   1.1535966572e+02   2.5177447307e+01    0.1634007    0.1496469 -83.78 0.0004367744    1.224    0.183
       121 -10.1391     86.0317    180.3901   1.1927130654e+02   2.8679112488e+01    0.2573952     0.165315  87.31 0.0004356875    1.648    0.393
       122 -12.3003     16.6298    217.5783   1.3386665193e+02   3.0325203623e+01    0.6129113    0.5085278  15.73  0.005332519    2.273    0.560
       123 -12.2287    248.0932    172.4061   8.8628887725e+01   2.2778470199e+00    0.6066239    0.4018275  -9.33  0.003719711    1.499    0.333
       124 -12.0084    245.2946    163.4435   8.7368817222e+01   3.7289003878e+00    0.5582392    0.2705462 -33.78  0.002836833    2.268    0.559
       125 -11.9818    246.5083    157.6929   8.6052997752e+01   4.1500990945e+00     1.105773    0.8213242 -80.22  0.005293807    3.506    0.715
       126  -8.6771     92.5391    178.4290   1.1780542894e+02   2.8120635851e+01    0.1153975   0.09409418  65.18 -4.651017e-06    1.008    0.008
       127  -8.7167     12.4830    178.4886   1.3278092965e+02   3.7199964491e+01   0.09927535   0.07180045  76.06 0.0008100945    1.034    0.033
       128  -9.1158    125.9911    177.2920   1.1119454895e+02   2.3227167805e+01    0.1660623    0.1333715  53.58 0.0002383035    1.055    0.052
       129 -10.5049    103.0854    176.0885   1.1548253394e+02   2.7001697851e+01     0.194786    0.1659109  57.63            0    1.089    0.082
       130 -11.7760    107.8545    172.8872   1.1414362157e+02   2.6844195740e+01    0.2278991    0.1886182  65.05 0.0002854652    1.036    0.035
       131 -10.7537     76.5614    174.9348   1.2052465126e+02   3.0919629255e+01    0.2062405    0.1721913  80.42 0.0004473859    1.086    0.080
       132 -11.4798     63.5416    173.3827   1.2290187021e+02   3.2843978552e+01    0.3223308    0.2060481  81.53 0.0006513591    1.459    0.315
       133 -10.9448     14.4902    167.1331   1.3180269921e+02   3.9077518145e+01    0.2620367    0.1854195  53.42  0.001456094    1.316    0.240
       134 -10.5214     11.9664    173.3409   1.3260742843e+02   3.8164155471e+01    0.2172081     0.163229 -57.19  0.001738826    1.826    0.452
       135  -8.9283     91.1484    172.7307   1.1742155120e+02   2.9332521070e+01    0.1372363     0.135015  79.79 0.0006425533    1.337    0.252
       136 -11.1657     45.9860    172.2568   1.2619040806e+02   3.5069656062e+01    0.3002593    0.2187437 -58.47 0.0003378565    1.695    0.410
       137 -10.8753     43.7048    168.6945   1.2634169347e+02   3.5975148584e+01    0.5070885    0.1768942 -61.83  0.002636606    2.810    0.644
       138  -8.4888    150.7674    170.0442   1.0533187620e+02   2.0205401358e+01      0.13727    0.1068052 -51.40            0    1.485    0.326
       139 -10.8628      7.0922    167.1669   1.3317608848e+02   3.9690010805e+01    0.2525724    0.1143728 -80.63  0.001452299    1.805    0.446
       140  -9.0904    134.0275    167.6432   1.0822633080e+02   2.3514797656e+01    0.1726134    0.1381087  49.43 0.0004360246    1.093    0.085
       141 -11.7249     84.4228    166.4015   1.1802255664e+02   3.1429336797e+01    0.5230224    0.3604018  46.13  0.003371625    1.356    0.262
       142 -10.4565     19.1292    172.9181   1.3127897913e+02   3.7612205044e+01    0.3550264    0.1569624  61.11  0.001738194    1.879    0.468
       143  -9.5997     22.0248    163.4778   1.3014974957e+02   3.9090169183e+01    0.1371942   0.08897438  45.62 0.0004120152    1.507    0.336
       144  -9.0979     58.1808    162.3668   1.2290214502e+02   3.5543495770e+01    0.1521806    0.1157989  67.49 0.0004476178    1.095    0.087
       145 -10.7365     12.4675    161.4886   1.3185758019e+02   4.0295022554e+01    0.1901138    0.1363029  79.54  0.001515332    1.019    0.018
       146  -9.8802     89.7689    160.0577   1.1614897878e+02   3.1865464734e+01    0.1973725    0.1508445  52.22 0.0002824011    1.195    0.163
       147  -8.6711     73.5176    159.5168   1.1945455033e+02   3.4187930161e+01    0.1176793   0.09552942  74.55 4.437421e-05    1.026    0.025
       148 -10.2345     27.8793    171.5665   1.2957200927e+02   3.7045980509e+01    0.2582343    0.1553151 -66.23  0.001221508    1.726    0.421
       149 -10.9305     31.7489    155.7381   1.2767017030e+02   3.9649988646e+01    0.2911195    0.1865315 -57.15  0.001283088    1.832    0.454
       150  -9.3409     71.2099    156.8557   1.1962926205e+02   3.4997521803e+01    0.2039813    0.1596004   5.51  0.001251922    2.233    0.552
       151 -13.4816      3.9874    142.7647   1.3242207912e+02   4.4531097871e+01     1.100725    0.4934958 -84.08  0.006877512    1.763    0.433
       152  -8.7744    228.3447    155.2563   8.8512130697e+01   7.7777736833e+00    0.1639181    0.1144512 -33.76 0.0004864484    1.604    0.377
       153  -9.5000     84.8344    155.1773   1.1655550582e+02   3.3492965571e+01    0.1763121    0.1368633  71.67 0.0002713763    1.154    0.133
       154 -11.6491     23.2735    154.3678   1.2927630599e+02   4.0705712444e+01    0.3954591    0.2055985  55.55  0.002584993    1.672    0.402
       155 -10.1450     23.5515    149.4932   1.2885910177e+02   4.1624525101e+01    0.1639304    0.1146728  62.65 0.0006340551    1.235    0.190
       156  -9.4093    104.6137    153.2721   1.1209484590e+02   3.0926493506e+01    0.2271707    0.1610475  68.84 0.0007648729    1.431    0.301
       157 -10.3847     90.0288    153.2383   1.1519533371e+02   3.3127391489e+01     0.232556    0.1909942 -60.59 0.0003198397    1.326    0.246
       158 -12.9074    247.7078    101.0707   7.3395332700e+01   1.0694649755e+01     1.163729    0.6256087 -24.54  0.005464755    1.750    0.429
       159 -11.9210    248.0226    112.9326   7.6160627593e+01   9.1575420760e+00    0.9600401    0.5327539   6.77  0.004100572    2.469    0.595
       160 -12.9124    248.6631    133.5922   8.0712684979e+01   6.5285761763e+00     1.337436    0.6553122 -26.85  0.006423234    1.981    0.495
       161 -10.4320     97.3906    151.1047   1.1332081345e+02   3.2449727143e+01    0.2773294    0.2274196 -75.79  0.001032547    1.203    0.168
       162 -12.1334     68.4382    144.3477   1.1872201101e+02   3.7812378613e+01    0.5838241    0.3837779  79.47  0.002220849    1.529    0.346
       163 -11.0289     72.9938    139.4752   1.1706828203e+02   3.8204984855e+01    0.3376064     0.183053 -61.71  0.001110394    1.757    0.431
       164  -9.9548     59.3749    150.0238   1.2136400423e+02   3.7796568126e+01     0.407582    0.1584393  65.29  0.001554215    4.239    0.764
       165  -9.4115     40.9541    147.4990   1.2504263720e+02   4.0341295265e+01    0.1543167   0.09917014  44.03 0.0006898815    1.557    0.358
       166  -9.9169    235.9742    146.0147   8.5372956311e+01   7.4625334420e+00    0.2065518    0.1656614  17.26 0.0005347554    1.081    0.075
       167  -9.9719     85.2054    148.5900   1.1560148629e+02   3.4720113249e+01    0.4074335     0.204882  86.29  0.001617447    3.739    0.733
       168  -9.9472    133.4063    141.4518   1.0396746643e+02   2.8267728247e+01    0.4810578    0.2218969 -54.64  0.002094505    2.456    0.593
       169  -9.5278     32.3542    145.1315   1.2665890195e+02   4.1666859517e+01    0.1689315    0.1166258 -64.63 0.0009469583    1.473    0.321
       170  -8.5970    104.9954    142.9441   1.1042040709e+02   3.2846926357e+01    0.1470069    0.1309132  71.04 0.0003033066    1.011    0.010
       171 -10.1164     32.8297    140.7754   1.2616505957e+02   4.2490933027e+01    0.2345719    0.1386832  76.12  0.001079431    1.541    0.351
       172 -12.0292     16.4643    139.2913   1.2957374319e+02   4.4241718337e+01    0.5204397    0.1656683  52.89  0.002619989    2.925    0.658
       173 -10.0051     36.8915    140.1307   1.2521582721e+02   4.2225259240e+01    0.1773165    0.1216631  75.61 0.0008079665    1.257    0.205
       174  -9.2478    100.6828    146.2962   1.1189314085e+02   3.2874223398e+01    0.2413505    0.1432018 -38.04  0.001172402    2.528    0.604
       175 -11.0576     60.2659    136.6865   1.1959424875e+02   4.0372607925e+01    0.2649294    0.1976506  83.65  0.001741963    1.203    0.169
       176  -9.8287    109.1043    136.3971   1.0841217077e+02   3.3459383227e+01    0.3033486    0.2319006   6.80  0.001614027    2.103    0.525
       177 -11.2372     44.9020    130.8705   1.2242832300e+02   4.3298921453e+01    0.3296736    0.2269212  70.13  0.001550338    1.348    0.258
       178 -10.5253     33.5746    130.5334   1.2500593893e+02   4.4501725095e+01    0.3059226   0.09250987 -71.99  0.001374106    2.836    0.647
       179  -9.1641    115.2911    129.3308   1.0573096564e+02   3.3803671413e+01    0.1261049    0.1062282 -12.52 0.0002708438    1.627    0.385
       180 -11.0990     67.3626    128.3249   1.1681735814e+02   4.1223173700e+01    0.3090421    0.2262298  77.42   0.00192235    1.328    0.247
       181 -10.6389     59.6415    127.8776   1.1859017130e+02   4.2267100544e+01    0.2492779    0.2146336 -77.49 0.0005287241    1.114    0.103
       182 -11.6581     12.5281    153.9628   1.3139123316e+02   4.1709420190e+01    0.2902333    0.2021945 -63.42  0.001480903    1.606    0.377
       183 -10.0767    209.9277    125.7009   8.5401218150e+01   1.5404487868e+01    0.2494875    0.2144395 -12.81 0.0005189477    1.158    0.137
       184  -9.7173     29.5419    126.5379   1.2553202334e+02   4.5700068422e+01    0.1129013   0.08812429  88.00 -4.406364e-06    1.015    0.015
       185 -11.9242    247.8886    142.4189   8.2719262774e+01   5.6388379259e+00    0.8737602    0.5400341  51.34  0.004685271    1.758    0.431
       186 -10.7925     23.6432    126.5379   1.2690064339e+02   4.6219787034e+01     0.228817    0.1126787 -73.98  0.001357129    1.656    0.396
       187 -11.1274     23.3521    120.9273   1.2642682832e+02   4.7405073089e+01    0.2470326    0.1219963  50.69  0.001231344    2.000    0.500
       188 -10.6698    192.4754    248.7394   1.0884310087e+02   3.4382879216e+00    0.1923283    0.1352877  38.43 0.0008630643    1.008    0.008
       189  -9.3569     28.6466    119.3259   1.2499127097e+02   4.7281636911e+01     0.121489   0.06908597  69.98  0.000132339    1.766    0.434
       190  -9.9827    231.9675    116.3066   7.9466714520e+01   1.2045923655e+01    0.1961084    0.1706925  19.63 0.0006817743    1.043    0.041
       191 -11.6947     11.0304    115.9443   1.2890147368e+02   4.9403639957e+01    0.3413364    0.2117807  16.10   0.00163588    2.386    0.581
       192 -11.7504      9.8266    112.1750   1.2885761250e+02   5.0271652995e+01    0.2124066    0.2058506  20.89  0.001137553    1.448    0.309
       193 -10.2175    168.0509    113.1366   9.0551339677e+01   2.6443807347e+01    0.3286173    0.2694957 -87.30 0.0009751485    1.588    0.370
       194  -9.3137    113.8997    150.7666   1.0973647835e+02   2.9910252809e+01     0.250636    0.1924306 -80.98 0.0007831381    1.404    0.288
       195  -8.8776    203.4877    111.5256   8.3233163080e+01   1.8884499589e+01    0.1455426    0.1313452  17.88 4.219921e-05    1.032    0.031
       196 -10.7767     10.9931    150.2287   1.3146247627e+02   4.2548944197e+01    0.1491993    0.1340375  70.27 0.0003543574    1.330    0.248
       197 -11.3950     15.1066    104.9645   1.2683575873e+02   5.1404622494e+01    0.2542482    0.1736204 -69.44 0.0009766519    1.229    0.186
       198 -10.8852    249.6081    150.9804   8.4220867423e+01   4.3424747051e+00    0.3961236    0.2779764 -20.69  0.002275778    1.405    0.288
       199 -10.1782     16.9467     99.1274   1.2571334352e+02   5.2508814663e+01    0.1706982    0.1232978  80.98 0.0003293904    1.248    0.199
       200  -9.3997     29.4550    109.4706   1.2366761721e+02   4.9292142642e+01    0.1152381   0.09141313 -84.75 5.218092e-05    1.006    0.006
       201 -10.2392    249.8407    117.8404   7.7018881517e+01   8.1906136920e+00    0.4528202    0.2660029   8.06  0.001768621    2.082    0.520
       202 -10.0607    143.7266    249.5782   1.1635037414e+02   1.0402523809e+01    0.1485246   0.06927194  49.58 0.0009470547    1.591    0.372
       203 -11.5841    199.2030    246.2593   1.0753908484e+02   2.6880013030e+00     0.359206    0.1357035  48.86  0.001946206    2.320    0.569
       204 -11.5978    177.0974    242.8379   1.1052122982e+02   6.2969983641e+00    0.4142887    0.1606891  49.99  0.002019068    2.230    0.551
       205  -9.3807     16.5128     25.4764   1.1172824286e+02   6.8159722220e+01    0.1150152   0.09045412 -53.40 0.0008092687    1.064    0.060
