#   1 NUMBER                 Running object number                                     
#   2 MAG_AUTO               Kron-like elliptical aperture magnitude                    [mag]
#   3 X_IMAGE                Object position along x                                    [pixel]
#   4 Y_IMAGE                Object position along y                                    [pixel]
#   5 X_WORLD                Barycenter position along world x axis                     [deg]
#   6 Y_WORLD                Barycenter position along world y axis                     [deg]
#   7 A_WORLD                Profile RMS along major axis (world units)                 [deg]
#   8 B_WORLD                Profile RMS along minor axis (world units)                 [deg]
#   9 THETA_WORLD            Position angle (CCW/world-x)                               [deg]
#  10 FWHM_WORLD             FWHM assuming a gaussian core                              [deg]
#  11 ELONGATION             A_IMAGE/B_IMAGE                                           
#  12 ELLIPTICITY            1 - B_IMAGE/A_IMAGE                                       
         1 -14.9126     79.4029    168.7713   6.6037634288e+01   2.9903678237e+01     5.795313     2.684184  88.30   0.01107554   12.057    0.917
         2 -13.6820    246.2869     23.3147   3.5923887420e+02   2.1915188552e+01    0.8221329    0.5531827 -43.10  0.004774232    1.238    0.192
         3 -10.1724      1.4675      9.5037   6.1340017871e+01   7.5975304650e+01    0.1208143   0.09368108 -22.12 1.508829e-05    1.013    0.013
         4 -10.9823     71.9503      7.5514   1.9627859051e+01   6.4960425366e+01    0.2764399     0.149536  56.76 0.0008208627    1.650    0.394
         5 -10.6486    146.9963    242.7510   5.9932844704e+01   5.2916267076e+00    0.1766793     0.131623  26.37 0.0004136714    1.053    0.050
         6 -10.6241    144.9667    250.3161   6.1298461282e+01   4.4314521537e+00     0.174181    0.1273725  24.72 0.0005943985    1.053    0.051
         7 -10.9347     75.2642    248.0516   7.5780136597e+01   1.3984724128e+01    0.4900245    0.1625796 -52.59  0.002147432    3.913    0.744
         8 -16.0587     57.1633    231.1062   7.8393260372e+01   1.9311409643e+01      3.59248     2.845672 -39.50   0.02321733    1.718    0.418
         9 -10.1318    185.0000    232.9688   5.0878865428e+01   1.5308787845e+00    0.1712054   0.06655107 -41.15 0.0005137506    2.891    0.654
        10 -10.8982    176.9510    230.6762   5.2129093575e+01   2.9560298382e+00    0.2657325    0.1560812 -21.71   0.00138532    1.949    0.487
        11 -13.2804    134.3474    229.5468   6.0914729352e+01   9.1920742944e+00    0.6829581    0.3186994  25.69  0.003155712    2.034    0.508
        12 -12.7636    127.1537    229.3099   6.2465478579e+01   1.0268660107e+01    0.4256511    0.2895682  22.44  0.002447031    1.322    0.244
        13 -12.7838    147.1696    228.7119   5.8024594096e+01   7.4790497389e+00    0.4921178    0.2601544  20.59  0.002398968    1.930    0.482
        14 -12.9968     97.6459    224.2364   6.8523997781e+01   1.5383571968e+01    0.6367677    0.5448455 -69.59  0.003220353    1.406    0.289
        15 -10.4490     90.0445    217.4690   6.9539746730e+01   1.7746842069e+01    0.1992486    0.1120947  32.22 0.0003670098    1.516    0.341
        16 -12.2221     89.3858    223.5935   7.0361266508e+01   1.6645181458e+01    0.6971286    0.4134153  80.98  0.003345014    2.612    0.617
        17 -12.1577     82.2955    221.3945   7.1779783288e+01   1.8030611300e+01    0.5493375    0.2514637  45.51  0.001736219    1.897    0.473
        18 -11.5811     72.3377    226.0000   7.4531049754e+01   1.8432389823e+01    0.2957727    0.1927995  45.49 0.0006007094    1.269    0.212
        19 -12.2490    106.7109    228.4378   6.6933603827e+01   1.3335858128e+01    0.3338131    0.1988503  41.42  0.001813985    1.413    0.292
        20 -11.4176    174.8415    222.9798   5.1393888441e+01   4.3991784789e+00    0.1990753    0.1462318   2.80  0.000623126    1.275    0.216
        21 -10.4664    198.7730    218.4705   4.5966229150e+01   1.7138793299e+00    0.2521087    0.1510016 -43.44  0.001414269    2.047    0.511
        22 -10.6516     95.5942    210.6910   6.7427207577e+01   1.8312848689e+01    0.2211837     0.127565 -55.72 0.0007027594    1.986    0.496
        23 -11.0314    131.1897    203.5804   5.7962843181e+01   1.4319163963e+01    0.2282972    0.1875456 -49.46 0.0007118006    1.412    0.292
        24 -10.1609    136.5638    201.0520   5.6318959140e+01   1.3946019487e+01    0.1875519    0.1370945 -48.88 0.0006589698    1.571    0.363
        25 -10.8866    123.9877    201.2883   5.9320294213e+01   1.5894322610e+01     0.196574    0.1615181  33.64 0.0003910119    1.065    0.061
        26 -10.6859    210.9054    198.6433   4.0346731792e+01   2.8862784201e+00    0.2093661    0.1636369 -24.05 0.0004729835    1.245    0.197
        27 -11.2975    194.0704    196.5436   4.3169583915e+01   5.6682168838e+00    0.5707859    0.3268175 -60.54    0.0021468    4.719    0.788
        28 -11.4971    101.9791    194.1470   6.3685637471e+01   2.0778221105e+01    0.2290328    0.2106333 -70.93 0.0008243304    1.229    0.186
        29 -12.5385     67.9231    191.8719   7.2145955704e+01   2.6166579735e+01    0.4673092    0.2675131  84.89  0.001597919    2.333    0.571
        30 -12.4978    107.8214    190.8355   6.1730644152e+01   2.0569966385e+01    0.4129668    0.3111985 -33.15  0.002183014    1.573    0.364
        31 -11.4920     74.6124    191.2952   7.0339068174e+01   2.5393578609e+01    0.2856795    0.2283732 -71.07  0.000939183    1.357    0.263
        32 -12.0432    125.4260    191.8795   5.7520933997e+01   1.7529191216e+01    0.3295728    0.2046424  60.69  0.001447279    2.306    0.566
        33 -10.1250    206.8286    190.1725   3.9588872508e+01   4.7424996622e+00    0.1759699    0.1283451  -0.19 0.0003523076    1.273    0.214
        34 -14.9887     83.5366    196.5671   6.8683802558e+01   2.2986657882e+01     2.221895      1.25243  49.25   0.01064558    1.697    0.411
        35 -15.6818     17.2179    249.1817   8.7828595060e+01   2.0206614302e+01     1.180264    0.6500944  33.00  0.006456879    1.533    0.348
        36 -15.8971     10.0509    206.3566   8.7547879478e+01   2.9284790678e+01     1.083102    0.7463592   2.19  0.005815064    2.064    0.515
        37 -16.3433     44.4305    175.2495   7.6655591463e+01   3.2920801940e+01     13.16394     5.261188  75.55   0.03932356    5.142    0.806
        38 -16.3484     32.2259    182.9262   8.0642368427e+01   3.2421967827e+01     4.986918     2.193521  54.41   0.02238752    2.196    0.545
        39 -11.9187     61.4463    179.7759   7.2481363524e+01   2.9787097877e+01    0.5191684    0.2909553  51.52  0.001873393    1.735    0.424
        40 -10.4694     55.6522    177.4961   7.3805553595e+01   3.1056331417e+01    0.2803479    0.1282505  28.45 0.0008761837    2.113    0.527
        41 -10.9492    116.1560    181.8325   5.8206227063e+01   2.1133237810e+01     0.218907    0.1898743  56.28 0.0007469717    1.219    0.180
        42 -10.5751     99.4608    181.1932   6.2435342655e+01   2.3975610284e+01    0.3147523     0.196351  24.49  0.000842054    1.657    0.397
        43 -11.4090    173.1643    176.6986   4.3812224402e+01   1.2366856857e+01    0.2705722    0.2512034 -58.71  0.001613331    1.384    0.277
        44 -11.5695    104.2166    171.1983   5.9570469363e+01   2.5443509200e+01    0.4202363    0.2796084 -66.29  0.001441499    1.765    0.434
        45 -10.3155    173.6578    171.3351   4.2671636187e+01   1.3249245938e+01    0.1341245    0.1140892  77.57 0.0007050567    1.760    0.432
        46 -12.5486     89.5510    166.1543   6.2775385154e+01   2.8974323573e+01    0.6539126     0.489531  42.82  0.001925939    1.244    0.196
        47 -13.2328     76.4340    133.4231   6.0943356172e+01   3.9018149963e+01     2.142375    0.8426894  53.14  0.004960733    4.099    0.756
        48 -16.6284      4.1890    234.7246   8.9912131968e+01   2.4085977652e+01     1.419799    0.5508347 -84.44  0.007588703    2.589    0.614
        49 -12.3240     80.4318    160.9981   6.4553882879e+01   3.1608294414e+01    0.6818976    0.3749336  61.81  0.001574901    2.466    0.595
        50 -12.8349     76.4687    151.2908   6.4148501367e+01   3.4571312261e+01    0.8585082    0.5320039 -44.60  0.000464701    1.792    0.442
        51 -12.6116     62.3174    162.2225   7.0019987672e+01   3.3882466658e+01    0.5222336    0.3704033  -3.41  0.001589397    1.949    0.487
        52 -13.7437     65.5739    155.5381   6.8103178545e+01   3.5089090681e+01      1.48643    0.7878183  74.89  0.005382791    3.121    0.680
        53 -13.7240     63.9247    146.2276   6.7180779294e+01   3.7638423743e+01    0.7621377    0.5327015   2.56  0.001048537    1.900    0.474
        54 -14.5541     70.1193    144.8414   6.5017155608e+01   3.7111057944e+01     2.599831     1.279632  70.99  0.007453633    4.853    0.794
        55 -10.7244     72.0698    168.6005   6.8088963936e+01   3.1002793497e+01    0.2546456     0.188546  82.97 0.0006604757    1.523    0.344
        56 -10.4390    110.8125    167.4598   5.7155108548e+01   2.5174598353e+01    0.2790142    0.2008626 -82.35 0.0009244919    1.907    0.476
        57 -10.6115    163.2254    164.1727   4.3542194314e+01   1.6442464715e+01    0.2137656    0.1829743  -0.00 0.0004824843    1.147    0.128
        58  -9.8246     93.5259    242.5238   7.1354953147e+01   1.2618043845e+01    0.1250011   0.09864476  36.99 0.0001162124    1.008    0.008
        59 -11.4794    236.3057    162.9872   2.9383875560e+01   4.4373516720e+00    0.1803161    0.1401101 -18.25 0.0006342148    1.066    0.062
        60 -10.6715     67.2634    239.4031   7.6810567651e+01   1.6525569788e+01    0.2683356    0.1423381 -67.24  0.001311382    2.234    0.552
        61 -11.9915     94.1245    158.2193   6.0145241086e+01   3.0110840368e+01    0.3988863    0.2991278  76.86  0.000544319    1.654    0.395
        62 -10.1151    127.6026    159.4973   5.1233048818e+01   2.3955826809e+01    0.2252733    0.2179991 -16.81 0.0006254057    1.077    0.071
        63  -9.7553    126.5011    156.5089   5.0928952361e+01   2.4810235157e+01    0.2497084    0.1503418 -62.81 0.0009923938    2.155    0.536
        64 -10.6376    111.5035    157.0298   5.5053818950e+01   2.7412863184e+01    0.2813734    0.2285263  87.60  0.001390976    1.540    0.351
        65 -11.7005     43.9761    156.4860   7.4729928571e+01   3.7553624520e+01     0.431043    0.2289081  58.18  0.001680626    2.059    0.514
        66 -11.3025     82.4298    153.4122   6.2721114553e+01   3.3139333335e+01    0.5031201    0.2877199  89.68  0.001831268    3.016    0.668
        67 -11.3656     30.0334    153.1912   7.8560267905e+01   3.9832058506e+01    0.2669557    0.2314525  19.83 0.0004567915    1.279    0.218
        68 -11.7998    133.5450    145.0771   4.6716358278e+01   2.5967161943e+01     1.157767    0.2726641 -52.90  0.002632613    6.528    0.847
        69  -9.6905    123.0101    149.9782   5.0530045574e+01   2.6903768363e+01    0.2448823    0.1864087  73.09  0.001121879    1.761    0.432
        70  -9.8378     44.8211    149.8648   7.3658442490e+01   3.9118214222e+01    0.1887287    0.1460396  68.38            0    1.293    0.226
        71 -12.5607     83.5926    145.9185   6.1050575164e+01   3.4787699414e+01    0.6119212    0.4494157   3.94  0.001264866    1.760    0.432
        72 -11.2672     82.4038    141.1883   6.0539398503e+01   3.6142095988e+01    0.2864646    0.2518031  76.46 0.0002983499    1.210    0.174
        73 -11.3865    108.9099    145.3604   5.3475896898e+01   3.0570035470e+01    0.3055179    0.2684875  42.95 0.0006720262    1.097    0.088
        74 -11.2078     36.8764    142.4828   7.5229108445e+01   4.1852190332e+01    0.2690477    0.2053518 -81.68 0.0009073268    1.261    0.207
        75 -11.1673     72.7933    232.7398   7.5030840229e+01   1.7081357858e+01    0.2588576    0.2132486  88.88 0.0008960943    1.374    0.272
        76 -11.3132    144.4936    138.6223   4.2513103733e+01   2.5174889389e+01    0.4137367    0.2572887 -66.19  0.001192447    2.506    0.601
        77  -9.8062     38.0034    137.5005   7.4226340069e+01   4.3006900147e+01    0.2053404   0.09117962  48.75 0.0008085932    2.399    0.583
        78 -11.6396    105.5550    131.2235   5.1427447817e+01   3.4506180340e+01    0.5126817    0.4374566 -56.43  0.002591688    1.225    0.183
        79 -11.8001    100.4672    133.3020   5.3406494464e+01   3.4957160635e+01    0.6417344    0.3883641  -2.59  0.002063829    3.698    0.730
        80 -11.7132    180.7764    168.1020   4.0531690942e+01   1.2589237119e+01    0.3707671    0.2734017 -50.97    0.0015898    1.633    0.388
        81 -17.6392      6.0220    219.3999   8.8987247557e+01   2.6931533181e+01     3.025928     1.940986  43.51   0.01368951    1.267    0.210
        82 -10.9575    145.7548    130.5303   4.0333063209e+01   2.6608719627e+01    0.4494964    0.2742526 -64.50   0.00172993    2.499    0.600
        83 -10.9444     44.1541    130.6879   7.1206689240e+01   4.4085937118e+01    0.2876218    0.1968619 -61.70   0.00143987    1.393    0.282
        84 -12.6329     86.6489    132.7725   5.7554213613e+01   3.7517151200e+01    0.3984762    0.3101942 -84.46  0.001201514    1.530    0.346
        85 -11.0474     33.7616    126.8029   7.4202476785e+01   4.6186553359e+01    0.4074172     0.249454 -55.25  0.001796482    1.560    0.359
        86 -10.5313    109.6036    126.3625   4.9118757039e+01   3.4868694361e+01    0.2866322    0.2630164  -0.41 0.0008346519    1.160    0.138
        87 -10.7361     96.6735    121.5383   5.1923555287e+01   3.8468446371e+01    0.3055525    0.2441538   6.12  0.001440477    1.497    0.332
        88 -11.0348     60.3459    121.5020   6.4031515415e+01   4.4408903653e+01    0.2794719    0.2292853  66.28 0.0005463304    1.322    0.243
        89 -12.1005     45.2214    121.3388   6.9337584110e+01   4.6371196640e+01    0.5061137    0.3144885  52.02  0.001593558    1.759    0.431
        90  -9.8734    106.3460    116.1050   4.7620186456e+01   3.7890302234e+01    0.2123825    0.1971457 -52.66 0.0004494993    1.111    0.100
        91 -10.2809     43.5595    114.4996   6.8752340906e+01   4.8321658117e+01    0.2433869    0.1180639  38.62 0.0006004818    2.071    0.517
        92 -10.6436     37.1392    113.3677   7.0932719927e+01   4.9309989054e+01    0.2343513    0.1798123  64.85 0.0004574851    1.425    0.298
        93 -11.1638     33.1007    110.1832   7.1916743171e+01   5.0534297000e+01    0.3412861    0.2029114  44.70 0.0009890165    1.792    0.442
        94 -11.1826     28.0537    108.0397   7.3490859905e+01   5.1554369376e+01    0.2568853    0.1997457  28.24 0.0005801728    1.364    0.267
        95 -12.3983     23.7458    104.6631   7.4625954510e+01   5.2787489025e+01    0.4912313    0.3224744  46.06  0.002517433    1.647    0.393
        96 -11.4825     52.7231    110.1380   6.4523793085e+01   4.8325065743e+01    0.3444935    0.2306974  85.22  0.001531211    1.966    0.491
        97 -10.6061    138.1846    111.3397   3.7482789715e+01   3.2231025253e+01     0.238577    0.2082374 -29.71 0.0004117741    1.186    0.157
        98 -10.9929    133.9501    104.8462   3.6859162374e+01   3.4517261570e+01    0.4162967    0.2464459 -70.34  0.001373335    3.342    0.701
        99 -10.3649     46.1506    103.8002   6.5725503725e+01   5.0754880793e+01    0.2103707    0.1877998  69.29 0.0006778889    1.205    0.170
       100  -9.4882     88.3932    101.1973   4.9545799778e+01   4.4846143658e+01    0.2108774    0.1483362 -66.30 0.0004253966    1.693    0.409
       101 -10.5525    110.7487     99.9106   4.2015535773e+01   4.0646649430e+01    0.2554407    0.1861465 -78.03  0.001073169    1.969    0.492
       102 -12.9467     45.1729     94.3754   6.4087811270e+01   5.3246382106e+01    0.5296606    0.4103857  53.07  0.001716698    1.450    0.310
       103 -11.6931     50.9946     90.0120   6.0674082915e+01   5.3590474255e+01    0.2992143    0.1940197  42.64 0.0008024048    1.649    0.394
       104  -9.1344    145.3235     93.3071   3.0860867596e+01   3.4231656618e+01    0.1564902    0.1216109  12.78 0.0004807077    1.645    0.392
       105  -9.7217     60.0314     91.9760   5.7533357572e+01   5.1842752295e+01     0.173333    0.1683405  -6.70            0    1.023    0.022
       106  -9.9341     74.0024     87.6622   5.0949791117e+01   5.0614411765e+01    0.2094411    0.1878766  34.72 0.0004191889    1.113    0.101
       107 -11.3691     24.7570     86.4064   7.1022750076e+01   5.7326682083e+01    0.2456947    0.2215128 -73.39 0.0002745507    1.109    0.098
       108 -11.1066    116.4722     79.3453   3.4251364636e+01   4.3669639838e+01    0.3299586    0.2631067 -81.83 0.0009470476    1.629    0.386
       109  -9.4584    132.5268     77.5472   2.9394121882e+01   4.0233933848e+01    0.1540697     0.146525  81.47 0.0001222951    1.081    0.075
       110 -10.1483     38.9952     76.2270   6.2324713873e+01   5.8413080127e+01    0.1822024    0.1150493  23.54 0.0006317007    1.645    0.392
       111  -9.3491    171.6358     75.2851   2.0370547605e+01   3.1224857543e+01    0.1516266    0.1106427 -76.61 0.0004828762    1.690    0.408
       112  -9.7350    144.4567     71.9514   2.4878514246e+01   3.8345966153e+01    0.2094217    0.1225502 -59.74 0.0004636078    2.299    0.565
       113 -10.2474     30.5219     72.4996   6.5287996602e+01   6.0206435691e+01    0.1367936    0.1253253 -38.92 0.0001088323    1.017    0.017
       114 -12.2884    195.6500     61.2938   1.2878696159e+01   2.7785869973e+01    0.3786007    0.3248356  52.49 0.0007934533    1.273    0.215
       115 -11.7988     13.5157     60.3839   7.0773237545e+01   6.4475208710e+01    0.2418578    0.2177189  88.33 0.0006557999    1.289    0.224
       116 -13.4534    207.6733     53.4480   9.4047505703e+00   2.6191118170e+01    0.8238547    0.7092823 -52.72  0.002962943    1.048    0.046
       117 -14.0708    218.1891     45.9321   6.4725712216e+00   2.4904155612e+01    0.8345575    0.6406205  43.00  0.001313524    1.657    0.396
       118 -11.0203     21.1822     52.6784   6.4589329467e+01   6.5661316888e+01    0.2360881    0.1998433 -37.93 0.0002594629    1.042    0.040
       119  -9.7561     46.2916     50.6390   5.0714002398e+01   6.3185477825e+01    0.1321376    0.1122887  79.47 0.0007028234    1.697    0.411
       120 -10.4224      2.0059     51.0245   7.4875365321e+01   6.7275215623e+01    0.1553714    0.1300106 -44.04 0.0006506651    1.008    0.008
       121 -11.5416     21.6603     33.5837   5.7644191038e+01   6.9669909472e+01    0.2233459    0.2080372  -1.83 0.0005713231    1.183    0.155
       122  -9.5812     50.0207     34.0000   4.1932883489e+01   6.5749239393e+01     0.217452   0.07293838  39.05  0.000571514    2.861    0.650
       123  -9.4083    220.0136    247.0393   4.6490495638e+01  -4.6472718368e+00    0.1340423   0.09623826   5.07            0    1.020    0.019
       124  -9.4607     53.6428     29.2769   3.7971027051e+01   6.5905100979e+01    0.1266636    0.1089773  70.15 0.0007008496    1.655    0.396
       125 -10.3780     60.7190     21.3157   3.0872847232e+01   6.5741659290e+01    0.2164095     0.199141  50.55 0.0006680588    1.252    0.201
       126 -10.3987      2.9672     22.4748   6.5853742304e+01   7.3394306631e+01    0.1771858    0.1096317   7.26  0.001034504    1.599    0.375
       127 -10.9716     33.0463     15.7430   4.1979030557e+01   7.1422112612e+01    0.1848949    0.1468759  15.94 0.0005789397    1.105    0.095
       128 -10.5554    185.1336    244.1335   5.2473787996e+01  -1.7157050714e-02    0.1540672    0.1250419  27.37 0.0005155961    1.311    0.238
