#   1 NUMBER                 Running object number                                     
#   2 MAG_AUTO               Kron-like elliptical aperture magnitude                    [mag]
#   3 X_IMAGE                Object position along x                                    [pixel]
#   4 Y_IMAGE                Object position along y                                    [pixel]
#   5 X_WORLD                Barycenter position along world x axis                     [deg]
#   6 Y_WORLD                Barycenter position along world y axis                     [deg]
#   7 A_WORLD                Profile RMS along major axis (world units)                 [deg]
#   8 B_WORLD                Profile RMS along minor axis (world units)                 [deg]
#   9 THETA_WORLD            Position angle (CCW/world-x)                               [deg]
#  10 FWHM_WORLD             FWHM assuming a gaussian core                              [deg]
#  11 ELONGATION             A_IMAGE/B_IMAGE                                           
#  12 ELLIPTICITY            1 - B_IMAGE/A_IMAGE                                       
         1 -14.7671      8.1838    150.4441   1.4567577344e+02   4.3000160100e+01     10.56358     3.805559  68.34   0.04516301    3.408    0.707
         2 -13.4527    195.1915     28.3163   7.0020529889e+01   3.3158957069e+01     1.487844     1.422627  63.46  0.006919488    1.110    0.099
         3 -13.4093    209.5541      8.4437   6.2851943839e+01   3.1738544760e+01      1.27073    0.9509183  44.01  0.007010736    1.568    0.362
         4 -12.0172      2.6905     20.6980   1.2501965917e+02   7.1319276345e+01    0.5368882     0.195905 -52.13  0.002889258    1.979    0.495
         5 -12.8779      2.4669      8.1189   1.2003844121e+02   7.3513023865e+01     1.529246     0.373189 -48.37  0.007119337    2.825    0.646
         6  -9.6045    197.6512    246.3109   1.1904850651e+02  -2.3396259055e+00    0.1098486   0.08202027  59.17 0.0004730235    1.714    0.417
         7 -11.3013    139.1743    248.2932   1.2944594674e+02   6.6229850773e+00    0.3792273    0.2300605 -57.68  0.002377284    2.099    0.524
         8 -11.2361    124.4372    249.9238   1.3218330116e+02   8.6560558650e+00    0.5117603    0.1126406  41.08  0.001919567    3.755    0.734
         9  -9.7446     29.7861    249.4551   1.4786499952e+02   2.1396151380e+01    0.2478368    0.1385123 -82.14  0.001797557    1.668    0.400
        10  -9.5499      2.1576    249.4700   1.5204063673e+02   2.4265295431e+01    0.1645345    0.1311586 -88.31  0.001476722    1.505    0.336
        11 -10.9492    125.7512    245.5615   1.3149974390e+02   9.1158528610e+00    0.2993792    0.0872461  44.00  0.001305545    2.625    0.619
        12 -10.6319     35.3641    244.0370   1.4670463294e+02   2.1682958073e+01    0.2542404    0.2035441  33.28  0.001776386    1.864    0.463
        13 -10.0757    171.0244    247.4746   1.2379282004e+02   1.7071454821e+00    0.1821612   0.09137353  42.49 0.0005350107    1.553    0.356
        14  -8.7163     57.4668    240.4856   1.4286043159e+02   1.9639263533e+01    0.1104801   0.07995711  66.42 2.289597e-05    1.017    0.016
        15 -12.6431      3.8181    172.9747   1.4818642485e+02   3.8512647239e+01     1.405698     0.257266 -72.58  0.005676699    3.768    0.735
        16 -10.7137    248.4321    249.0757   1.1108098029e+02  -1.0127612571e+01    0.3133079    0.1557636  26.11  0.001893197    1.720    0.419
        17  -8.9460    152.5157    213.0655   1.2250783618e+02   9.9314225702e+00    0.1590098    0.1281678 -55.37 0.0003660149    1.453    0.312
        18 -11.4641     62.2950    199.9214   1.3869871036e+02   2.6608409549e+01    0.2718714    0.2263599 -57.04 0.0005403213    1.573    0.364
        19 -10.7370     18.7677    199.2625   1.4695785221e+02   3.1765755847e+01    0.1987216    0.1420157  70.03  0.000288197    1.084    0.078
        20  -9.6753    192.0070    193.0354   1.1165495997e+02   6.0910572289e+00    0.3898028     0.210928 -65.27  0.001255213    5.587    0.821
        21 -12.6172     36.1203    234.5055   1.4604456155e+02   2.3254494582e+01    0.2655328    0.2237289  83.74  0.000725136    1.351    0.260
        22 -11.7532     68.4083    191.5911   1.3663318188e+02   2.7495334164e+01    0.2544805    0.2204753 -76.13 0.0004852572    1.276    0.216
        23  -8.5982     94.6238    216.8344   1.3413749821e+02   1.8750760471e+01    0.1604357    0.1028477 -86.71 0.0005331264    1.689    0.408
        24 -13.0398     65.2343    176.7258   1.3565536966e+02   3.1081764516e+01    0.4633855    0.2655552 -48.73  0.001669163    2.264    0.558
        25 -10.6608     78.4197    178.5657   1.3300902677e+02   2.8841928603e+01    0.2289546    0.2003738  81.32 0.0003853873    1.086    0.079
        26  -9.4637    101.2529    177.8906   1.2791925327e+02   2.5456566785e+01    0.2330182    0.1587645  68.10 0.0007790537    1.484    0.326
        27 -11.6455     86.0257    169.1031   1.3005138663e+02   2.9770193850e+01    0.6179034    0.5815333  36.10  0.003947053    1.331    0.249
        28  -9.8649     98.3611    153.0570   1.2465035174e+02   3.1383618138e+01       0.2873    0.2401021 -69.64 0.0007515106    1.145    0.127
        29  -9.0180    101.1830    148.7940   1.2321624807e+02   3.1872339610e+01    0.2028828    0.1708787 -25.96 0.0003221067    1.593    0.372
        30 -11.8275     86.8572    152.2914   1.2729651894e+02   3.3415234429e+01    0.2840149    0.2420622 -52.99 0.0005630028    1.299    0.230
        31 -12.1360     67.4253    143.7546   1.3072746621e+02   3.8227036063e+01     0.615424    0.4436778  83.10  0.002273134    1.380    0.275
        32 -11.3114     64.6830    142.3141   1.3119475694e+02   3.8931653497e+01    0.3551602    0.2801979  85.60 0.0009745401    1.168    0.144
        33  -8.8736     39.3468    147.2876   1.3812082501e+02   4.0818426164e+01    0.1173063   0.08883064 -45.59 0.0003167337    1.655    0.396
        34  -8.6938    182.3540    145.7115   1.0408154920e+02   1.6338420386e+01    0.3025458     0.181685  78.45 0.0009692702    4.025    0.752
        35 -14.0894     41.4908    227.1071   1.4468242733e+02   2.3963178096e+01     1.103591     1.081274   6.50  0.006206847    1.774    0.436
        36  -9.6433    109.7834    137.6908   1.1896380735e+02   3.2880411495e+01    0.4018776      0.26245 -27.78  0.001504679    2.436    0.589
        37 -10.2769     96.9971    135.1276   1.2168777745e+02   3.5717175458e+01    0.2361572    0.1942912 -53.34 0.0005031025    1.224    0.183
        38 -11.0339     57.3543    133.6763   1.3173659863e+02   4.1897413751e+01    0.5495159    0.2536656 -84.98  0.002051734    3.277    0.695
        39  -9.2660     81.5894    133.1107   1.2529390892e+02   3.8670283200e+01     0.214234    0.1738723  68.43 0.0004369422    1.239    0.193
        40 -10.1547    173.7731    222.5105   1.1988508572e+02   4.7712698792e+00    0.3579439    0.2338574  59.20  0.001995001    1.763    0.433
        41 -10.8757    152.9701    229.1096   1.2464101344e+02   7.2787956741e+00    0.4002585    0.1127815  39.50  0.001507345    3.233    0.691
        42  -9.0573    106.9270    124.2829   1.1684384126e+02   3.6465123545e+01    0.1903108    0.1783315  59.43 0.0002704724    1.102    0.093
        43  -9.7144    167.6758    112.7792   9.9262467905e+01   2.6076768263e+01    0.2927951    0.2565517 -83.65 0.0008830694    1.275    0.216
        44  -9.1917    203.4120    111.7234   9.1789872864e+01   1.7935513185e+01    0.2110591    0.1429935 -24.47 0.0007616639    1.609    0.379
        45 -12.5394      9.3085    207.5061   1.4911403623e+02   3.1076398682e+01    0.6389293    0.5893124  36.34  0.003690518    1.696    0.410
        46  -9.9206    241.5018     91.4905   8.0492199005e+01   1.2700303311e+01    0.1427714    0.1289707 -39.06 0.0008105981    1.010    0.010
        47  -8.4907    184.5286     77.4838   8.6092093890e+01   2.8594589393e+01    0.1526368    0.1495569 -55.24 0.0001175432    1.017    0.017
        48  -9.3317    156.9873     76.4684   9.1401429420e+01   3.5651999667e+01    0.2349984    0.1529019  54.17 0.0005050327    1.548    0.354
        49 -10.7566      2.1244     65.1397   1.3696798058e+02   6.2438070803e+01    0.2599531    0.1135416 -63.54  0.001212895    1.654    0.395
        50  -9.4938     33.3315     62.7476   1.2474228343e+02   6.0741433637e+01    0.3043389    0.1154233  45.50  0.001197642    4.164    0.760
        51 -10.8019     16.8973     56.3104   1.2940700858e+02   6.3439547389e+01    0.3118002    0.1316571  38.74  0.001539452    3.081    0.675
        52 -11.5930      3.1004     38.8648   1.3059545904e+02   6.7844024201e+01    0.4824083    0.1927715 -70.89  0.002210097    2.993    0.666
        53  -9.2513     46.9457    249.5101   1.4516135594e+02   1.9404347928e+01     0.149595   0.07949248  47.73 0.0004037734    1.501    0.334
        54 -10.5781    237.1982    244.9839   1.1226271262e+02  -8.1355495710e+00    0.2325097     0.123636  -0.48  0.001217424    2.731    0.634
        55 -10.5030    101.8435    246.8374   1.3579279359e+02   1.2511238081e+01    0.1901992     0.140993  86.90  0.001320056    1.399    0.285
