#   1 NUMBER                 Running object number                                     
#   2 MAG_AUTO               Kron-like elliptical aperture magnitude                    [mag]
#   3 X_IMAGE                Object position along x                                    [pixel]
#   4 Y_IMAGE                Object position along y                                    [pixel]
#   5 X_WORLD                Barycenter position along world x axis                     [deg]
#   6 Y_WORLD                Barycenter position along world y axis                     [deg]
#   7 A_WORLD                Profile RMS along major axis (world units)                 [deg]
#   8 B_WORLD                Profile RMS along minor axis (world units)                 [deg]
#   9 THETA_WORLD            Position angle (CCW/world-x)                               [deg]
#  10 FWHM_WORLD             FWHM assuming a gaussian core                              [deg]
#  11 ELONGATION             A_IMAGE/B_IMAGE                                           
#  12 ELLIPTICITY            1 - B_IMAGE/A_IMAGE                                       
         1 -14.4825    166.7166     28.7358   3.9601029348e+01   4.0029361125e+01     1.071347    0.8595559  69.07  0.004315123    1.136    0.120
         2 -13.3451    132.2567     32.8901   4.6578192615e+01   4.7691585509e+01     0.634202    0.5209418 -16.12   0.00251068    1.411    0.291
         3 -14.7175    147.2556     29.4925   4.2805400219e+01   4.4543243136e+01     1.422044    0.8314615  57.95  0.006302771    1.523    0.344
         4 -13.4253    138.0214     21.8923   4.2104089746e+01   4.7564399070e+01     0.880004    0.3053443  65.53  0.002506245    2.635    0.620
         5 -13.9228    122.0304     37.1266   5.0102784754e+01   4.9557197365e+01    0.9972589    0.5004678  36.66  0.003037421    2.387    0.581
         6 -15.3754    219.0624     15.9289   3.0930183408e+01   2.9793782394e+01      1.74323     1.584398 -28.33   0.01267225    1.472    0.320
         7 -14.1430    187.7253     12.8115   3.3078755293e+01   3.6930585760e+01     1.158943    0.5684827 -52.70  0.005966996    1.994    0.498
         8 -13.5960      2.9249     10.3526   8.5701413074e+01   7.3325450526e+01    0.7610636    0.4049264 -43.94  0.004677954    1.838    0.456
         9 -13.6102      8.9318      3.0220   7.8224188106e+01   7.3800220482e+01    0.8259788    0.5446323  47.36  0.004706526    3.215    0.689
        10 -16.0299     12.7411     21.3400   8.4866119463e+01   7.0806417336e+01     1.877021    0.9966652 -22.43  0.009434136    1.739    0.425
        11 -14.0473     25.3442     14.0774   7.4529961862e+01   7.0511929772e+01    0.6972477    0.2895315  27.44  0.003503938    2.291    0.563
        12 -13.0818    120.3553     26.0505   4.6796264765e+01   5.1252328683e+01    0.7377262    0.4685955  30.97  0.003750626    1.822    0.451
        13 -12.4202     59.4919     16.8543   6.0476189013e+01   6.4976592405e+01    0.5690678     0.415795  76.10  0.002980563    2.711    0.631
        14 -15.2887     99.2105     11.5970   4.6397961977e+01   5.7472519834e+01     1.444359    0.7334264  58.40  0.004403566    1.684    0.406
        15 -12.8255     85.1213     14.4374   5.1095558352e+01   6.0237774597e+01    0.4401608    0.3079555  17.95   0.00256454    1.502    0.334
        16 -12.3191     70.1837     16.2571   5.6419454939e+01   6.3057549574e+01     0.348951     0.303995  51.80  0.001494206    1.302    0.232
        17 -14.6549    212.6752     41.2911   3.6995612650e+01   2.8062443906e+01     2.078708    0.6797279  72.54  0.007811921    3.609    0.723
        18 -11.8915     46.8041     13.1594   6.3847128222e+01   6.7550596440e+01    0.2618037    0.1784365  36.10  0.001277792    1.324    0.245
        19 -14.0542     41.6819      4.6690   6.1880136487e+01   6.9281743873e+01    0.7013088    0.4640005  15.06  0.003438492    1.333    0.250
        20 -11.7604     75.6315     10.7046   5.2315373682e+01   6.2534638564e+01    0.2983377    0.2057163  76.54  0.001197716    2.161    0.537
        21 -12.0481    152.7557      8.5118   3.5991164012e+01   4.5400903202e+01    0.3686527     0.203839  79.43  0.001510127    1.701    0.412
        22 -10.6146    133.9153      8.5444   3.8700817062e+01   4.9807093124e+01    0.1989122    0.1067991  65.75  0.001020416    1.568    0.362
        23 -12.0997    120.2160      3.6078   3.9383659184e+01   5.3392799806e+01    0.3384435    0.1926577  79.34  0.001745424    1.835    0.455
        24 -11.1924    117.0563      1.4917   3.9229155065e+01   5.4280348457e+01    0.2760735    0.1047249  65.93 0.0009955252    2.202    0.546
        25 -13.8912    188.8964     25.9111   3.6077586676e+01   3.5230859058e+01     1.532839    0.5678571 -59.55  0.005487956    3.933    0.746
        26 -11.8387     81.3706      1.5629   4.6872845075e+01   6.2130208794e+01    0.4809954   0.09118649  55.23  0.001739723    3.473    0.712
        27 -11.9734     61.3600      1.6932   5.2867021059e+01   6.6104872222e+01    0.3561347    0.1336442  54.70  0.001465335    2.471    0.595
        28 -12.7202     75.5085     37.2941   6.3267719834e+01   5.9465277494e+01    0.4330948     0.256608  47.03  0.001216989    1.648    0.393
        29 -12.4863     56.8997    246.7831   1.1240001977e+02   1.4470227876e+01    0.5360373    0.1719084  34.51  0.002295405    2.670    0.625
        30 -10.5069     41.3259    250.3188   1.1582023484e+02   1.5617476833e+01    0.1052435   0.09161917 -31.93 0.0007045991    1.678    0.404
        31 -13.5951     28.1507    246.0766   1.1813552603e+02   1.7939518036e+01     0.485839    0.3192267  61.10  0.003133042    1.242    0.195
        32 -12.6396      2.9440    249.1206   1.2305876828e+02   1.9868847647e+01    0.4651177     0.271004  84.28  0.003002847    1.455    0.313
        33 -13.7550      9.5011    245.9536   1.2170012969e+02   1.9873656839e+01    0.7602126    0.3725356  61.86  0.003498469    1.689    0.408
        34 -12.0910     85.1798    180.0045   9.7888460632e+01   2.5882079270e+01    0.2548537    0.1674101  80.06  0.001097665    2.020    0.505
        35 -13.3855    124.9823    167.7377   8.5066864762e+01   2.2253930862e+01    0.8447401    0.3333377 -54.82  0.002861715    2.665    0.625
        36 -10.7040    102.0014    161.0000   8.9927978741e+01   2.7963896399e+01    0.2555133   0.08781423  34.82 0.0008055935    2.964    0.663
        37 -13.0035     40.2200    195.1137   1.1142776399e+02   2.8008589956e+01    0.4285852     0.254107  80.93  0.002043203    1.780    0.438
        38 -11.0529      1.8458    159.0721   1.1776541791e+02   4.0391021150e+01    0.2798302    0.1469592  88.40  0.001381257    1.767    0.434
        39 -12.3434     77.1346    156.9647   9.6244647140e+01   3.2954205757e+01    0.5654106    0.3350681  31.90  0.001837653    1.770    0.435
        40 -13.7248     73.4898    153.5035   9.6688649829e+01   3.4381722270e+01    0.7905093     0.582508  18.58  0.003158713    1.576    0.365
        41 -12.0174     86.1401    152.6083   9.2814638872e+01   3.2702319130e+01    0.5095258    0.2474848 -48.17  0.001973603    2.019    0.505
        42 -11.8381    103.1643    150.1854   8.7413088448e+01   3.0483072964e+01    0.4464552    0.2766059 -33.93  0.001732504    1.935    0.483
        43 -13.0501     59.6551    148.8599   9.9990489751e+01   3.7477008388e+01    0.4064078    0.2855521 -36.24  0.001958539    1.594    0.373
        44 -11.2285     12.6190    148.7412   1.1383689308e+02   4.2234681276e+01    0.1915933    0.1089255 -85.08 0.0009456188    1.632    0.387
        45 -11.9540      7.7025    146.0401   1.1494589157e+02   4.3267683723e+01     0.503722    0.2149358 -59.70  0.002336767    1.913    0.477
        46 -12.7268    209.1285    154.4684   6.3095039487e+01   9.3830223081e+00    0.5733522    0.4308231  34.37   0.00305667    1.462    0.316
        47 -12.3645     45.3345    135.0266   1.0204930472e+02   4.2795091322e+01     0.454071    0.3190504 -58.47  0.002324506    1.260    0.206
        48 -12.6533    246.4787    133.4695   5.2452633159e+01   6.8104715115e+00    0.4038931    0.3152873 -49.63  0.002454429    1.206    0.171
        49 -14.0144    233.0661    129.5544   5.3659351210e+01   9.7683294696e+00     0.995007    0.7640824 -48.23  0.005744761    1.186    0.157
        50 -11.8168    135.7562    132.5768   7.4413103700e+01   2.8540534998e+01    0.6333304    0.2381662  46.81  0.002030029    2.882    0.653
        51 -11.7584    133.7403    126.1558   7.3359434438e+01   3.0436434464e+01    0.7084462    0.2665268 -37.88  0.002123329    3.243    0.692
        52 -13.9132     85.9691    113.8432   8.4275336478e+01   4.2502532135e+01     1.296025     1.020898  16.19  0.004513745    1.411    0.291
        53 -14.5002    107.9612    122.2552   7.9591363807e+01   3.6501905712e+01     2.056034     1.400444  12.12  0.008464943    2.036    0.509
        54 -14.8297    106.0729    106.7836   7.6109951078e+01   4.0487054656e+01     1.617625     1.187698 -36.76  0.007547088    1.371    0.271
        55 -10.2547     58.7375    125.3392   9.5879606166e+01   4.3693804441e+01    0.1453303    0.1121066  81.54  0.000377334    1.589    0.371
        56 -12.4687     28.2807    122.1886   1.0543724758e+02   4.7785461185e+01    0.3508626    0.2286349 -63.03  0.001821185    1.309    0.236
        57 -11.1493    181.3287    120.6929   6.0873832386e+01   2.1524303583e+01    0.1520288    0.1180795 -78.72 0.0004108301    1.657    0.397
        58 -11.8620      3.7066    119.8279   1.1316861899e+02   5.0116533506e+01    0.4757867    0.1849366  10.72   0.00203292    3.320    0.699
        59 -12.0575     42.4152     90.7028   9.3860773213e+01   5.4178966432e+01    0.3151804    0.2332622 -53.15 0.0004128221    1.233    0.189
        60 -11.4689     34.5801     86.8922   9.5983129009e+01   5.5881555113e+01    0.3551719    0.2161622 -34.31  0.001329505    1.574    0.365
        61 -13.8128     18.1754    111.1004   1.0705122225e+02   5.1385411999e+01    0.9120989    0.5934045 -39.91  0.004924283    1.471    0.320
        62 -14.1334     11.5802    102.8865   1.0803015634e+02   5.3856705499e+01     0.903982     0.724615 -41.10  0.005236445    1.163    0.140
        63 -12.4999     36.9110     93.1734   9.6584545035e+01   5.4175508449e+01    0.4979095    0.3359749  -5.02  0.001526034    1.721    0.419
        64 -14.2805     23.1772     95.2770   1.0231626945e+02   5.4897822292e+01     1.128336    0.9801316  36.69  0.006989821    1.365    0.268
        65 -13.4655      2.4575     97.3052   1.1044388555e+02   5.5715344345e+01     0.806948    0.3560099 -73.46  0.003545045    2.052    0.513
        66 -11.8007     63.4552    111.5671   9.1255446438e+01   4.6532593637e+01    0.4095106    0.2361888  49.50  0.001725647    2.173    0.540
        67 -11.5975    176.9739    110.4064   5.9242779508e+01   2.4514735238e+01    0.3745008    0.2847929  -0.99  0.001724378    1.846    0.458
        68 -13.1993     29.5377     89.4983   9.8596399990e+01   5.5742915899e+01    0.9520172    0.5001804  56.15  0.003756602    3.481    0.713
        69 -13.7783    120.9671    102.1317   7.0491199382e+01   3.8490692774e+01    0.8424485    0.3630768  40.44  0.002983535    2.411    0.585
        70 -12.4219    136.1019    103.2929   6.6752984940e+01   3.4986476461e+01    0.7421529    0.3086935  47.46   0.00226384    2.456    0.593
        71 -12.2267     52.5067     97.9946   9.1871524449e+01   5.1271298882e+01    0.8126588    0.4103628 -11.63  0.002532201    4.499    0.778
        72 -12.8317     49.5190     94.2870   9.2053828659e+01   5.2517051606e+01     0.753188    0.4680558 -34.43  0.003259803    1.606    0.377
        73 -12.7427    249.3209     97.6035   4.4744172113e+01   1.2354747039e+01    0.6109118     0.187434 -42.23  0.002445193    2.588    0.614
        74 -12.1293    163.6357     98.5170   5.8991673180e+01   2.9807274098e+01    0.3007293    0.2655852 -49.90 0.0001636869    1.100    0.091
        75 -12.0846     61.2116     98.0277   8.8694732189e+01   5.0116854682e+01    0.3857503    0.3048512 -89.99  0.001632668    1.728    0.421
        76 -12.9791    136.3137     95.4807   6.4536731914e+01   3.6556006982e+01     0.482265    0.3626137  48.75  0.001308416    1.342    0.255
        77 -13.5527     95.7417    111.0796   8.0444891506e+01   4.1444010268e+01     1.153371    0.6139529 -59.27  0.004389999    2.199    0.545
        78 -11.4796     90.2193     87.5906   7.5622977922e+01   4.7748527213e+01    0.4511993    0.2209921  49.22  0.001715595    2.423    0.587
        79 -12.4480    188.5462     84.2998   5.0556505595e+01   2.6821803443e+01    0.6807371    0.3040149  43.05  0.002563427    2.868    0.651
        80 -13.0167    239.2459     81.5652   4.2654768420e+01   1.6766964690e+01    0.7107948    0.3919096 -85.89  0.003083338    3.084    0.676
        81 -12.5436    159.7372     67.9822   5.1532806067e+01   3.6199028511e+01    0.8137222    0.2926022 -47.17  0.002678129    3.064    0.674
        82 -13.4110    163.9524     72.1108   5.1850245658e+01   3.4529409299e+01     1.455058    0.5329065  45.97  0.005007856    3.068    0.674
        83 -13.3541    161.8687     79.9792   5.4403632085e+01   3.3659909080e+01     0.808532    0.5343449  19.99  0.003315919    2.522    0.603
        84 -14.1657    169.2768     77.2958   5.2227616548e+01   3.2412623169e+01     1.309582    0.5491618  50.79  0.004008093    2.394    0.582
        85 -10.6063     98.3564     84.2873   7.1995401367e+01   4.6882490417e+01    0.1553127    0.1157046   3.48 0.0007023678    1.676    0.403
        86 -13.5746     66.1291     49.5622   7.1434100476e+01   5.9266997769e+01     1.149896    0.6469459 -31.48  0.005077954    1.800    0.445
        87 -13.0434     52.6197     69.7054   8.3831759391e+01   5.7564909383e+01    0.7328957    0.5722244  79.37  0.003705683    2.207    0.547
        88 -13.3562     57.1071     66.4696   8.0975644609e+01   5.7590256835e+01    0.8842555    0.5346311 -25.37  0.004196277    1.801    0.445
        89 -13.3302     87.2156     65.1863   6.9463450251e+01   5.2742753136e+01     0.751688    0.5110843  -7.20  0.003201878    1.916    0.478
        90 -13.4246     91.6883     57.8453   6.5475746032e+01   5.3148917426e+01    0.4978539    0.4853756 -29.33  0.002330698    1.158    0.136
        91 -13.0579     70.9032     75.3886   7.8579793090e+01   5.3668152917e+01    0.6204972    0.4380912  -4.15  0.002316561    1.695    0.410
        92 -12.7951     77.8164     72.2980   7.5080459943e+01   5.3120094830e+01    0.6825317    0.4145037 -16.53  0.001896502    2.305    0.566
        93 -13.2501     54.2860     81.5104   8.6757919809e+01   5.4828437769e+01    0.5589359    0.4074292 -47.68  0.002963261    1.288    0.224
        94 -14.0505     61.0436     75.8168   8.2428934836e+01   5.5107608867e+01    0.7725913    0.4872593 -30.90  0.001452931    1.602    0.376
        95 -12.1712     47.2447     81.7252   8.9586092376e+01   5.5674891466e+01    0.3928768    0.2503997 -51.82  0.001596569    1.461    0.316
        96 -13.0034    212.8678     78.1957   4.5329586167e+01   2.2576503763e+01    0.9294361    0.5492548  81.24  0.004300671    2.245    0.555
        97 -12.2029    218.1585     74.1755   4.3700181703e+01   2.2117490320e+01    0.3116448    0.2391093 -72.93  0.001331195    1.293    0.227
        98 -12.1337    214.8088     71.8370   4.3615847908e+01   2.3184304388e+01    0.3208943    0.2671652 -67.16  0.001698102    1.089    0.082
        99 -12.8112    135.3297     80.0183   6.0345433315e+01   3.9777562578e+01    0.6901264    0.4038675  49.24  0.002250261    1.682    0.405
       100 -11.8599    114.2079     80.2860   6.6013163255e+01   4.4411930816e+01    0.3797774    0.3291565 -64.80  0.001138542    1.329    0.248
       101 -12.0041     42.1594     76.5719   9.0177143739e+01   5.7410344769e+01    0.5773594    0.2158141 -55.01  0.002258712    2.541    0.606
       102 -14.8670      6.5652     71.6888   1.0402887246e+02   6.1471477477e+01      1.09738    0.6515989 -50.93  0.005062198    1.316    0.240
       103 -14.0101      4.8688     63.5641   1.0290697360e+02   6.3346215082e+01    0.6261436    0.5008658  -6.04  0.004178638    1.304    0.233
       104 -11.3035     27.5149     76.5180   9.6248309427e+01   5.8902980065e+01    0.2816493    0.1825126  86.44  0.001262372    2.851    0.649
       105 -13.6068    199.3487     69.6757   4.5268051205e+01   2.6851987418e+01    0.7791247    0.5508375  54.31  0.002829263    1.518    0.341
       106 -12.5168    199.8691     62.5957   4.3499318919e+01   2.7834448897e+01    0.4105009    0.2827382 -48.42  0.001691099    1.339    0.253
       107 -11.9299    241.4106     71.0236   4.0216383694e+01   1.7983623976e+01    0.4120817     0.215983 -66.59  0.001948037    2.334    0.572
       108 -13.1262    133.6720     66.4781   5.6703399130e+01   4.2542774213e+01    0.8284463    0.6335316  16.13  0.003255833    1.660    0.398
       109 -12.4020     39.9921     68.2775   8.8628650511e+01   5.9432433008e+01    0.6737127    0.2289274  28.70  0.002635413    3.022    0.669
       110 -11.6734     31.8367     64.9841   9.1157348191e+01   6.0991664960e+01    0.3150045    0.2334249 -38.09  0.001719058    1.152    0.132
       111 -11.8781     30.7617     60.9937   9.0411102669e+01   6.1922478866e+01     0.331347    0.1999195 -41.85  0.001701291    1.419    0.295
       112 -11.6702    100.0327     65.5134   6.5476035329e+01   5.0130512630e+01    0.2265065    0.2124391 -83.16  0.000786747    1.282    0.220
       113 -13.7515    177.9062     56.8993   4.5348717633e+01   3.3674884797e+01    0.9513252     0.586499 -49.82  0.003687823    1.606    0.378
       114 -14.6855    120.1121     54.5590   5.6270982753e+01   4.7562211791e+01    0.8927401    0.6771067  36.12  0.003272958    1.328    0.247
       115 -13.1035     82.4650     54.5276   6.7349311507e+01   5.5504269184e+01    0.7427225    0.5201541   2.33  0.003483916    1.729    0.422
       116 -12.8798     79.3400     61.2064   7.0795758628e+01   5.4933360468e+01    0.6846313    0.2901005  41.34  0.002747999    2.314    0.568
       117 -11.7884     77.4649     56.4854   6.9791503944e+01   5.6104020340e+01    0.2643872    0.2507946 -29.44 0.0008073886    1.193    0.162
       118 -12.2274     24.8831     59.3837   9.2582988273e+01   6.2809030858e+01    0.4524901    0.2410846 -45.39  0.001792547    1.571    0.363
       119 -10.9240     38.7699     59.9678   8.6520293819e+01   6.1267355590e+01    0.1969778    0.1594967 -83.67  0.001085459    1.990    0.497
       120 -11.3265     17.7798     55.5335   9.4726240604e+01   6.4190670958e+01    0.3343577    0.1592402 -57.80  0.001628882    2.050    0.512
       121 -12.9956    248.2135     51.8614   3.5664283485e+01   1.9466246656e+01    0.5907416    0.3377198 -40.12  0.003412613    1.562    0.360
       122 -11.5980    230.7786     55.5821   3.8148164696e+01   2.2333710611e+01     0.365732    0.1853319  77.95  0.001781713    2.313    0.568
       123 -14.1310    101.5151     50.3641   5.9872211718e+01   5.2307562867e+01    0.7844163    0.6492578  66.20  0.001537114    1.394    0.283
       124 -12.3886     99.8493     44.1300   5.8154653134e+01   5.3579614173e+01    0.3468142    0.2052932  56.12 0.0006115403    1.731    0.422
       125 -11.5686     37.8644     52.4929   8.4379048195e+01   6.2818793185e+01    0.3518851    0.1818498 -21.37  0.001559634    2.393    0.582
       126 -12.1793    135.6342     50.2171   5.1279939024e+01   4.4615216367e+01    0.5206944    0.2770674  37.94  0.001908183    2.248    0.555
       127 -10.6237     23.5764     50.2312   9.0269494732e+01   6.4748808425e+01    0.1745544   0.09601729 -38.80 0.0003591651    1.532    0.347
       128 -12.8230      3.8189     43.4016   9.7938981094e+01   6.7551603758e+01    0.5254781    0.4132516   5.32  0.003629293    1.345    0.257
       129 -12.5251     11.7220     43.6810   9.3963379723e+01   6.6982719819e+01    0.4753043    0.2459119 -25.49  0.002383882    1.815    0.449
       130 -12.6271     17.3753     40.5141   8.9976818183e+01   6.7128203478e+01    0.2328794    0.1832761 -10.51  0.001153995    1.101    0.092
       131 -13.3646    157.8747     43.8171   4.5114716141e+01   4.0235507793e+01     1.082079     0.540107  44.54  0.004659722    2.272    0.560
       132 -13.5651    171.3067    243.0794   8.7464226180e+01  -1.0006767916e+00    0.6884469    0.4712098  16.81   0.00392553    1.361    0.265
       133 -12.6791    109.9747     42.3630   5.4779126432e+01   5.1610953777e+01    0.6251187    0.1953911  52.15  0.001902892    2.833    0.647
       134 -13.5377     97.1093    239.0549   1.0301640748e+02   1.0669197635e+01    0.6375507     0.436592  40.03   0.00276729    1.273    0.214
       135 -11.8208    147.4202    239.2090   9.1965903961e+01   3.1941550038e+00    0.1661086    0.1306597 -66.53  0.000947527    1.681    0.405
       136 -12.6679     24.9509    217.3473   1.1685655255e+02   2.4428131767e+01    0.5503746    0.3108915  59.24  0.003034753    1.596    0.373
       137 -12.6452     14.1757    221.9984   1.1945048299e+02   2.4461349563e+01    0.4472207    0.3128554 -72.62  0.001786968    1.395    0.283
       138 -12.6451    113.5126     38.2415   5.2474631291e+01   5.1363431377e+01    0.4092255    0.3357678  38.01  0.001261785    1.152    0.132
       139 -14.0909     26.1178    227.1331   1.1730321899e+02   2.2139935540e+01    0.8218735    0.3709098 -56.66  0.004047178    2.506    0.601
       140 -13.5660     20.2577    224.6620   1.1835834904e+02   2.3280339436e+01    0.5221635    0.4497808 -64.85  0.002419128    1.370    0.270
       141 -11.6609     70.4755     36.4933   6.4735370233e+01   6.0513568238e+01    0.2586447    0.2219625  -2.17 0.0006504267    1.096    0.087
       142 -13.4576    241.7349     35.8709   3.3083925386e+01   2.2831290161e+01    0.7394838    0.4176593 -89.22  0.003016145    1.838    0.456
       143 -11.9856    245.3398     30.6563   3.1776283404e+01   2.2794006665e+01    0.3145584    0.1956862 -45.27  0.001990183    1.391    0.281
       144 -11.0272    104.2935     36.8413   5.4334365685e+01   5.3601528147e+01    0.2043904    0.1670119 -46.56 0.0008138636    1.422    0.297
       145 -13.1204     44.8052     32.6128   7.3508792973e+01   6.5289637544e+01    0.5681187    0.4909317   2.77  0.003142763    1.121    0.108
       146 -13.3701     65.7015    223.5735   1.0834632582e+02   1.8270468098e+01     1.052063    0.7371267  53.64   0.00597434    1.293    0.227
       147 -13.9225     64.1643    214.6452   1.0775511902e+02   2.0482896596e+01    0.6795679    0.4119866  43.98  0.003523104    1.506    0.336
       148 -12.9608     59.5405    212.7353   1.0863275584e+02   2.1516702099e+01    0.4510714    0.2239508 -56.02  0.001248907    2.096    0.523
       149 -12.6505     94.0637    218.4566   1.0118074691e+02   1.5463453085e+01    0.3161848    0.2389928  38.36  0.001360381    1.226    0.184
       150 -10.7435     34.8085     34.8330   7.9078406939e+01   6.6282933042e+01    0.1553785    0.1442079   0.93  0.000598036    1.327    0.247
       151 -12.2568    185.8493    213.5074   7.9503506412e+01   2.0173064929e+00    0.2107846    0.1989441 -47.27  0.001300233    1.332    0.249
       152 -11.0513    136.4348    211.2309   9.0116650987e+01   1.0407578581e+01    0.1875535    0.1403375 -67.00 0.0009481921    1.634    0.388
       153 -13.2326     55.3007     27.2357   6.6708693852e+01   6.4426465909e+01    0.5819513    0.3489038  41.06  0.002142181    1.607    0.378
       154 -12.4727     63.5544     25.1493   6.2589525388e+01   6.3271984101e+01    0.4883474    0.2775732  26.66  0.002040411    1.768    0.434
       155 -10.8015     98.5723     27.3299   5.2400913665e+01   5.6010325187e+01      0.23772    0.1098382  54.01  0.001067534    1.918    0.479
       156 -11.0825     88.5159     25.9641   5.4673501543e+01   5.8311276939e+01    0.1869291    0.1276796 -24.35 0.0009982516    1.590    0.371
       157 -11.4961     30.7950     25.7139   7.7151762450e+01   6.8197993909e+01    0.2834807    0.1378399  17.16  0.001374138    2.301    0.565
       158 -11.0820     36.1937     23.4288   7.3477797587e+01   6.7829977081e+01    0.2291849    0.1529384 -24.55  0.001398171    1.385    0.278
       159 -11.2226    202.9164     21.5238   3.3579454629e+01   3.2612270692e+01    0.2021812    0.1811687  -8.46    0.0011486    1.556    0.357
       160 -11.8387     46.4624     20.7248   6.7532910009e+01   6.6695141245e+01    0.3050857    0.2118943  12.62  0.001070466    1.304    0.233
       161 -10.9031     51.9342     20.5436   6.5126377149e+01   6.5840948307e+01    0.2529803    0.1378788  39.48  0.001019233    1.665    0.399
       162 -11.7985     72.4414    207.0651   1.0491302780e+02   2.1136930253e+01    0.3187414    0.2579196  62.34  0.001816116    1.171    0.146
       163 -12.3017     41.3539    206.8921   1.1230200083e+02   2.5066949301e+01    0.2713127    0.1805113  80.29  0.001235502    1.456    0.313
       164 -10.7617    150.9892    206.6797   8.5970327732e+01   8.9608560443e+00     0.235709    0.1143037  15.43 0.0007048748    4.286    0.767
       165 -12.6118     57.6214    203.3302   1.0806923265e+02   2.3965617198e+01    0.5762795    0.2939909 -85.78  0.002467487    2.369    0.578
       166 -13.6342     15.4381    197.4674   1.1750214751e+02   2.9945854441e+01    0.8344021    0.3712816 -66.61  0.004088474    1.987    0.497
       167 -12.9638    164.3176    194.6093   8.0732171511e+01   9.2061668418e+00    0.6772912    0.3355605 -56.19  0.002643087    2.581    0.613
       168 -10.5584    123.4771     11.5117   4.1392480912e+01   5.1975866139e+01    0.1283348    0.1097817  61.27 0.0001932317    1.001    0.001
       169 -13.5966     22.2994    181.2184   1.1450455442e+02   3.3249067591e+01    0.9504722    0.3894647 -56.83  0.004139737    2.305    0.566
       170 -15.1607      8.4629    183.5493   1.1807959703e+02   3.3881252633e+01      1.31249      1.03831 -87.13  0.008443786    1.049    0.047
       171 -10.1306     50.6662     43.7580   7.5472202511e+01   6.2673870734e+01     0.131098   0.08908513   2.77 0.0002679924    1.545    0.353
       172 -15.0437     15.8302    175.4230   1.1559949529e+02   3.5260217635e+01     1.998181    0.7745858  53.73  0.008287609    2.819    0.645
       173 -11.6283    248.4954    195.5026   6.4289310575e+01  -3.9365065951e+00    0.1269867    0.0997396 -19.37 0.0008106616    1.008    0.008
       174 -12.1315    201.0227    191.9929   7.2358937755e+01   3.6003828331e+00    0.3533997    0.2323134 -27.98  0.001560873    1.460    0.315
       175 -13.6148     30.3290    169.0191   1.1118588856e+02   3.5546951372e+01     0.944693    0.6344154 -32.17  0.003202731    1.941    0.485
       176 -12.0581     49.0464    181.9893   1.0774874688e+02   3.0243907266e+01    0.4005223     0.254847 -56.54  0.002019448    1.538    0.350
       177 -13.1844    197.1364    179.9435   7.0760410573e+01   6.5313495215e+00    0.6705446    0.4652247 -78.10  0.002735486    3.157    0.683
