#   1 NUMBER                 Running object number                                     
#   2 MAG_AUTO               Kron-like elliptical aperture magnitude                    [mag]
#   3 X_IMAGE                Object position along x                                    [pixel]
#   4 Y_IMAGE                Object position along y                                    [pixel]
#   5 X_WORLD                Barycenter position along world x axis                     [deg]
#   6 Y_WORLD                Barycenter position along world y axis                     [deg]
#   7 A_WORLD                Profile RMS along major axis (world units)                 [deg]
#   8 B_WORLD                Profile RMS along minor axis (world units)                 [deg]
#   9 THETA_WORLD            Position angle (CCW/world-x)                               [deg]
#  10 FWHM_WORLD             FWHM assuming a gaussian core                              [deg]
#  11 ELONGATION             A_IMAGE/B_IMAGE                                           
#  12 ELLIPTICITY            1 - B_IMAGE/A_IMAGE                                       
         1 -14.7486    193.8352     41.9628   6.4887508036e+01   3.2139091457e+01     1.350925    0.7501349 -60.31  0.003992657    1.945    0.486
         2 -15.9931    201.2645     71.2821   7.0696856626e+01   2.6035455227e+01     2.501011     2.096852  15.77   0.01354764    1.758    0.431
         3 -19.2587    196.0067    119.7164   8.3042032797e+01   1.8319513141e+01      9.06891     8.546925 -81.20   0.05023155    1.046    0.044
         4 -13.1846    188.2818     28.6179   6.2487190837e+01   3.5130274861e+01    0.5622953     0.460696   8.47   0.00231022    1.855    0.461
         5 -11.1488    126.1684     22.3891   7.0817014220e+01   5.0209572946e+01    0.2551002    0.1951287 -56.92  0.001180617    1.591    0.371
         6 -11.6207    248.0003     17.8077   5.4251150654e+01   2.3409590343e+01    0.3253514    0.1068415 -46.95  0.001569827    2.474    0.596
         7 -10.4648    179.9426     13.2378   5.9898865385e+01   3.8774124095e+01    0.2190076     0.148831 -60.19  0.000487839    1.499    0.333
         8 -10.3966     13.5910     13.8736   1.0456711771e+02   7.0069836119e+01    0.2146637    0.1002513 -24.38  0.001120718    1.986    0.496
         9 -10.7084    145.1449     11.1051   6.4145839871e+01   4.7004276834e+01    0.1838662    0.1553964  71.50 0.0004563397    1.034    0.033
        10 -13.4163    235.9090      9.3202   5.3633210519e+01   2.6869030238e+01     0.501094    0.2670671  73.82    0.0029752    1.644    0.392
        11  -9.5573      1.7279      8.3490   1.0813670710e+02   7.1791362256e+01   0.08509146   0.07656617 -19.52 0.0002630758    1.627    0.386
        12 -12.0180    248.8655      4.5956   5.1832006064e+01   2.4776254263e+01    0.3140775    0.2038236 -55.40  0.001732605    1.330    0.248
        13 -10.5411    195.0191      9.3845   5.7331111229e+01   3.5734450465e+01    0.2909206    0.1316268 -49.25  0.001313915    2.201    0.546
        14  -9.4757     88.3162      5.6456   7.3769249740e+01   5.9704875724e+01    0.1090722   0.09102886 -75.21 0.0007045905    1.742    0.426
        15 -11.1355    239.2831      3.0871   5.2236804476e+01   2.6868879151e+01    0.2155096    0.1512257  38.60  0.001101836    2.687    0.628
        16 -10.7574    214.1477      5.8387   5.4758768298e+01   3.1867460178e+01    0.1904033    0.1285166 -75.42 0.0006846844    1.253    0.202
        17 -10.1722    144.2495      2.7332   6.1982963748e+01   4.7936633220e+01    0.1683674    0.1187116  49.62 0.0005721878    1.334    0.250
        18 -10.7585    217.3477      1.8103   5.3686166999e+01   3.1596226686e+01    0.2062768    0.1352096  77.23  0.000493482    1.282    0.220
        19 -10.5835    208.4555      1.5024   5.4380369210e+01   3.3553217334e+01    0.2090494   0.08145826  63.31 0.0008449623    2.227    0.551
        20  -9.9769     82.7896      1.3223   7.3593548785e+01   6.1114066090e+01    0.1639533   0.08166644  47.33  0.000282418    1.570    0.363
        21 -11.2544    202.9154    225.4723   1.0368191210e+02  -4.0636507552e+00    0.3494189    0.2281952  31.41 0.0009271873    1.452    0.311
        22 -12.3338    248.9933    232.4462   9.6191195661e+01  -1.2015424896e+01    0.3699623    0.2964203 -34.42  0.002467287    1.356    0.262
        23 -12.1502    223.0051    250.1525   1.0401675022e+02  -1.1069770124e+01    0.3055401    0.2310293  20.09  0.001415549    1.152    0.132
        24 -13.6933    234.7526    249.1849   1.0166363855e+02  -1.2547145774e+01    0.9592469    0.5591911  26.79  0.003730166    1.571    0.363
        25 -12.9600    243.2850    247.7187   9.9859853886e+01  -1.3469116566e+01    0.5492688    0.4647101  50.91  0.003675575    1.857    0.461
        26 -12.9874    248.4321    242.6399   9.8068529975e+01  -1.3419771596e+01     0.612051    0.5276437 -35.23  0.004304198    1.469    0.319
        27 -11.7453    212.6477    249.1343   1.0582451120e+02  -9.4292247013e+00    0.2496517    0.2182994   4.93 0.0006004286    1.086    0.079
        28  -9.3406    125.2924    250.3076   1.2372693785e+02   4.3485400777e+00    0.1215535    0.1017183   1.90 0.0003775515    1.581    0.368
        29 -11.3559    220.5251    225.7581   1.0026935099e+02  -6.8947537394e+00    0.3749877    0.2270179  15.86   0.00115431    1.898    0.473
        30 -11.1531    168.4265    224.3620   1.1065802467e+02   1.9894502246e+00    0.5249972    0.1737543  45.51  0.001813996    3.115    0.679
        31 -12.9955    177.2280    222.0583   1.0838499725e+02   8.9394488432e-01    0.7422832     0.398679  43.27  0.001926374    1.800    0.445
        32 -10.2077    170.8138    217.6442   1.0898287745e+02   2.8760689360e+00     0.306293    0.1763208  44.08  0.001410761    1.684    0.406
        33  -9.9212    105.8250    222.8131   1.2419778956e+02   1.3189166706e+01     0.190318    0.1480369  73.08 0.0003489622    1.298    0.230
        34  -9.4815     15.3518    223.7283   1.4327883792e+02   2.5336665256e+01    0.1264183   0.06790987  65.46 0.0006096824    1.633    0.387
        35 -10.2535     30.4939    221.9774   1.4018316779e+02   2.4062509959e+01     0.185799     0.103686 -76.98 0.0008543696    1.566    0.362
        36 -11.0629    233.4685    220.7983   9.6922209104e+01  -8.0296970439e+00    0.4024368    0.2123081  36.58  0.002042796    1.924    0.480
        37 -13.3016    235.7475    214.5829   9.5357696150e+01  -7.3491234424e+00    0.3529413    0.2814162  -0.06 0.0008923616    1.170    0.145
        38 -11.1054    130.6768    218.0413   1.1792325779e+02   9.9656666141e+00    0.1964805    0.1850445 -73.30 0.0006957174    1.119    0.106
        39 -11.8488    123.5448    215.9153   1.1920004154e+02   1.1680630847e+01    0.5268335    0.3479404  21.69  0.001966003    1.972    0.493
        40 -11.3299     59.5275    216.1462   1.3356663119e+02   2.1736291455e+01    0.3508968    0.2496087 -53.65  0.001965995    1.618    0.382
        41 -12.1727    142.6837    215.2444   1.1477010239e+02   8.4213827734e+00    0.4771632     0.334327  78.92 0.0007928007    2.029    0.507
        42 -10.6441     17.7117    217.1054   1.4233017053e+02   2.6546596718e+01    0.1894288    0.1326746  64.69 0.0002519005    1.227    0.185
        43 -10.6456    157.0018    215.9545   1.1170236088e+02   5.6911509506e+00    0.2036938    0.1966217  35.58 0.0003151174    1.031    0.030
        44 -11.5782    190.5195    248.8297   1.1012457443e+02  -6.0219092511e+00    0.3711738     0.227168   5.27  0.001773694    2.306    0.566
        45  -9.7708     30.4473    249.4748   1.4230196849e+02   1.8221822993e+01     0.119299   0.08896484  73.69 0.0001072162    1.005    0.004
        46 -15.2392    167.3580     80.3553   7.8924008503e+01   3.2448654829e+01    0.9281909    0.9168981 -89.06  0.002930972    1.096    0.087
        47 -16.1970    199.8211    162.0899   9.1825499531e+01   8.7741229354e+00     2.192933     1.452945 -48.94   0.01025448    1.477    0.323
        48 -15.9403    177.2973    150.4436   9.4012393795e+01   1.5896205875e+01     2.075427     1.443616 -25.71  0.009064276    1.770    0.435
        49 -15.8041    236.4491    124.3463   7.7052329397e+01   8.9967837130e+00     1.956989    0.9450728  52.14  0.008620357    2.337    0.572
        50 -16.4229    214.2665    100.4313   7.5357542365e+01   1.8023737464e+01     3.064339     1.419163  51.81   0.01269837    2.298    0.565
        51 -16.9858    174.9149    140.4280   9.2244907487e+01   1.8599950753e+01     5.538015     1.857494  39.29   0.01605784    3.790    0.736
        52 -15.0099    222.1930    139.9271   8.2769968984e+01   8.8079923926e+00    0.7412377    0.5777879  22.43  0.002161181    1.645    0.392
        53  -9.8935    132.2318    246.4036   1.2176224145e+02   3.9481568963e+00    0.1926885    0.1071061  48.24 0.0005307352    1.639    0.390
        54 -10.2527     32.0037    180.3152   1.3580017570e+02   3.3614332656e+01    0.1773553    0.1509513  87.25 0.0004186425    1.055    0.052
        55 -11.6582     89.5900    190.9778   1.2330452621e+02   2.3239133439e+01    0.4449604    0.2404148  22.13  0.001319909    2.874    0.652
        56 -11.3514     90.9959    177.2614   1.2072542857e+02   2.6379787168e+01    0.2056348    0.1889423  78.41 0.0004141964    1.036    0.035
        57 -11.4918    237.9759    174.0018   8.7095215992e+01  -5.8084492923e-01    0.3602171    0.2674699 -10.69  0.001132262    1.544    0.352
        58 -11.0159    233.7163    171.8245   8.7410325064e+01   5.4813482635e-01    0.2238196    0.2077518  71.62 0.0006982832    1.330    0.248
        59 -10.8678     96.2788    176.1570   1.1918802605e+02   2.5774661286e+01    0.2458877    0.1665202  85.79   0.00107488    1.866    0.464
        60 -10.2598     22.0226    175.9819   1.3767908466e+02   3.5674636739e+01    0.1930644    0.1572381  89.73 0.0003795597    1.044    0.043
        61 -11.7564     91.6457    214.6628   1.2625723238e+02   1.7319631457e+01    0.3740763    0.2992024  17.41  0.001732016    1.654    0.396
        62 -11.7792    165.2128    208.8452   1.0863488208e+02   5.6577012681e+00    0.3345378     0.269897  74.14  0.001720363    1.571    0.363
        63 -11.1575     79.2523    171.3349   1.2274480187e+02   2.9720053881e+01    0.3010724     0.192609 -74.04 0.0009286434    1.611    0.379
        64 -10.6797    220.6582    207.2522   9.6827173408e+01  -3.7419034698e+00    0.2495543    0.1957288 -30.22 0.0008202629    1.193    0.162
        65 -10.1163     11.8015    208.1398   1.4281904871e+02   2.9149883019e+01    0.1541186    0.1233128 -69.24 0.0003166707    1.328    0.247
        66 -10.7104     65.4868    163.9474   1.2513505038e+02   3.3582414982e+01    0.2224708    0.1293615 -63.07 0.0005086591    1.560    0.359
        67 -11.2170    250.6762    158.2205   8.1777855985e+01   1.6744242561e-01    0.2156596    0.1081024 -42.12 0.0002228598    1.709    0.415
        68 -11.5571     85.8596    159.0465   1.1882722783e+02   3.1765357946e+01    0.3059869    0.2212436  28.80 0.0008787551    1.579    0.366
        69 -10.4380     41.8538    158.2973   1.3052133410e+02   3.7953096875e+01    0.2492478    0.1677811 -80.74 0.0009802466    1.403    0.287
        70  -9.7694     23.3964    157.2486   1.3518371538e+02   4.0088079641e+01    0.1786631    0.1066914 -80.18 0.0004585474    1.502    0.334
        71 -11.5322     88.7005    209.6651   1.2624549196e+02   1.8937352435e+01     0.450457    0.2491006  69.37  0.001870576    2.381    0.580
        72 -11.8995     98.8992    153.3945   1.1419630098e+02   3.0988914111e+01    0.2851138    0.2393663 -64.59 0.0003847414    1.147    0.128
        73 -12.4479     90.5804    150.6442   1.1591472073e+02   3.3095589743e+01    0.5667554    0.2262479 -47.87  0.001509649    2.491    0.599
        74 -12.5503     80.2137    148.4893   1.1836475601e+02   3.5303058984e+01    0.3781913    0.2696818 -60.34 0.0002625489    1.307    0.235
        75  -9.6128     33.9851    150.0581   1.3143331171e+02   4.0828398857e+01    0.1632462    0.1323575 -71.58 0.0003229649    1.041    0.040
        76 -10.4526    114.8743    204.6876   1.1942416442e+02   1.5720433020e+01    0.2200087    0.1912148 -54.42 0.0002538018    1.222    0.182
        77 -11.4063     11.9939    143.7918   1.3648087965e+02   4.4299009735e+01    0.3351036    0.1500873 -70.40 0.0008600978    1.797    0.443
        78 -11.3693    170.1673    203.0470   1.0647756650e+02   5.9407783104e+00    0.4064965    0.2697413 -60.10  0.001180724    1.806    0.446
        79  -9.7925      1.4908    214.5603   1.4529136398e+02   2.8700670096e+01    0.1179232   0.08808015  83.95 7.895494e-05    1.017    0.016
        80 -13.3414    248.3049    138.2481   7.8102352378e+01   4.2186453492e+00     0.392371    0.3170708  52.32  0.002106754    1.443    0.307
        81 -10.0549     67.1844    140.1313   1.2043849334e+02   3.9308737211e+01    0.1932523     0.160356  84.46            0    1.310    0.237
        82 -10.5375     68.0835    201.6383   1.2992909503e+02   2.3935628430e+01    0.2452645    0.1752476 -85.54 0.0009649775    1.340    0.254
        83  -9.4651     32.6717    136.2577   1.2970728736e+02   4.4338809617e+01     0.127722   0.09415468  69.93 0.0001658263    1.559    0.359
        84 -10.9915     18.9762    133.4934   1.3318517896e+02   4.6219757290e+01    0.2299998    0.1547392 -67.70  5.17263e-05    1.217    0.178
        85 -10.3070      6.8647    201.3314   1.4329644776e+02   3.1157049593e+01    0.2160626    0.1285252  89.49 0.0008690908    1.372    0.271
        86 -11.8745     87.0747    129.2512   1.1235360193e+02   3.8945196053e+01    0.3672381    0.2746181 -27.83  0.001179109    1.564    0.361
        87 -11.2506     65.7239    128.7655   1.1858535162e+02   4.2304726114e+01    0.2192069    0.2069296  46.25 0.0005709027    1.157    0.136
        88  -9.9542     54.5522    128.9331   1.2197327933e+02   4.3723027955e+01    0.2062829     0.123453 -58.56 0.0003223603    1.473    0.321
        89 -12.3657     93.6615    125.5126   1.0956503674e+02   3.8724008363e+01    0.4361207    0.3235361 -35.31   0.00180752    1.434    0.303
        90 -11.2265    231.9851    200.8966   9.3472569093e+01  -4.4395891824e+00    0.2025312    0.1724116 -25.81 0.0003473962    1.072    0.067
        91 -10.3252     24.0559    123.6184   1.3018182601e+02   4.8156785936e+01    0.2069181    0.1534198 -73.65 0.0009017884    1.233    0.189
        92 -10.7713     77.4950    118.9631   1.1285083872e+02   4.2935806013e+01    0.2111069    0.1988108  30.37 0.0005074203    1.136    0.120
        93 -13.5242    249.3807    114.4354   7.3063446895e+01   8.3372875886e+00    0.4177703    0.2829594 -34.06  0.001793915    1.515    0.340
        94 -11.2952     68.4893    116.4835   1.1505133333e+02   4.4856682524e+01    0.3302878    0.2469389  61.72  0.001099199    1.683    0.406
        95 -10.2805     77.8840    111.9605   1.1105524536e+02   4.4507942375e+01    0.2102543    0.1983374 -42.11 0.0003600419    1.016    0.016
        96 -12.0782     90.5896    110.4448   1.0678111325e+02   4.2762723714e+01    0.3825229    0.2541264 -64.86  0.001338618    1.781    0.438
        97 -12.3634     85.4851    103.2298   1.0647402945e+02   4.5245915259e+01    0.4969136    0.4001012 -64.05  0.002359674    1.374    0.272
        98 -11.8232     79.1189    104.1194   1.0869682835e+02   4.6089430633e+01    0.3527319    0.2515562  63.61  0.001246698    1.944    0.486
        99 -10.3529     31.9663     98.5066   1.2289626268e+02   5.3261670246e+01    0.1703501    0.1275203  17.33 0.0003838156    1.521    0.343
       100 -12.1208     74.1929    201.1030   1.2844055452e+02   2.3176061195e+01    0.2990922    0.2577108  64.98 0.0003197937    1.084    0.078
       101 -11.4241     97.0243     95.0028   1.0070585300e+02   4.4975366015e+01    0.2089925     0.195012 -22.74            0    1.040    0.038
       102 -11.6919    134.7849    197.7590   1.1357450517e+02   1.3708483880e+01    0.3219075    0.2665289 -68.89  0.001091152    1.280    0.219
       103 -10.7730     86.0659     94.7018   1.0399112678e+02   4.6987320033e+01     0.197009    0.1828184  12.73  0.000446184    1.084    0.077
       104 -11.7970    103.5606     92.4232   9.8037500558e+01   4.4270419108e+01    0.3800252    0.2420472  19.21 0.0009228391    2.169    0.539
       105 -15.1220    174.6801    120.8476   8.7641340569e+01   2.2855692045e+01    0.8829368    0.7372112 -46.98  0.002311441    1.167    0.143
       106 -10.4098     45.9818    201.5130   1.3494318790e+02   2.6911548615e+01    0.1856312    0.1249182  39.52 0.0006437165    1.566    0.362
       107 -11.7095     88.1702     88.8384   1.0168226448e+02   4.7838003261e+01    0.3675268    0.3053445  16.33  0.001264191    1.256    0.204
       108 -10.6944    215.4397    193.4630   9.5175413983e+01  -3.4925258452e-01      0.30413    0.2447859 -36.93  0.001702218    1.183    0.155
       109  -9.9648     64.8214     89.5899   1.0950046765e+02   5.1379926871e+01    0.1759861    0.1276445  42.77 0.0002939735    1.565    0.361
       110 -11.8100    106.0343     87.5485   9.5922155902e+01   4.4763826632e+01    0.2918765    0.2574066  38.37  0.000504866    1.128    0.114
       111 -11.3509    250.3777     86.8971   6.7331402293e+01   1.2912010896e+01    0.1996771        0.175 -62.54 0.0002777065    1.099    0.090
       112 -10.8344    110.8528     87.8617   9.4632877543e+01   4.3737678361e+01    0.3140549    0.2016994 -46.74 0.0009726945    1.596    0.374
       113 -11.1524    107.0231     83.0161   9.4316492815e+01   4.5446500602e+01    0.2171516    0.2037989   6.47 0.0003543524    1.050    0.048
       114 -10.9040    213.7812    188.6415   9.4544083668e+01   8.5337141386e-01    0.3944728    0.2808785  59.66  0.001665957    1.901    0.474
       115 -11.0490     52.5647     81.0352   1.1138017178e+02   5.4773587945e+01    0.2219464    0.1854126  10.33 0.0003449014    1.225    0.183
       116  -9.9246      2.9568     81.0212   1.2934488905e+02   5.9137979640e+01     0.142423    0.1123808 -45.91 0.0004503523    1.028    0.028
       117 -10.8265    211.7226    195.6313   9.6332040981e+01  -1.1323630032e-01    0.4346195    0.2426996 -55.95   0.00174376    2.372    0.578
       118 -12.9813    109.8041     76.6707   9.1642350114e+01   4.6066286505e+01    0.5534453    0.4289944  66.36  0.002809832    1.573    0.364
       119 -11.9635    109.0200     70.7049   9.0057698634e+01   4.7285493198e+01    0.3388095    0.2382222  17.24  0.001270808    1.778    0.438
       120 -11.1095     94.9564     77.6697   9.6295093103e+01   4.8789405039e+01    0.1995565    0.1840301  27.18 0.0007705641    1.071    0.066
       121 -10.9014    206.8471    193.0581   9.6797368762e+01   1.2344352179e+00    0.3368728    0.2258548 -36.41 0.0008468503    1.443    0.307
       122 -11.6992     98.2625     74.7694   9.4416460806e+01   4.8698169836e+01    0.2781304     0.228862 -45.53 0.0008395753    1.286    0.222
       123 -11.4992    213.0568    211.7158   9.9149603236e+01  -3.2939357924e+00    0.3420434    0.2222334  32.73  0.001416744    1.523    0.344
       124 -10.1769    240.6867     72.4319   6.5573837945e+01   1.7223369609e+01    0.2160916    0.1220024  72.50 0.0008061369    1.909    0.476
       125 -11.8740    102.6937     69.5091   9.1493427717e+01   4.8767748689e+01    0.3180121    0.2494514 -18.42 0.0009124084    1.375    0.273
       126 -10.8553     82.9937     68.0559   9.7074703129e+01   5.2691326266e+01    0.2011188    0.1853757   3.27            0    1.028    0.028
       127 -10.6042     44.6980     67.8267   1.1044038130e+02   5.8303914062e+01    0.2498866    0.1535921  -7.19   0.00127336    1.988    0.497
       128 -10.9932    249.2334     65.1857   6.3134467707e+01   1.6626890923e+01    0.2054636    0.1915254  47.32 0.0004278057    1.513    0.339
       129 -10.5851     31.9401     67.0793   1.1507461168e+02   5.9801425370e+01    0.1848731     0.152285 -27.94 0.0002963504    1.009    0.009
       130 -10.5806     10.9772     65.9762   1.2294668922e+02   6.1707620168e+01    0.1801041    0.1361911 -36.25 0.0003260631    1.042    0.040
       131 -11.6955    234.4050     62.2838   6.4232765148e+01   2.0125875751e+01    0.6030255    0.4254848  71.78  0.003503732    1.406    0.289
       132 -11.7123    230.5632     47.0239   6.1523283626e+01   2.3200174727e+01    0.3515963    0.2328178 -39.33 0.0004873542    1.602    0.376
       133 -12.4180    223.0212     51.9987   6.3422823247e+01   2.4118616426e+01    0.7418522      0.37381 -48.83  0.003655208    1.807    0.446
       134 -11.8068    226.9639     54.9405   6.3578219449e+01   2.2827139682e+01    0.5287135    0.2613829 -48.28  0.002064368    1.820    0.451
       135 -10.8000    226.5201     50.4891   6.2695174352e+01   2.3575271445e+01    0.2312758    0.1750561 -54.88 0.0006060958    1.209    0.173
       136 -11.2883    236.8663     46.6853   6.0780241520e+01   2.1910763049e+01    0.3356803    0.2135244 -50.27   0.00178319    1.400    0.286
       137 -11.3809    233.7346     42.9735   6.0361294526e+01   2.3092613141e+01    0.3820824    0.1939787 -66.50  0.001826975    2.065    0.516
       138 -12.3107    242.8399     65.6651   6.3944906057e+01   1.7847910255e+01    0.5245216      0.28407 -83.53  0.001805118    2.419    0.587
       139 -10.3114     62.9753     64.1301   1.0260793904e+02   5.6586743849e+01    0.1938019    0.1671191  -8.70 0.0003338178    1.025    0.024
       140 -10.3052     17.5405     64.5196   1.1998822985e+02   6.1528060469e+01    0.1193578   0.09587935 -34.51 6.569323e-05    1.029    0.028
       141 -11.0843    227.6085    191.6639   9.2495035229e+01  -2.0797794522e+00    0.3180857    0.2641313 -18.47  0.001171805    1.122    0.109
       142 -10.4868     32.4620     58.9883   1.1248518217e+02   6.1259059547e+01    0.1823064    0.1051763 -46.47 0.0004444234    1.560    0.359
       143 -10.6021    239.5444     56.8957   6.2545510172e+01   1.9864272348e+01     0.298454    0.1882621  68.29  0.001678401    1.588    0.370
       144 -11.7798    138.8612     57.1066   7.8502495466e+01   4.2938659576e+01    0.3835758    0.2309298  22.39  0.001540238    2.803    0.643
       145 -10.1920     11.2083     58.1505   1.2081052809e+02   6.3187498420e+01    0.1403262    0.1274142 -46.09 0.0004941142    1.288    0.224
       146 -12.5882    128.5959     55.1546   8.0264106867e+01   4.5563622122e+01    0.3339818    0.3114471 -41.27  0.001253927    1.159    0.137
       147 -11.9724    121.2469     53.0575   8.1393781754e+01   4.7501587871e+01    0.4189971    0.2380382  63.40 0.0009181703    2.026    0.506
       148 -10.7569    116.1713     55.3861   8.3393057072e+01   4.8258831069e+01    0.2306876    0.1892464 -12.41 0.0005934552    1.354    0.262
       149 -11.8916    249.4739     53.2953   6.0784953162e+01   1.8365060573e+01    0.2321677     0.171392 -69.12 0.0004425323    1.108    0.097
       150 -12.3640    118.2775    190.7478   1.1627561307e+02   1.8368888021e+01    0.5022696    0.3673123 -64.08  0.001472219    1.402    0.287
       151 -11.6000    111.1317    190.8603   1.1803086032e+02   1.9621086229e+01     0.415138    0.2696658  68.83  0.001328533    1.921    0.479
       152 -11.8077    101.2283     51.4090   8.6147052972e+01   5.1954970831e+01    0.3003536    0.2255006  47.73 0.0003870168    1.278    0.218
       153 -10.8889    106.1716     48.3282   8.3779414758e+01   5.1391032057e+01    0.3148296    0.2058694  23.08   0.00122185    1.812    0.448
       154 -10.6125     93.7400     51.7954   8.8441549712e+01   5.3369506053e+01    0.2224932    0.1638091 -25.50 0.0006152895    1.413    0.292
       155 -10.8832     30.8595     51.2466   1.1069529088e+02   6.2787570467e+01    0.2260065    0.1719933 -34.39  0.000801678    1.166    0.142
       156 -13.0231    140.8142     48.8483   7.5687169074e+01   4.3679853428e+01    0.4824508    0.3769617 -49.30  0.001791924    1.402    0.287
       157 -11.8376    136.5050     44.0107   7.5178901993e+01   4.5328137103e+01    0.3621949    0.2737959  67.02  0.001570802    1.287    0.223
       158 -10.3675     18.0261     49.5178   1.1547419681e+02   6.4247387098e+01    0.1552899    0.1044619  11.49 0.0003458654    1.510    0.338
       159 -11.1883    246.0843     46.7113   5.9848283575e+01   1.9999537866e+01    0.3424845    0.2568965  63.30  0.002169732    1.516    0.341
       160 -11.2531     64.0377     45.8190   9.6060220621e+01   5.9425677606e+01    0.3309795    0.1734717 -40.43  0.001051857    1.980    0.495
       161 -11.9294    156.3569     44.6475   7.1470794622e+01   4.0614367840e+01    0.3098933    0.2871146  74.79 0.0008531825    1.042    0.040
       162 -12.1399    151.0136     44.6927   7.2474969723e+01   4.1866337248e+01    0.3612426    0.2416878  43.32  0.001494659    1.549    0.354
       163 -12.3328    124.6640     43.6705   7.7685817855e+01   4.8050078639e+01    0.4598464    0.1963665 -34.65  0.001953336    2.532    0.605
       164 -10.6310     50.0155    191.9594   1.3292608491e+02   2.8693015368e+01    0.2077103    0.1775707  86.04 0.0005705376    1.020    0.020
       165 -12.7922    207.9911     36.4693   6.1845895908e+01   2.9622552254e+01    0.5200384    0.3541763 -39.29   0.00298177    1.584    0.369
       166 -12.4097    220.8632     30.4447   5.9138723891e+01   2.7537559213e+01    0.7957684     0.165412 -46.05  0.002840682    3.970    0.748
       167 -10.6384    216.7706     38.0275   6.1171433612e+01   2.7450097515e+01    0.2534973     0.185966 -53.79 0.0004659741    1.282    0.220
       168 -11.1743    218.8120     35.2302   6.0353797969e+01   2.7369023213e+01    0.3119358    0.1879892 -67.88  0.001514773    1.595    0.373
       169 -12.2230    214.0005     34.6103   6.0752255288e+01   2.8516514710e+01    0.4466402    0.2555525 -35.21 0.0002240542    1.959    0.490
       170  -9.3044     25.7066     39.2677   1.0881371352e+02   6.5274400062e+01   0.09408735   0.09007505  16.80 0.0002483143    1.510    0.338
       171 -12.3539    146.5341     35.5912   7.0761529440e+01   4.4075895704e+01    0.3953948    0.3126309 -67.27  0.002281857    1.424    0.298
       172 -11.8485    233.5836     35.8437   5.8949028625e+01   2.4094239888e+01    0.3180733    0.2099842  85.27 0.0003913686    1.361    0.265
       173 -10.2263     99.5198     44.5031   8.4345653206e+01   5.3274791797e+01    0.1319042    0.1190722  29.85 -8.695581e-06    1.029    0.028
       174 -12.0559    199.6656     33.2081   6.2119309430e+01   3.1937937671e+01    0.3169652    0.2200938  79.51  0.001551756    1.273    0.214
       175 -11.4154    171.1514     33.7954   6.6145410940e+01   3.8510934144e+01    0.2393916    0.1885482  83.27 0.0008376325    1.159    0.137
       176 -13.6443    248.1390    184.3212   8.7373417710e+01  -4.0769962543e+00    0.3365376     0.299082  19.16  0.001139496    1.218    0.179
       177 -10.5386    184.1001    211.0933   1.0496061219e+02   1.7924828571e+00    0.2156974    0.1767993  79.76  0.001122333    1.706    0.414
       178 -10.2284     51.2298    245.6247   1.3812650973e+02   1.6413500877e+01    0.1644304     0.131947  59.57   0.00108988    1.139    0.122
       179 -10.8772    144.3631     31.6858   7.0056226553e+01   4.5045459445e+01    0.2855462    0.1683653 -64.15  0.000862156    2.391    0.582
       180  -9.4619     60.2911     31.6400   9.2206810901e+01   6.1982826839e+01    0.1060137   0.09874392 -67.67 0.0007027939    1.694    0.410
       181 -12.2379    202.5641     27.5919   6.0520048551e+01   3.1975437713e+01    0.3659727    0.1934149 -63.55  0.001805916    2.014    0.504
       182 -10.6369    147.0566     28.5365   6.8681471382e+01   4.4781639165e+01    0.2035652    0.1151516  63.96  0.001016463    1.556    0.357
       183  -9.7420     29.3401     28.2950   1.0319443972e+02   6.6538621421e+01    0.1195449   0.07208608  -6.30 0.0007030289    1.656    0.396
       184 -11.9500    210.3533     25.6014   5.9225038966e+01   3.0464071635e+01    0.3319139    0.2094861  64.70  0.001442484    1.492    0.330
       185 -10.9573    178.4674     26.4783   6.3270601939e+01   3.7667818629e+01    0.2323327    0.1986422  84.78 0.0008048883    1.019    0.019
       186 -10.7848    162.0266     27.0736   6.5807857096e+01   4.1450405550e+01    0.1973417    0.1686567  72.58 0.0003807039    1.016    0.016
       187 -11.6604    111.5273    184.2971   1.1679127025e+02   2.1127427116e+01     0.295081    0.2721303  88.92 0.0007617479    1.042    0.041
       188 -12.9862    226.4739     23.3804   5.7151731872e+01   2.7203937355e+01    0.6203518    0.2258089  73.65  0.002771165    2.593    0.614
       189 -10.0654     75.9382    186.0000   1.2589367585e+02   2.6579194976e+01    0.2247496   0.08012085  35.12 0.0007335423    2.919    0.657
       190 -12.3009    214.0408    243.2904   1.0457881470e+02  -8.7348164431e+00     0.278649    0.2142667  41.34  0.001404718    1.446    0.309
       191 -10.2585    168.5939     21.1090   6.3302809690e+01   4.0575366503e+01    0.2101997    0.1543353  82.99  0.000454468    1.232    0.188
       192 -10.3625    121.0580    243.1217   1.2366381867e+02   6.4329814813e+00    0.2936728    0.1792318  86.56  0.001306218    2.614    0.617
       193 -11.8637    184.4566     30.4704   6.3428068216e+01   3.5795933798e+01    0.4750504    0.2160327 -58.32  0.001779536    2.705    0.630
       194 -10.7757     18.9865     16.2203   1.0299642607e+02   6.9246717657e+01    0.1740375    0.1259406 -18.75 0.0003420972    1.156    0.135
       195 -11.7282    237.9962     15.4514   5.4611771462e+01   2.5729447840e+01    0.2348979    0.1260369 -58.65  0.001152892    1.601    0.375
       196 -10.3993     21.6495    243.1163   1.4345531035e+02   2.0539738930e+01    0.1911922    0.1227309  60.31 0.0003026879    1.266    0.210
       197 -10.5996    238.6764    187.5751   8.9667364146e+01  -3.1532824842e+00    0.2796376    0.2099967  72.18   0.00116862    2.268    0.559
       198 -10.4762      2.2415    242.5192   1.4684387838e+02   2.2721619577e+01    0.1903639    0.1189076 -87.59 0.0006585562    1.277    0.217
       199  -9.9720     92.2775    183.3721   1.2142515523e+02   2.4660721136e+01    0.1478578     0.111934 -33.37 0.0007008088    1.691    0.409
       200 -10.2278    201.5085    242.5031   1.0690017778e+02  -6.7073541538e+00    0.1290186    0.1112857  12.78 6.043293e-05    1.010    0.010
       201 -10.4303     32.7913    242.4268   1.4135958771e+02   1.9391563311e+01     0.142853    0.1114015  33.82  0.000464072    1.630    0.387
       202 -11.1609    239.3278    181.4882   8.8351147436e+01  -2.1677199824e+00    0.2550009    0.2486819 -86.67 0.0009340117    1.283    0.220
       203 -10.9238    190.1864    241.5782   1.0901325502e+02  -4.7700339846e+00    0.3198529     0.115955  35.08  0.001275778    2.585    0.613
       204 -11.9245    234.1199    234.6221   9.9276354520e+01  -1.0305720295e+01    0.2613458    0.2160775  56.59   0.00161422    1.864    0.464
       205 -11.8100    192.9197    232.3293   1.0690287640e+02  -3.6281142425e+00    0.2917533    0.2761632  18.61 0.0007934461    1.132    0.116
       206 -11.2238     85.0641    181.2793   1.2289147073e+02   2.6339871625e+01    0.3744253    0.2093732 -46.29 0.0009319688    1.993    0.498
       207 -11.8949    178.2505    231.9672   1.0986616103e+02  -1.1236682900e+00    0.5512352    0.2114606  37.66 0.0004765573    2.406    0.584
       208 -11.3111    176.2244    228.4188   1.0969184339e+02  -1.2744496151e-01    0.3191273    0.2039387  38.85  0.001621361    1.448    0.310
       209 -10.6427    144.3086    230.7873   1.1690953659e+02   4.9407791195e+00    0.2306501    0.1891594  59.15 0.0004818966    1.249    0.199
       210 -10.4150     69.1003    230.0685   1.3304135645e+02   1.7277485062e+01    0.1974934    0.1647354  70.94 0.0004056376    1.014    0.014
       211 -10.5873    149.2860    227.4639   1.1530577051e+02   4.7355436484e+00     0.248028    0.1947673  19.68 0.0009918159    1.396    0.284
       212 -12.4171     87.3607    173.8679   1.2107750482e+02   2.7813823332e+01    0.5870518    0.2584225 -49.93  0.002251952    2.296    0.565
       213 -10.9179    197.4903    226.4158   1.0494449573e+02  -3.3414460201e+00    0.2836323      0.21691  69.28  0.001350188    2.059    0.514
