#   1 NUMBER                 Running object number                                     
#   2 MAG_AUTO               Kron-like elliptical aperture magnitude                    [mag]
#   3 X_IMAGE                Object position along x                                    [pixel]
#   4 Y_IMAGE                Object position along y                                    [pixel]
#   5 X_WORLD                Barycenter position along world x axis                     [deg]
#   6 Y_WORLD                Barycenter position along world y axis                     [deg]
#   7 A_WORLD                Profile RMS along major axis (world units)                 [deg]
#   8 B_WORLD                Profile RMS along minor axis (world units)                 [deg]
#   9 THETA_WORLD            Position angle (CCW/world-x)                               [deg]
#  10 FWHM_WORLD             FWHM assuming a gaussian core                              [deg]
#  11 ELONGATION             A_IMAGE/B_IMAGE                                           
#  12 ELLIPTICITY            1 - B_IMAGE/A_IMAGE                                       
         1 -14.8495     25.3698     94.2819   1.0939012516e+02   5.4278404549e+01      1.15611     1.073029 -48.43   0.00697902    1.137    0.120
         2 -14.9652      6.7476     71.6249   1.1175926434e+02   6.0696449489e+01      1.44285    0.5556895 -51.14  0.004772845    1.883    0.469
         3 -14.7327    119.6198     54.5100   6.5838266374e+01   4.8037294910e+01     1.428611    0.9059324  22.35  0.003986668    2.059    0.514
         4 -13.4141    131.7703     32.7507   5.5267910989e+01   4.8326561375e+01    0.7710667    0.4766866 -25.88  0.002896747    1.732    0.423
         5 -14.3695    121.8180     37.5813   5.9284856007e+01   5.0053388132e+01     1.046021    0.5519117  33.99  0.003113115    2.213    0.548
         6 -12.3119    232.6720      2.2613   3.3474630258e+01   2.7394315633e+01    0.3781587    0.2353565  65.43  0.001656343    1.634    0.388
         7 -15.5478    218.3172     16.5501   3.7896160008e+01   2.9081243840e+01     2.081889     1.145096 -29.25   0.01070062    1.929    0.482
         8 -14.5866    189.8773     15.3354   4.0534300247e+01   3.5957212439e+01      1.46609    0.7125044 -54.38  0.006581348    2.228    0.551
         9 -13.9270    242.4943     35.1902   3.9912892594e+01   2.1459004225e+01    0.9385431    0.6059292 -87.31  0.003556696    1.612    0.379
        10 -13.1821      8.0918      2.6943   8.8228781916e+01   7.3745504195e+01    0.4998886    0.4372963  49.44   0.00259445    2.225    0.551
        11 -13.4557      2.6441     10.7921   9.5405467219e+01   7.2908987371e+01    0.6381164    0.3662237 -53.70  0.003950529    1.923    0.480
        12 -16.0095     12.0584     21.7918   9.4830297248e+01   7.0402883216e+01     1.855105    0.9706874 -28.29  0.008569648    1.631    0.387
        13 -14.4751     24.6132     13.8784   8.4606072194e+01   7.0528353579e+01    0.8374801    0.3524172  31.09  0.003615798    2.467    0.595
        14 -13.4782    139.6670     22.1376   5.0016314993e+01   4.7650646226e+01    0.8094205     0.343574  60.23   0.00190569    2.089    0.521
        15 -14.9410    166.7196     29.5507   4.7706445928e+01   4.0088736138e+01     1.151411     1.042835  67.24  0.004057555    1.038    0.037
        16 -12.8886    120.1982     26.3375   5.5581415198e+01   5.1847975364e+01    0.7303234     0.489054  32.93  0.003704434    1.526    0.345
        17 -15.0236    147.2864     29.7222   5.1105190036e+01   4.4908138712e+01     1.498386    0.9395303  60.10  0.005787454    1.470    0.320
        18 -15.4202     97.7327     12.3550   5.5670952877e+01   5.8423265876e+01      1.72022    0.7281357  51.55  0.005436675    2.016    0.504
        19 -12.3285     71.4192     17.3380   6.5876517460e+01   6.3189518645e+01     0.367561    0.2315467 -24.65  0.001138322    1.569    0.363
        20 -12.0097     59.9720     17.1883   7.0059684591e+01   6.5212823115e+01    0.3476703    0.1745956 -29.75  0.001767311    1.930    0.482
        21 -12.6997     38.5677     14.4401   7.7951976739e+01   6.8778879837e+01    0.4586927    0.2745557  11.17  0.002606764    1.720    0.418
        22 -14.1831     42.3914      4.1183   7.0911392487e+01   6.9536420329e+01    0.7801196      0.46027  21.45  0.003403846    1.566    0.361
        23 -12.0703    203.7436     11.8236   3.8148146560e+01   3.2995752642e+01    0.4437027    0.2186814 -76.99  0.001934037    2.472    0.596
        24 -11.0574    142.5429     11.9947   4.6109482218e+01   4.7975853274e+01    0.2065229    0.1745578 -81.85  0.000585113    1.274    0.215
        25 -11.8305    153.1755      8.7784   4.3404094480e+01   4.5655720985e+01     0.229938    0.2060989  71.34 0.0007795923    1.014    0.014
        26 -10.5755     58.4880      6.9703   6.5694935228e+01   6.6649939150e+01    0.1592788   0.09666897 -45.46 0.0008101212    2.551    0.608
        27 -12.1060    118.8252      2.9728   4.7211914834e+01   5.4467031718e+01    0.4020592    0.2710811 -84.56  0.002077405    1.971    0.493
        28 -11.9053     79.3656      2.1071   5.6306596081e+01   6.3209284878e+01    0.5841431    0.1698516  49.69  0.002392883    2.684    0.627
        29 -11.9519     61.7275      1.8898   6.1954551345e+01   6.6591645673e+01    0.2957408    0.1834118  52.34  0.001171888    1.741    0.426
        30 -14.1261    189.2016     26.3378   4.3580562089e+01   3.4892347293e+01     1.773214     0.618351 -56.71   0.00513964    5.168    0.806
        31 -11.7556     46.4225     13.1151   7.3722529423e+01   6.7855840857e+01    0.2809255    0.2274174  41.57  0.001842146    1.582    0.368
        32 -11.9986     96.1275    171.1244   1.0233807557e+02   2.6791080441e+01    0.2198957    0.2039564 -29.38  0.001261467    1.259    0.206
        33 -12.5657     57.0170    246.6466   1.1926659509e+02   1.6379540772e+01    0.5826612    0.1191363  36.25  0.002195767    4.211    0.763
        34 -11.9505     52.4895    250.5085   1.2035371505e+02   1.6235194154e+01    0.1863509    0.1023281  62.60 0.0007513422    1.537    0.349
        35 -13.5711     28.4161    246.0482   1.2429587618e+02   1.9807657850e+01     0.614143    0.2958168  73.59  0.003671067    1.879    0.468
        36 -11.9656      2.8477    249.7583   1.2871664930e+02   2.1729830134e+01    0.3129961      0.15311  53.96  0.001716704    1.498    0.332
        37 -13.8287      8.9298    245.6137   1.2755855740e+02   2.1890773824e+01    0.7217535    0.3431363  57.21   0.00335355    1.562    0.360
        38 -13.1559    124.6085    167.8110   9.4693939875e+01   2.2672147370e+01    0.7056217     0.271552 -50.53  0.002543383    2.614    0.617
        39 -11.9570     77.3917    156.9259   1.0481512989e+02   3.3044230394e+01    0.3937554    0.2918331  33.72  0.001436419    1.462    0.316
        40 -13.5797     74.0282    153.1246   1.0508450637e+02   3.4451720426e+01    0.6635528    0.5194284  26.83   0.00266847    1.473    0.321
        41 -11.0839    112.5048    157.4966   9.5761481154e+01   2.7230529357e+01    0.1475623    0.1423153  85.23 0.0008106595    1.007    0.007
        42 -12.7817    208.8089    154.4675   7.3013126003e+01   8.9786339291e+00    0.6367633    0.4333586  37.80  0.003144862    1.513    0.339
        43 -11.3626    155.0016    157.8166   8.5339011973e+01   1.9056129763e+01    0.2542932    0.1775962  68.16  0.001086219    2.008    0.502
        44 -11.9812     86.0168    152.7060   1.0181476372e+02   3.2783941667e+01    0.4769906    0.2483531 -48.43  0.002031122    1.958    0.489
        45 -11.8799    103.1949    150.2238   9.6776273571e+01   3.0584919615e+01    0.4224281    0.2728206 -37.47  0.001875025    1.819    0.450
        46 -12.6309     60.0428    148.7193   1.0813772868e+02   3.7401676021e+01    0.2616321    0.2178444 -57.68 0.0008009011    1.173    0.148
        47 -11.5176    136.8291    211.3386   9.9234946239e+01   1.1378645578e+01    0.2184327    0.1862636 -76.73 0.0008562508    1.370    0.270
        48 -11.6601     88.8493    139.9336   9.8651726841e+01   3.5460869046e+01    0.2346123     0.201142 -33.48  0.001142396    1.289    0.224
        49 -10.7882     62.9928    138.7096   1.0569721764e+02   3.9497851441e+01    0.1901253    0.1755365 -82.70 0.0004899862    1.043    0.041
        50 -12.6041     44.7168    135.1799   1.1030222918e+02   4.2530459399e+01    0.5106828    0.4206785 -27.53  0.003005627    1.475    0.322
        51 -12.8478    246.4375    133.3674   6.1681960125e+01   5.5791188188e+00    0.4901441     0.359574 -38.42  0.002686386    1.220    0.180
        52 -14.5254    230.2680    129.4236   6.3434942047e+01   9.2878278346e+00     1.252446      1.01039  58.91  0.006872253    1.494    0.331
        53 -13.7934    120.2481    102.3428   8.0695157598e+01   3.8594818808e+01    0.7339009    0.3619244  40.66  0.002795529    2.109    0.526
        54 -15.1304    105.6317    121.7560   8.9907561722e+01   3.6986214291e+01     1.799199     1.224833  35.43   0.00824798    1.558    0.358
        55 -15.4465    106.6941    105.8528   8.5553580077e+01   4.0501583930e+01      1.80304     1.430791  28.10  0.007302747    1.363    0.266
        56 -11.6208     60.3315    125.1733   1.0403771341e+02   4.3191102852e+01    0.2972544    0.1751638   7.46  0.001243924    2.754    0.637
        57 -11.9202    181.1808    121.1718   7.0779587646e+01   2.1173040304e+01    0.2908485    0.2124029  80.78 0.0009576058    2.022    0.506
        58 -12.8162     28.3725    122.5973   1.1315091210e+02   4.7200708785e+01     0.282961    0.2296096 -85.19  0.001751179    1.147    0.128
        59 -12.1792     78.6561    110.8834   9.5370938703e+01   4.4141513462e+01    0.3302859    0.2373321  41.14  0.001153937    1.505    0.335
        60 -12.7350     77.2511    117.4256   9.7309460648e+01   4.2769160762e+01    0.5577534    0.3893946 -78.90  0.002615257    1.732    0.423
        61 -13.4752     85.1153    115.2873   9.4419963833e+01   4.2070063279e+01    0.7926188    0.4052713  30.63  0.002328151    2.242    0.554
        62 -12.5777     88.1177    109.4256   9.2081971578e+01   4.2983269886e+01    0.5002378    0.2933151 -58.45  0.002159686    1.727    0.421
        63 -11.8839      4.0767    119.8028   1.1984651742e+02   4.9618423418e+01    0.5085214    0.1720205  15.03  0.002180018    4.058    0.754
        64 -14.2865     17.8235    110.9426   1.1463236822e+02   5.0854355860e+01    0.8327253    0.5974881 -47.36  0.003717682    1.329    0.247
        65 -14.1726     11.0252    102.1507   1.1548031192e+02   5.3403695626e+01    0.7706872    0.6766488 -50.16   0.00452779    1.170    0.145
        66 -13.4083      2.2084     97.2298   1.1761393614e+02   5.5050574324e+01    0.7846115    0.2445424 -74.33  0.003212769    2.776    0.640
        67 -14.0884    171.0599    243.0910   9.6902392260e+01   3.8658211893e-01    0.9249101    0.5393409  30.58  0.005144701    1.490    0.329
        68 -11.2445     45.8028    110.0872   1.0564681774e+02   4.8592104624e+01    0.2759067     0.161201 -48.25  0.001361302    1.547    0.353
        69 -11.9906     37.0808     93.1086   1.0509584864e+02   5.3547603376e+01     0.347879    0.2275911  13.31   0.00186465    1.864    0.464
        70 -10.3697     10.9885    134.2390   1.1951226651e+02   4.5729363673e+01    0.1341115    0.1059418  27.54 0.0008679199    1.565    0.361
        71 -11.9634    177.0302    110.3208   6.8879511128e+01   2.4269744884e+01    0.4456021     0.316187  -9.11  0.001891753    1.928    0.481
        72 -12.5875    136.1209    103.1296   7.6617936995e+01   3.5033252260e+01    0.8079682    0.3072486  46.32  0.002675598    2.689    0.628
        73 -12.8825     62.6368     99.5084   9.7821951790e+01   4.9141489001e+01    0.6028458    0.3799813  83.61   0.00241777    2.945    0.660
        74 -12.7401     49.6026     94.4667   1.0105204456e+02   5.1929401129e+01    0.6690387    0.4613874 -40.89  0.003575701    1.350    0.259
        75 -13.1730    249.1009     96.4378   5.3015694819e+01   1.1127835574e+01    0.8204158    0.2177849 -37.84  0.002827898    3.089    0.676
        76 -13.1059    137.0238     95.7222   7.4284419682e+01   3.6393302330e+01    0.4924978    0.3887772  63.54  0.001462378    1.448    0.309
        77 -12.3992     52.6698     97.7730   1.0076774982e+02   5.0793694991e+01    0.7655891    0.3900047 -19.35  0.002624198    4.113    0.757
        78 -12.6851    125.5894     92.7765   7.6474821123e+01   3.9524201009e+01    0.3511085     0.244441 -61.53  0.001516666    1.770    0.435
        79 -11.7160     42.8185     90.8133   1.0257385670e+02   5.3521168114e+01    0.3361933    0.1961443 -64.00 0.0009639412    1.611    0.379
        80 -12.1423     90.2874     88.3568   8.5697926916e+01   4.7446676182e+01     0.430844    0.3562376  44.46  0.002256772    1.315    0.240
        81 -12.9973    249.1954     85.5046   5.0528498353e+01   1.2838146135e+01    0.4492272    0.2524915 -36.36  0.002220433    1.546    0.353
        82 -13.4734    237.1964     80.2265   5.0880286292e+01   1.6127788857e+01    0.6017373     0.383723  82.42  0.002882723    2.103    0.525
        83 -12.8717    149.2294     85.2234   6.8177649905e+01   3.5684335737e+01    0.6685319    0.3792409  33.58  0.002563396    2.208    0.547
        84 -13.3601    134.9620     80.2093   7.0197871180e+01   3.9963646473e+01    0.7562806    0.4537671  42.95  0.003108928    1.692    0.409
        85 -11.5384     34.3169     86.8676   1.0470916759e+02   5.5265747339e+01     0.229954     0.184367 -11.01 0.0008441296    1.399    0.285
        86 -13.0866    188.5821     84.2230   5.9585930862e+01   2.6464433094e+01    0.7846053    0.3437689  41.91  0.002753618    2.803    0.643
        87 -14.8168    162.4911     70.4746   6.0824505302e+01   3.5174879932e+01     2.379525     1.114453  64.30  0.008434453    2.663    0.625
        88 -13.8089    160.9725     80.9028   6.4223472013e+01   3.3696658730e+01    0.8671288    0.6138544  17.41  0.002987378    1.963    0.490
        89 -14.4388    169.3198     77.1433   6.1364003316e+01   3.2352388984e+01    0.8112904    0.6532231  36.71  0.002576588    1.338    0.253
        90 -13.4281     57.6500     66.6834   9.0508867945e+01   5.7154331149e+01     0.633641    0.5312353 -20.86  0.003759237    1.099    0.090
        91 -13.1621     60.0670     60.7957   8.7655655868e+01   5.8023021877e+01    0.8432969    0.4155379 -22.64   0.00310765    3.293    0.696
        92 -13.2283     51.3471     68.9170   9.3615749116e+01   5.7487431380e+01    0.7118133    0.4540327 -75.82  0.003163515    2.681    0.627
        93 -13.9397     60.8989     75.7069   9.2062429870e+01   5.4800589754e+01    0.7289691    0.4285879 -38.23  0.001330856    1.589    0.371
        94 -13.1192    212.9016     78.4484   5.3941590951e+01   2.1758008484e+01     1.031018      0.61884  80.05  0.004367481    2.336    0.572
        95 -12.5159    218.0014     74.4999   5.2180127094e+01   2.1236572596e+01    0.3674012    0.2672965  78.01  0.001681404    1.563    0.360
        96 -12.4157    214.8448     71.8898   5.1988708385e+01   2.2370882196e+01    0.3878976    0.3529651  -3.55   0.00178269    1.281    0.220
        97 -12.1744    114.1731     80.3689   7.5932051841e+01   4.4507422535e+01    0.4245549    0.3435593 -44.23  0.001016258    1.236    0.191
        98 -11.7077     65.4777    126.3639   1.0272846659e+02   4.2230953166e+01    0.3074449    0.2449621  62.60  0.001411862    1.396    0.283
        99 -12.8094     16.8986     78.8517   1.0937523547e+02   5.8471785984e+01    0.4871204    0.2205413 -68.38  0.002240311    2.016    0.504
       100 -11.8963     23.1271     71.8690   1.0544518255e+02   5.9608277481e+01    0.2226541      0.19367 -22.76 0.0004774318    1.187    0.158
       101 -13.9208      7.8436     50.7650   1.0651931410e+02   6.5140938989e+01     1.123437    0.4928325 -34.54  0.005784961    2.061    0.515
       102 -13.2538      6.2989     43.8335   1.0532060169e+02   6.6641380907e+01    0.8106781    0.3629041  16.48  0.004365232    2.555    0.609
       103 -13.8497     96.5094    238.9604   1.1109904346e+02   1.2486926398e+01    0.5903599    0.3903646  51.95  0.002600936    1.271    0.213
       104 -13.7406      5.0178     63.8293   1.1083239821e+02   6.2504416558e+01    0.4632574    0.4141533  27.41  0.003378397    1.433    0.302
       105 -13.2708     91.8826     58.3600   7.5443202642e+01   5.3192925812e+01    0.5596493     0.484032 -55.25  0.002923111    1.379    0.275
       106 -13.7167     87.6543     65.3402   7.9277009157e+01   5.2681113660e+01     1.065514     0.638615   8.26  0.004124857    2.833    0.647
       107 -13.0308     70.3210     75.8198   8.8695075465e+01   5.3430760274e+01      0.56492    0.4408784 -23.86  0.001953408    1.268    0.212
       108 -12.4270     77.1214     73.8469   8.5686159024e+01   5.2785099977e+01    0.5471101    0.3123263 -33.16  0.001953628    1.812    0.448
       109 -11.6393     41.9623     76.6539   9.9394852538e+01   5.6854822261e+01    0.2854208     0.199715 -60.47  0.001422761    1.374    0.272
       110 -14.0554    199.1181     69.6306   5.3833117131e+01   2.6409853273e+01     1.174005    0.6736053  37.34  0.004115648    2.322    0.569
       111 -12.6238    199.5123     62.4524   5.1860609352e+01   2.7446163938e+01    0.4114853    0.2694779 -35.09  0.001677415    1.493    0.330
       112 -11.6403     63.2553    111.4598   1.0035567362e+02   4.6185303429e+01    0.3532061    0.2145552  59.92  0.001546283    2.294    0.564
       113 -11.8462     17.9836     71.4840   1.0736683528e+02   6.0060842237e+01     0.238019    0.2131256  29.22 0.0003538237    1.384    0.278
       114 -12.2915    241.9636     71.4829   4.8230269855e+01   1.6477761933e+01    0.4260702    0.2701111 -69.51  0.002096819    1.908    0.476
       115 -13.6754    133.5287     65.8502   6.6029220950e+01   4.2929476037e+01    0.8675252    0.7146815  -1.04  0.003041286    1.374    0.272
       116 -12.4253     38.8051     68.2018   9.8305140495e+01   5.9036916115e+01    0.4832984    0.2472194  31.45  0.002382539    2.202    0.546
       117 -11.7044    100.5756     64.4220   7.4790662986e+01   5.0382930390e+01     0.407794    0.2629921 -21.77  0.001832046    1.782    0.439
       118 -11.0847     33.9345     68.0000   1.0018265840e+02   5.9552954600e+01    0.2565761    0.1836938  28.88  0.001120862    1.620    0.383
       119 -14.2365    178.0734     57.4509   5.4014069497e+01   3.3443898628e+01    0.9703875    0.7041975 -42.01  0.002881824    1.363    0.266
       120 -12.6085     79.6820     61.1417   8.0558398757e+01   5.4894705073e+01    0.5090424    0.4396907 -28.18  0.002171789    1.083    0.076
       121 -13.0356     82.4638     54.6287   7.7263296598e+01   5.5608341081e+01    0.4979807    0.3725891   5.62  0.001844882    1.460    0.315
       122 -12.1744     24.5268     60.0737   1.0184012570e+02   6.2066529542e+01     0.300996    0.2067122 -48.25 0.0008099357    1.177    0.150
       123 -10.5776     38.4980     60.0075   9.6008376758e+01   6.0804743951e+01    0.1727953    0.1134049 -77.55 0.0008104853    2.561    0.609
       124 -11.8630    147.4941    239.0312   1.0097267884e+02   4.7117686353e+00    0.1669767     0.126697 -51.02 0.0008820784    1.582    0.368
       125 -12.9365    135.5646     50.4217   6.0448591026e+01   4.4965268083e+01    0.5612111    0.3382383  32.65  0.001704251    1.960    0.490
       126 -12.2625     24.8294    217.6750   1.2326005389e+02   2.5673891036e+01    0.5065299    0.3168407  80.85  0.003291109    1.329    0.248
       127 -11.5643     14.6180    224.0709   1.2553007151e+02   2.5418236580e+01    0.3610921    0.2013959  69.98  0.001449136    1.444    0.308
       128 -12.9127    109.9328     42.3737   6.4133306830e+01   5.2074431481e+01    0.5714457    0.2380272  48.01   0.00160374    2.247    0.555
       129 -12.4392    113.7623     38.1474   6.1537864945e+01   5.1821790266e+01    0.3968187    0.3015664  44.75  0.001399835    1.232    0.189
       130 -13.1185    248.2686     51.9436   4.3076268233e+01   1.8000108226e+01    0.6636443    0.3879185 -34.56   0.00348949    1.587    0.370
       131 -13.3217     55.2434     81.9036   9.5885389584e+01   5.4162586040e+01    0.5896002    0.4478669 -33.13  0.002420662    1.239    0.193
       132 -11.8284    230.4930     55.3138   4.5832112551e+01   2.1343220013e+01     0.434453    0.1814268  66.14  0.001809845    2.589    0.614
       133 -13.7747    103.0523     50.5362   6.9117076788e+01   5.2293033301e+01     0.877805    0.6694476 -69.72 0.0008017474    1.984    0.496
       134 -12.1089     97.9797     50.4856   7.0644817333e+01   5.3347810822e+01    0.3994149    0.3090793 -85.30  0.001445127    2.161    0.537
       135 -13.3173     66.0775     48.9337   8.1105993936e+01   5.9376848412e+01    0.5184705    0.5024154 -77.08  0.001128973    1.402    0.287
       136 -11.0892     22.7093     50.4020   9.9797081228e+01   6.4216505659e+01    0.2767223    0.1446697   1.50  0.001387979    2.412    0.585
       137 -11.4625     77.9680     54.2264   7.8691869938e+01   5.6471702152e+01    0.2803797    0.2322954  -0.28 0.0008778209    1.168    0.144
       138 -13.4675    158.1076     44.1430   5.3669639422e+01   4.0353571061e+01    0.7436068    0.5658881  28.80  0.003278337    1.517    0.341
       139 -13.7660     25.7594    227.4385   1.2369396335e+02   2.3624031631e+01    0.6340684    0.3325224 -59.33  0.003743326    2.251    0.556
       140 -13.3686     20.5400    225.4838   1.2453319463e+02   2.4548829844e+01    0.4266804    0.3746152  75.74  0.002663497    1.271    0.213
       141 -13.1139    237.5380    230.7370   8.2499240869e+01  -7.7711082067e+00    0.2791327    0.2004746  31.66  0.001818423    1.393    0.282
       142 -10.3430     55.4775     41.3895   8.2385774114e+01   6.2283855542e+01    0.1316321    0.1094123  -8.64 0.0001501782    1.039    0.038
       143 -13.0676     66.2097    223.3911   1.1560001006e+02   1.9662007047e+01     0.661047    0.5512148  35.51  0.004446491    1.372    0.271
       144 -12.6898     75.9577     37.4251   7.2919531581e+01   5.9632864148e+01    0.3534313    0.2492338  41.02 0.0009783342    1.446    0.309
       145 -12.2115     69.6250     36.5848   7.4889683425e+01   6.0864128298e+01     0.410221     0.215844  32.86 0.0009880369    1.920    0.479
       146 -11.7319     58.0272     35.2512   7.8855666737e+01   6.2932108020e+01    0.3599232    0.2080404  24.02  0.001764686    1.823    0.451
       147 -12.3759     46.2749     33.8128   8.3208073171e+01   6.4825270982e+01    0.4689883    0.2713433 -24.76  0.002478036    1.667    0.400
       148 -11.7965     40.3142    243.5233   1.2206125200e+02   1.8946667499e+01    0.2526615    0.1562212  84.08  0.001677218    1.452    0.311
       149 -12.8381     95.2801    218.3955   1.0908452818e+02   1.6601711629e+01    0.4997714    0.1986795  40.03  0.002216705    2.184    0.542
       150 -12.7670      2.1234     21.8448   1.0023337721e+02   7.1053486747e+01    0.2899332    0.1671958 -55.08  0.001138892    1.646    0.393
       151 -12.6225    185.7003    213.4365   8.9336033385e+01   2.7223132433e+00    0.2736693    0.1988031 -47.52  0.001532718    1.634    0.388
       152 -13.4379      9.0591    211.0655   1.2584377902e+02   2.8563494862e+01    0.8139021     0.531194  65.50  0.005629691    1.215    0.177
       153 -12.9994     16.7059    195.6578   1.2340342027e+02   3.1104034084e+01     0.984517     0.252317 -70.37  0.004187843    3.106    0.678
       154 -13.6763     30.1126    168.9052   1.1825692663e+02   3.5862698760e+01    0.7376137     0.427137 -47.40  0.002570651    2.076    0.518
       155 -11.6132     27.5671     33.2328   9.1565577158e+01   6.7063524233e+01    0.3365074    0.1988139 -54.60  0.001845908    1.951    0.487
       156 -11.2726     31.3589     31.3428   8.8999775180e+01   6.7009886490e+01    0.2673382    0.1487783  17.71 0.0008841691    1.910    0.476
       157 -10.4488     91.3119     34.3354   6.6523157893e+01   5.7159793785e+01    0.1451964   0.09789921  13.72 0.0007045029    1.684    0.406
       158 -13.4429     22.2246    181.1852   1.2115625608e+02   3.3791436117e+01    0.6650956    0.3448431 -61.90  0.002813851    1.828    0.453
       159 -10.3541     89.2995     30.2796   6.5513915034e+01   5.8119554544e+01    0.1378529   0.09463988  17.88 0.0001881792    1.542    0.351
       160 -11.1494     38.2827     29.9548   8.5177776748e+01   6.6465291086e+01    0.1733986    0.1302324 -23.30 0.0001796478    1.101    0.091
       161 -12.9062     56.1876     27.4445   7.6260067539e+01   6.4414936111e+01    0.5956568    0.2789212  42.24  0.002063891    2.297    0.565
       162 -12.7973     67.9350     24.6941   7.0441868815e+01   6.2880689121e+01    0.6342642    0.3014943  40.42  0.003027381    2.005    0.501
       163 -14.7746      8.1444    183.5890   1.2435761061e+02   3.4506632619e+01     1.030257    0.8668001  75.23  0.007596721    1.147    0.128
       164 -10.7980     98.0374     27.4580   6.1745945347e+01   5.6674758487e+01    0.2105018     0.124944  50.08  0.001029371    1.590    0.371
       165 -11.4897     37.1799     25.7356   8.3867928287e+01   6.7280934135e+01    0.1868557    0.1745012   6.81 0.0002762039    1.391    0.281
       166 -12.1280     46.5172     21.0734   7.7494674426e+01   6.6763236922e+01    0.3256528    0.2108236 -19.70  0.001032007    1.397    0.284
       167 -15.1073     16.1511    175.7823   1.2206248965e+02   3.5570812025e+01      2.24916     1.013224  64.59   0.01106512    2.284    0.562
       168 -11.1464     53.9159     20.0561   7.3848177107e+01   6.5810904477e+01     0.298104    0.1513242  26.58  0.001416159    2.061    0.515
       169 -13.9329     62.9934    214.4373   1.1541678124e+02   2.1909063085e+01    0.7099757    0.4155674  58.51  0.003968036    1.548    0.354
       170 -12.4254     41.7248    207.0932   1.1914727829e+02   2.6045132316e+01     0.299231    0.1547753  79.09  0.001541109    2.004    0.501
       171 -11.1204    150.7912    206.9479   9.5535033670e+01   9.8352245048e+00    0.2626456    0.1679098  25.52  0.001284655    1.682    0.405
       172 -12.5142     57.2606    203.1947   1.1553450405e+02   2.5026356805e+01    0.4879349    0.2318591 -85.54  0.002232932    2.445    0.591
       173 -13.0411     40.4990    195.2194   1.1838412821e+02   2.8761659726e+01    0.4590508    0.1817874 -87.61  0.001854567    3.151    0.683
       174 -13.1865    164.2351    194.1048   9.0416391057e+01   9.9015656336e+00     0.609345    0.3338309 -57.54  0.002602809    2.433    0.589
       175 -10.5228    212.3362    200.3425   8.1712497598e+01   4.1893246078e-01    0.1424827   0.09354465   1.80 0.0007050217    1.764    0.433
       176 -12.5155    200.9393    192.1516   8.2387727502e+01   3.7079138153e+00    0.3773175    0.2693213 -20.37   0.00142138    1.442    0.306
       177 -15.1704    212.7515     41.1720   4.4514196941e+01   2.7358833115e+01     2.620311    0.7708095  71.35   0.00810387    4.459    0.776
       178 -11.9550     49.0989    181.5239   1.1512107036e+02   3.0873741282e+01    0.3689521    0.2352866 -54.08  0.002022523    1.694    0.410
       179 -13.2792    198.4669    181.6204   8.0813883058e+01   5.9889235451e+00    0.4016309    0.3403548 -66.67  0.002117161    1.630    0.386
       180 -12.5249     85.3059    180.4944   1.0642167451e+02   2.6284321345e+01    0.2993412    0.2005628  79.71  0.001472805    1.733    0.423
       181 -12.3425    131.0926    173.5009   9.4187999766e+01   2.0217596990e+01    0.2503198    0.2133993  86.04   0.00131703    1.337    0.252
