#   1 NUMBER                 Running object number                                     
#   2 MAG_AUTO               Kron-like elliptical aperture magnitude                    [mag]
#   3 X_IMAGE                Object position along x                                    [pixel]
#   4 Y_IMAGE                Object position along y                                    [pixel]
#   5 X_WORLD                Barycenter position along world x axis                     [deg]
#   6 Y_WORLD                Barycenter position along world y axis                     [deg]
#   7 A_WORLD                Profile RMS along major axis (world units)                 [deg]
#   8 B_WORLD                Profile RMS along minor axis (world units)                 [deg]
#   9 THETA_WORLD            Position angle (CCW/world-x)                               [deg]
#  10 FWHM_WORLD             FWHM assuming a gaussian core                              [deg]
#  11 ELONGATION             A_IMAGE/B_IMAGE                                           
#  12 ELLIPTICITY            1 - B_IMAGE/A_IMAGE                                       
         1 -11.9392    173.3282     51.4743   6.2353707796e+01   3.4770465117e+01      1.55466    0.8216619  32.34  0.004840928    2.655    0.623
         2 -12.5063    187.6378     37.6999   5.5842994317e+01   3.2954031268e+01     1.089695     0.939915  11.90    0.0039058    1.268    0.211
         3 -12.3849    211.9248      5.8027   4.3727048165e+01   3.0247155861e+01    0.9067206    0.8081119  84.58  0.004487868    1.156    0.135
         4  -8.8835    104.0996    213.8381   1.1121263305e+02   1.9861867065e+01     0.150011    0.1182481  27.76 0.0005504911    1.331    0.249
         5 -11.3533    138.8039    247.5658   1.0823557742e+02   1.0586695112e+01    0.4846142    0.4041698  26.01  0.004083814    1.218    0.179
         6  -8.5152    151.8316    197.1809   9.9965821922e+01   1.5395198870e+01    0.1594061     0.127475  15.18 0.0007235316    1.297    0.229
         7 -10.1455    113.5949    195.7821   1.0735743757e+02   2.1413748725e+01    0.2741405    0.2001622  19.38  0.001696101    1.635    0.388
         8  -9.1820     69.0144    178.2879   1.1496558509e+02   3.0727402045e+01    0.2075297    0.1560963  41.52 0.0004633132    1.224    0.183
         9 -12.2112     71.9305    186.1245   1.1508546972e+02   2.8872250988e+01    0.7906814    0.6622966  39.53  0.005575018    1.221    0.181
        10  -9.4063     63.7986    186.6291   1.1688977079e+02   2.9795180369e+01    0.2714454    0.1473123  45.94 0.0006100786    1.495    0.331
        11  -9.3352     81.6244    195.3919   1.1391580512e+02   2.5936082835e+01    0.2423925    0.2007533  23.00  0.001682414    1.446    0.309
        12  -9.2777     97.7937    193.7091   1.1037350482e+02   2.4032053439e+01    0.2275048      0.17879 -22.65  0.001441823    1.917    0.478
        13  -8.1829    154.3100    185.6470   9.7800103428e+01   1.6709859814e+01    0.1194662   0.09239089  67.75 0.0007044073    1.723    0.420
        14  -9.3404     99.3962    180.6897   1.0851761593e+02   2.6108970696e+01    0.2156115    0.1931922  35.02 0.0006691358    1.183    0.155
        15  -8.5354     53.2564    180.9251   1.1870553479e+02   3.2135602884e+01    0.1517534    0.1266151  64.51 0.0003421347    1.056    0.053
        16  -8.5467    204.3818    175.8007   8.6892230619e+01   9.8787105214e+00    0.1648291    0.1052988 -16.02 0.0007863188    1.687    0.407
        17  -9.3760    125.8112    173.1690   1.0176505112e+02   2.3377152095e+01    0.1749246    0.1449371  17.83    0.0010319    1.344    0.256
        18 -10.0785    103.7664    172.3170   1.0647643413e+02   2.6997824083e+01    0.3141503     0.234408  28.52  0.001877347    1.418    0.295
        19  -8.7781    143.3153    172.3300   9.7935908525e+01   2.0629784315e+01    0.1273016   0.09557856   6.89 0.0007045572    1.679    0.405
        20  -7.6194    162.6846    167.6593   9.3209970606e+01   1.8073397336e+01     0.131804   0.09421963   8.16 0.0005269653    1.705    0.414
        21 -10.2179    185.3222    213.2749   9.6132137794e+01   8.2222359118e+00    0.3570777    0.1049731  35.36  0.001532284    2.952    0.661
        22 -10.7058    113.8968    208.2422   1.0872335245e+02   1.9374249840e+01    0.2923051    0.1952355  69.63  0.001306996    1.851    0.460
        23 -10.1201     92.1181    159.6028   1.0741703188e+02   3.1206956400e+01    0.2391957    0.2319224 -32.00 0.0004662491    1.255    0.203
        24 -10.9219     97.6067    152.9240   1.0513161868e+02   3.1709059787e+01     0.539272     0.399011 -18.31  0.002016526    2.124    0.529
        25  -9.5339    134.4286    148.6434   9.5782940682e+01   2.6323536366e+01    0.5041919    0.1741079 -52.26  0.001829404    3.477    0.712
        26  -9.3529    133.3138    142.1065   9.4804341920e+01   2.7744589032e+01    0.4348765    0.1928867 -55.64  0.001717616    2.849    0.649
        27  -8.8026    113.0464    151.0912   1.0115019768e+02   2.9574429186e+01    0.2099399    0.1535598  72.97  0.001117122    1.635    0.388
        28  -7.7644    175.2930    149.3107   8.7291756017e+01   1.8688249395e+01    0.1343049   0.09742389   9.27 0.0003064228    1.589    0.371
        29  -9.4348    114.5347    143.5177   9.9486417156e+01   3.0815819793e+01    0.3580791     0.205586  88.85  0.001191021    4.595    0.782
        30  -9.0914    126.2147    209.5835   1.0648531981e+02   1.7408413013e+01    0.1731821   0.09335168  30.64   0.00095876    1.764    0.433
        31 -10.5582    108.9481    138.3942   9.9928708766e+01   3.2809584163e+01    0.4557031    0.2793545 -37.67  0.002154005    2.070    0.517
        32 -10.8363     96.9780    138.3544   1.0293440745e+02   3.4813563135e+01    0.2676155     0.258867  50.81 0.0003717749    1.106    0.096
        33  -8.5695    128.4721    139.4734   9.5418388007e+01   2.9132219969e+01    0.1368472    0.1278063  41.17 0.0008093168    1.023    0.022
        34 -10.9523    108.3997    204.3649   1.0938366073e+02   2.0763526362e+01    0.2851209    0.2228551  63.85  0.001265059    1.285    0.222
        35  -9.6955    105.9356    130.8606   9.9283901641e+01   3.4888023189e+01    0.3370433    0.2875017  80.72  0.001141938    1.240    0.193
        36  -9.9027    115.2791    129.6983   9.6688645732e+01   3.3475703322e+01    0.2952127     0.231552 -28.82 0.0006297518    1.554    0.357
        37  -9.7994    135.6155    126.5536   9.1086961248e+01   3.0275853508e+01    0.3550175    0.1351241 -50.77  0.001271048    3.005    0.667
        38  -9.5725    103.2553    125.3589   9.8909042395e+01   3.6514936741e+01    0.2802273    0.2354738 -19.80 0.0007540058    1.508    0.337
        39  -9.0542    119.8345    124.1654   9.4405995250e+01   3.3767661191e+01    0.1930899    0.1700957 -10.79  0.000554104    1.344    0.256
        40  -8.8390    110.7470    118.7886   9.5582668042e+01   3.6568758912e+01    0.2030616    0.1926316   4.60 0.0006055729    1.178    0.151
        41  -9.7647     65.4898    114.9394   1.0755890723e+02   4.4766845682e+01    0.2029174    0.1787307  51.13  0.001176507    1.145    0.126
        42  -8.6120    168.0668    112.9852   8.0754721326e+01   2.6110136117e+01    0.2301605    0.1814436 -79.16  0.001129828    1.818    0.450
        43 -10.2743    119.9440    110.5700   9.1328015798e+01   3.6535488112e+01    0.4535432    0.2264498  61.13   0.00157908    3.166    0.684
        44  -8.7715    205.4360    110.2772   7.3114525158e+01   1.8702607836e+01    0.2437815    0.1561356  36.91 0.0007762154    1.585    0.369
        45  -9.2009    134.6312    105.0081   8.6272768982e+01   3.4671292452e+01    0.3448479    0.1398635 -43.38  0.001258961    2.507    0.601
        46  -8.7281     87.6553    204.2915   1.1353040777e+02   2.3609955415e+01    0.2566095    0.1778684  85.88  0.001685371    1.662    0.398
        47 -10.0876     96.3423    200.8306   1.1143170741e+02   2.3021839110e+01    0.3066028    0.2615836  -3.03  0.001175712    1.643    0.391
        48  -8.3422    161.6534    200.3180   9.8551844720e+01   1.3432501394e+01    0.1154718   0.08528057  59.93 0.0007048671    1.727    0.421
        49  -9.8674    193.6465    195.9564   9.2117055281e+01   9.0618753535e+00    0.3794459     0.245482 -64.55  0.001743613    4.387    0.772
        50 -10.1914    165.1467     65.7009   6.8290989679e+01   3.4688205569e+01    0.3356548    0.2860033  89.62 0.0004878946    1.360    0.265
        51 -19.5830     22.2943    149.8164   1.2357801225e+02   4.1724155817e+01     17.41088     2.819319 -78.17   0.05217995    6.357    0.843
        52 -10.6806    162.2522    225.2858   1.0173421992e+02   1.0094812455e+01    0.3038227    0.1748313  24.37  0.001864859    1.699    0.411
        53 -11.7613    192.4934     31.3272   5.3242776814e+01   3.2481656501e+01    0.5779443    0.5483678  76.29  0.001236245    1.091    0.083
        54 -10.1644    197.9980     23.5221   5.0222601083e+01   3.1959451127e+01    0.2243511    0.1847782 -30.00 0.0006778287    1.152    0.132
