#   1 NUMBER                 Running object number                                     
#   2 MAG_AUTO               Kron-like elliptical aperture magnitude                    [mag]
#   3 X_IMAGE                Object position along x                                    [pixel]
#   4 Y_IMAGE                Object position along y                                    [pixel]
#   5 X_WORLD                Barycenter position along world x axis                     [deg]
#   6 Y_WORLD                Barycenter position along world y axis                     [deg]
#   7 A_WORLD                Profile RMS along major axis (world units)                 [deg]
#   8 B_WORLD                Profile RMS along minor axis (world units)                 [deg]
#   9 THETA_WORLD            Position angle (CCW/world-x)                               [deg]
#  10 FWHM_WORLD             FWHM assuming a gaussian core                              [deg]
#  11 ELONGATION             A_IMAGE/B_IMAGE                                           
#  12 ELLIPTICITY            1 - B_IMAGE/A_IMAGE                                       
         1 -14.4026    195.8601     35.6928   5.1266648876e+01   3.1590096909e+01     1.775327     1.389432  12.83  0.005564776    1.655    0.396
         2 -14.6548    206.4078     23.7720   4.6578419361e+01   3.0368441274e+01     1.868751     1.288137   9.85   0.00287216    2.153    0.536
         3 -10.7940     64.2584      8.9900   7.0920091053e+01   6.5657699017e+01    0.1946104    0.1826247  74.50 0.0007044872    1.603    0.376
         4 -11.9419     59.1539      3.0269   6.9779148349e+01   6.7190410088e+01    0.3488714    0.1882008  38.66  0.001914931    1.718    0.418
         5 -11.8200     32.0226      4.1759   8.2047099729e+01   7.1032042792e+01    0.2451211    0.2072153 -35.22  0.001754466    1.544    0.352
         6 -11.8181    229.9619      1.9400   3.8720546556e+01   2.6969794013e+01    0.6378773    0.2078938  74.13  0.002279291    2.859    0.650
         7 -12.4413    194.2013    194.9307   9.1180353466e+01   4.5500035070e+00      1.08729     0.628814 -61.32   0.00448364    3.324    0.699
         8 -14.4153     87.7922    229.6251   1.1688816335e+02   1.6708857859e+01     2.090867      1.13735  48.46  0.001866855    1.484    0.326
         9 -16.2257     53.1490    201.3306   1.2084897518e+02   2.6883571876e+01     3.922662     2.749728 -62.46   0.02296784    1.600    0.375
        10 -17.7386      5.8561    239.6113   1.3148997358e+02   2.4884169440e+01     11.76355     1.283298 -77.13   0.01752601    7.127    0.860
        11  -9.8565    209.8283    199.6317   8.9069958202e+01   9.9090924342e-01    0.1778321    0.1128383  48.25 0.0003575269    1.643    0.391
        12 -13.6822     22.0927    193.7487   1.2626445833e+02   3.1959677883e+01     0.663981    0.4839046  72.24 0.0006255989    1.075    0.070
        13 -10.1846     96.8837    191.7202   1.1081177375e+02   2.2656106376e+01    0.2554503    0.2203505  18.95  0.001165446    1.576    0.366
        14 -10.1103    148.5278    187.9692   9.9214927753e+01   1.4371845190e+01    0.1983124    0.1385586 -52.04  0.001027034    1.580    0.367
        15 -10.1014     99.4164    180.6979   1.0873888726e+02   2.4571430416e+01    0.2283824    0.2135884  70.53 0.0005338408    1.133    0.117
        16 -12.1273     72.0868    178.0426   1.1443958724e+02   2.9309863495e+01    0.3920048    0.2694639 -41.94  0.002102953    2.056    0.514
        17 -12.0411     76.1049    172.8960   1.1288130643e+02   2.9875176341e+01    0.3029077    0.2500995 -51.53 0.0006525571    1.442    0.306
        18 -16.4015     69.7552    248.1500   1.2163922854e+02   1.6003170940e+01     8.703009     2.499103  34.37   0.02480217    6.151    0.837
        19 -11.2533     47.4682    173.0807   1.1929092555e+02   3.3601222683e+01    0.3610884    0.1755508 -55.79  0.001131884    2.190    0.543
        20 -11.4335    125.3888    173.8974   1.0184959374e+02   2.1510195482e+01    0.4493782    0.2729116  35.75  0.002100246    1.743    0.426
        21 -13.9554     58.0979    129.6292   1.1090024278e+02   4.2382391625e+01     2.741599    0.8894554 -73.00  0.007731245    5.204    0.808
        22 -13.0825     84.2971    163.3683   1.0963823704e+02   3.0800969735e+01     1.274342     0.454689  54.58 0.0005407776    3.704    0.730
        23 -13.7813     72.6635    158.7892   1.1172798160e+02   3.3566185174e+01    0.5700129    0.4797623 -43.73  0.001494296    1.469    0.319
        24 -14.6997     68.2886    144.2797   1.1061122346e+02   3.7563365129e+01     4.123968     1.931467  60.59  0.003982939    2.904    0.656
        25 -10.2994    201.7719    168.8056   8.4601453420e+01   7.4412886957e+00    0.4436888    0.2201153 -45.40  0.001869426    2.247    0.555
        26 -10.1985    204.2583    164.7485   8.3265679524e+01   7.6419648467e+00    0.3414086    0.2483876 -55.08 0.0009373358    1.737    0.424
        27 -10.2499    163.7848    169.5870   9.2573296046e+01   1.4946989839e+01    0.2639526    0.2234592 -75.70 0.0006527805    1.409    0.290
        28  -9.7653    107.9548    203.3217   1.1001611628e+02   1.8536385700e+01    0.1814212    0.1462075  56.73 0.0004868648    1.067    0.063
        29 -10.7949    193.5525    166.0179   8.5648404850e+01   9.5761485631e+00    0.3568978    0.2720527 -49.86  0.001595332    1.486    0.327
        30 -12.1500     90.8984    156.2479   1.0693143860e+02   3.1394171770e+01    0.5814397    0.4354165 -27.98  0.002932119    1.976    0.494
        31 -10.4323    189.1462    155.1249   8.4209187617e+01   1.2465030165e+01    0.4639051     0.209018  42.25   0.00179713    2.179    0.541
        32 -10.4568     53.3876    172.2780   1.1789990439e+02   3.3062290078e+01    0.3744263    0.1868439 -72.06  0.001901857    1.808    0.447
        33 -11.3315    134.0000    143.9755   9.4070585731e+01   2.6328675001e+01    0.9775344    0.3225903 -56.79  0.002734493    4.315    0.768
        34 -10.4812     97.2384    148.5753   1.0403937035e+02   3.2123086618e+01    0.3690517    0.2255437  83.82  0.001161052    2.405    0.584
        35 -10.3353    174.7807    148.9285   8.5852987082e+01   1.6704300656e+01    0.2713818    0.2688924  -2.98  0.000893291    1.034    0.033
        36 -10.9061    143.9604    146.2382   9.2192741008e+01   2.3797576861e+01    0.5106304    0.2472852  56.35  0.001846486    2.537    0.606
        37 -10.4890     87.7366    146.4530   1.0604386119e+02   3.4170646195e+01    0.2608529    0.2012058  84.95 0.0003876289    1.336    0.251
        38 -11.0750     42.6983    143.9036   1.1700510424e+02   4.0810011208e+01    0.2080423    0.1733265 -44.04 0.0008611372    1.477    0.323
        39 -10.9974    104.4819    140.2447   1.0062322663e+02   3.2803094413e+01    0.6243307    0.3474291 -31.54  0.002275488    3.166    0.684
        40 -12.4211     91.6888    141.0870   1.0406394210e+02   3.4791015197e+01     0.277347    0.2477393 -56.74 0.0004401164    1.154    0.134
        41 -11.3109    137.6650    171.0610   9.8592115131e+01   1.9798749815e+01    0.3438005    0.2008268  41.17  0.001439343    1.645    0.392
        42 -10.3140    112.6917    130.8833   9.6541804539e+01   3.3466455912e+01    0.3186372    0.2569069  -6.79 0.0009549422    1.733    0.423
        43 -10.3111    105.9658    130.6790   9.8251737890e+01   3.4760663714e+01    0.3127242    0.2813581 -72.11    0.0011788    1.059    0.056
        44 -15.1771     10.3771    206.4233   1.2918813344e+02   3.0572215380e+01    0.5651174    0.5157719 -85.32  0.002362482    1.505    0.335
        45 -11.3799    135.7776    127.2817   8.9845882580e+01   2.9653801174e+01    0.7494967    0.1552117 -48.50  0.001835383    4.997    0.800
        46 -11.5441    118.5831    126.9017   9.4115596584e+01   3.3246299576e+01    0.7907412    0.3756312 -47.24  0.003065819    2.077    0.518
        47 -11.1830     99.9197    127.4936   9.9165466527e+01   3.6586594760e+01    0.3678863    0.2532103 -36.80   0.00125915    1.709    0.415
        48 -10.3038    125.9223    127.7250   9.2424395807e+01   3.1594958212e+01    0.3712533    0.2106006 -66.80  0.001387394    2.442    0.590
        49 -10.3103    160.5164    127.9869   8.4116103087e+01   2.4095142503e+01    0.2481043    0.1530351 -43.64  0.001044134    1.626    0.385
        50 -12.2929     45.6353    117.6878   1.1234734748e+02   4.6689371268e+01     0.552965    0.2426425 -70.63  0.002406658    2.159    0.537
        51  -9.9779    108.7305    119.8047   9.5060668134e+01   3.6772984748e+01     0.219052    0.2010132  29.04 0.0003759583    1.206    0.171
        52 -11.3112     23.4441    120.1615   1.1890652718e+02   4.8240331319e+01    0.2193747    0.1700355  52.35 0.0007913589    1.433    0.302
        53 -10.1146    167.7547    112.5532   7.8545889700e+01   2.5601626635e+01    0.3748031    0.2584972 -68.64  0.001536302    1.992    0.498
        54  -9.4037    108.2913    114.2739   9.3849289665e+01   3.8130757870e+01    0.1969219    0.1668143  86.05 0.0003995833    1.317    0.241
        55 -12.8861     39.9073    109.7827   1.1265022678e+02   4.9165691031e+01    0.6192378     0.302904 -56.54  0.003052851    1.695    0.410
        56  -9.9994    205.6392    110.0916   7.0168865683e+01   1.7136960883e+01    0.2781773    0.2215768  39.17 0.0006741006    1.319    0.242
        57 -11.4971    118.8592    110.1591   8.9946382104e+01   3.6991512551e+01    0.6273984    0.4456937  60.83   0.00286235    1.617    0.382
        58 -11.8829     20.7097    111.4147   1.1847312177e+02   5.0504111818e+01    0.3880312    0.1723727  39.57  0.001965424    2.523    0.604
        59  -9.8401     86.0845     99.0834   9.6404179366e+01   4.5576809092e+01    0.2314267    0.2012952  69.01  0.001264113    1.290    0.225
        60 -11.3486     53.2655     91.7895   1.0488470135e+02   5.1921797635e+01    0.5560579    0.1828671 -61.08  0.002024296    2.884    0.653
        61 -11.0275     41.8026     91.8605   1.0861764016e+02   5.3171918760e+01    0.2165151    0.1840976 -53.68 0.0004590498    1.063    0.060
        62  -9.6655    156.9951     80.3096   7.1852113480e+01   3.4526865217e+01    0.2240698    0.2071726  51.99 0.0006633393    1.088    0.081
        63 -10.1588     61.4094     68.6427   9.5942785694e+01   5.6038161895e+01    0.2546984    0.2205381  81.04 0.0009157826    1.515    0.340
        64 -11.3275    153.4558     56.3788   6.5108699675e+01   3.9595663802e+01    0.4287672    0.2990254 -76.41 0.0008689654    2.013    0.503
        65 -13.5811    186.2984     42.9909   5.4821472338e+01   3.3090920104e+01      1.00508    0.8365902  29.75 0.0009111709    1.383    0.277
        66 -10.1636    156.6846    200.4245   9.9598611686e+01   1.0566888067e+01    0.3433326    0.2370521  72.17  0.001713295    1.986    0.497
        67 -11.1135    172.6356    243.4256   1.0290168569e+02   1.0595649998e+00    0.3671002    0.2446404 -76.87  0.001939065    3.038    0.671
        68 -12.4199     19.1891     33.8011   1.0147980443e+02   6.7509089500e+01     0.445662    0.2312948  31.23  0.002541803    2.340    0.573
        69  -9.2866    145.7448     19.7497   5.4198693103e+01   4.6549337395e+01    0.1894547    0.1589019 -76.49 0.0005273397    1.340    0.254
        70 -11.1204    156.0231     50.5358   6.2658671860e+01   3.9859444648e+01    0.3475835    0.2776136 -86.31  0.001160976    1.477    0.323
        71  -8.9961    163.4491    203.5200   9.8739501139e+01   8.7910095773e+00    0.1337148    0.1172001  39.30 3.100485e-05    1.018    0.018
        72  -9.8385    189.6894     14.9573   4.6090517948e+01   3.5660712623e+01    0.1925453    0.1769878 -49.41 0.0005665061    1.126    0.112
        73 -11.3487    170.5727    233.7746   1.0195097445e+02   2.7598207430e+00    0.3303312    0.2452975  75.09  0.001949542    1.962    0.490
        74 -10.2944     96.7444    200.5533   1.1196913250e+02   2.0878010163e+01     0.321764    0.2354388 -24.22   0.00110831    2.566    0.610
        75  -8.7991    129.2697    210.5937   1.0666712388e+02   1.3596596303e+01    0.1327866   0.09163134  76.47 0.0003716878    1.756    0.431
