#   1 NUMBER                 Running object number                                     
#   2 MAG_AUTO               Kron-like elliptical aperture magnitude                    [mag]
#   3 X_IMAGE                Object position along x                                    [pixel]
#   4 Y_IMAGE                Object position along y                                    [pixel]
#   5 X_WORLD                Barycenter position along world x axis                     [deg]
#   6 Y_WORLD                Barycenter position along world y axis                     [deg]
#   7 A_WORLD                Profile RMS along major axis (world units)                 [deg]
#   8 B_WORLD                Profile RMS along minor axis (world units)                 [deg]
#   9 THETA_WORLD            Position angle (CCW/world-x)                               [deg]
#  10 FWHM_WORLD             FWHM assuming a gaussian core                              [deg]
#  11 ELONGATION             A_IMAGE/B_IMAGE                                           
#  12 ELLIPTICITY            1 - B_IMAGE/A_IMAGE                                       
         1 -14.0245    223.8253      3.8978   3.8688941509e+01   2.8594461652e+01     2.271172     1.059008  56.29  0.007265152    2.251    0.556
         2 -13.9943    181.6131     47.5926   5.5769759601e+01   3.3828233283e+01     1.884844     1.232056  24.95 0.0008260748    2.158    0.537
         3 -14.1319    192.8135     38.2594   5.1282971392e+01   3.2254330856e+01     1.436826     1.240305 -23.01  0.003263274    1.263    0.208
         4 -14.6103    200.8969     29.1103   4.7609555332e+01   3.1377840478e+01     1.662013     1.318536  34.72  0.001323846    1.512    0.339
         5 -10.7767     74.6414     12.9570   6.8527322023e+01   6.3309625020e+01    0.3571678    0.1877091  56.85  0.001670777    2.439    0.590
         6 -19.2832     14.3037    156.8322   1.2440275852e+02   4.0272949059e+01     18.25738     5.602362 -81.04   0.07502772    3.056    0.673
         7 -11.1552    175.7846    212.8766   9.6412695237e+01   4.9338570832e+00    0.2247174     0.191354 -79.54  0.001357228    1.622    0.383
         8 -10.8443     43.7575    210.8538   1.2262659330e+02   2.5721814636e+01    0.3717483    0.2005071 -78.34  0.002079384    1.706    0.414
         9 -15.7905     71.3251    148.3691   1.0955119865e+02   3.5993233819e+01      9.24207     4.301625  78.19   0.02325153    7.377    0.864
        10 -12.1459    126.3969    209.0961   1.0584469050e+02   1.4142051831e+01    0.3355243    0.2535842  10.23  0.001455788    1.941    0.485
        11 -10.4092     28.7352    209.7065   1.2536403386e+02   2.7628019381e+01    0.1480359   0.09078863  63.57 0.0004163365    1.299    0.230
        12  -9.9384    184.0000    207.4856   9.3904017380e+01   4.3597256332e+00    0.2626414   0.07588125 -43.21 0.0009327258    3.918    0.745
        13 -10.7843     97.7708    200.4459   1.1068541462e+02   2.0477685458e+01    0.3576595    0.2636198  18.15 0.0008042759    1.970    0.492
        14  -9.0937     87.7954    202.3813   1.1301243425e+02   2.1598691699e+01    0.1692896    0.1150782  32.30 0.0008319402    1.675    0.403
        15 -11.1841    152.7969    198.2579   9.8709678662e+01   1.1547616601e+01    0.4523179    0.2566898 -56.71  0.002141743    2.139    0.533
        16  -9.4993     94.0286    249.9241   1.1662882172e+02   1.1952742984e+01    0.1481003    0.1293209  27.54 0.0004739822    1.533    0.348
        17  -9.8635     38.2816    199.0408   1.2277299666e+02   2.8747946966e+01    0.1550997    0.1126484  79.01            0    1.092    0.084
        18 -10.6572    103.9388    213.5228   1.1100676029e+02   1.6940781831e+01    0.3355129    0.2337778 -45.33  0.001128752    1.881    0.468
        19  -9.7220    159.5395    196.5820   9.7021998181e+01   1.0628895348e+01    0.2066266    0.1338809 -61.42 0.0005370799    2.004    0.501
        20 -12.5412     27.0145    195.9248   1.2475001743e+02   3.0605085045e+01     0.215114    0.1640922  68.83 0.0008915809    1.094    0.086
        21 -11.3452    207.9555    194.8632   8.6996267573e+01   2.1107265903e+00    0.3038494    0.1921085 -44.25  0.001119403    1.841    0.457
        22 -10.0241     82.0961    195.1127   1.1336535204e+02   2.3937742163e+01    0.2198788    0.1986305  56.20  0.001143225    1.187    0.158
        23 -13.6940     63.1317    188.7519   1.1670751668e+02   2.7912876787e+01    0.7732767     0.680167 -46.87  0.005101184    1.514    0.339
        24 -12.3560    113.6147    208.0954   1.0835087243e+02   1.6443506163e+01    0.4447805    0.3020181  74.59  0.001828338    1.682    0.406
        25 -10.6863     96.2341    190.0972   1.0967807258e+02   2.2860359766e+01    0.3258602    0.2509618  34.16  0.001175633    1.429    0.300
        26 -10.1924     36.8777    224.2822   1.2483488198e+02   2.3906528173e+01    0.1255286    0.1213302  58.93 0.0004065785    1.548    0.354
        27 -11.6716    107.7371    210.8372   1.0990803960e+02   1.6858761668e+01    0.5402935    0.2668815  59.34  0.002469528    2.260    0.558
        28 -10.1240     44.0745    189.3219   1.2078545161e+02   3.0134945338e+01    0.2093377    0.1431212  83.16 0.0006935722    1.246    0.197
        29  -9.7611    141.8153    189.2158   9.9558400607e+01   1.5258468824e+01    0.2408817    0.1468267  74.64 0.0009610032    2.881    0.653
        30 -10.6822    153.8947    185.5473   9.6315911054e+01   1.3737099894e+01    0.2639939    0.2110715 -62.84  0.001436776    1.444    0.307
        31 -10.0927     61.4237    219.3683   1.1995737805e+02   2.1876264377e+01    0.4146556    0.1825662  77.72  0.001826899    3.138    0.681
        32 -11.4427    147.0541    183.6564   9.7468915936e+01   1.5384950005e+01    0.3655507    0.2366573  53.48  0.001374103    1.558    0.358
        33 -10.7278     99.3365    180.7164   1.0767980287e+02   2.4376446185e+01    0.2588893    0.2195765  49.18 0.0006118967    1.149    0.129
        34 -10.3788    204.4296    176.3179   8.4084276062e+01   5.7652585997e+00    0.3854864    0.2526092 -52.64  0.001854995    1.978    0.494
        35 -11.5756    141.0560    174.1932   9.7112826769e+01   1.8420128914e+01    0.5734711    0.3923398  87.87  0.002541679    2.245    0.555
        36 -12.3246     75.6487    174.3266   1.1221543023e+02   2.9383118091e+01     0.397852    0.2783201 -37.86  0.002083249    2.037    0.509
        37 -12.3677     79.3635    169.7622   1.1073465610e+02   2.9879147726e+01    0.3873006    0.2909563 -62.65 0.0007659881    1.319    0.242
        38 -10.6189     56.0452    174.7317   1.1673160207e+02   3.1900163047e+01    0.4235244    0.1760792  51.19   0.00192156    2.342    0.573
        39 -10.9870     45.7892    172.8130   1.1882553297e+02   3.3555500127e+01    0.3553038    0.2614983  48.60  0.001540083    1.355    0.262
        40 -11.4328    132.6054    172.1525   9.8666776770e+01   2.0430917201e+01    0.4243222     0.229464  32.67  0.001655942    2.086    0.521
        41 -12.3491    107.4981    202.9026   1.0894958083e+02   1.8447187250e+01    0.5802311    0.3963022  48.08   0.00189837    1.284    0.221
        42 -11.0682    230.0999    166.4247   7.7205224801e+01   2.5902397600e+00    0.2723704    0.1739825 -48.90  0.001323139    1.964    0.491
        43  -9.9537    160.9197    165.3322   9.0957407243e+01   1.6352984293e+01    0.2383092    0.1797151  61.03 0.0008443138    1.490    0.329
        44 -13.5132    112.9890    197.3385   1.0703365863e+02   1.8664556141e+01    0.8289034    0.5376195  47.50   0.00445152    1.371    0.270
        45 -12.3491     93.3481    153.7853   1.0485915919e+02   3.1414705316e+01    0.6616811     0.467293 -28.42  0.003143587    2.088    0.521
        46 -11.5340    133.8830    145.1965   9.3084245064e+01   2.6046353830e+01     1.239026    0.3209876 -54.90  0.003012631    5.615    0.822
        47 -10.8389    174.4770    148.7094   8.4429115257e+01   1.6886542805e+01    0.3029369    0.2891825  81.02 0.0008121541    1.156    0.135
        48 -10.9468    144.1789    145.9776   9.0762270921e+01   2.3796599438e+01    0.3796653    0.2496238 -65.70  0.001629323    1.909    0.476
        49  -9.1789    108.8512    146.9034   9.9686216970e+01   3.0386137843e+01    0.1960429    0.1624414  81.81 0.0002439756    1.280    0.219
        50  -9.8249     87.5661    144.2506   1.0466677371e+02   3.4573028108e+01    0.3418175    0.2127946  81.63  0.001470836    2.236    0.553
        51 -11.3256    106.1431    139.1082   9.8834868809e+01   3.2680456006e+01    0.5459577    0.4238109 -17.82  0.002577516    1.793    0.442
        52 -12.4005     93.5064    139.2697   1.0218633226e+02   3.4800659635e+01    0.2798217    0.2529974 -49.33 0.0004140238    1.166    0.142
        53 -10.8847    105.9173    130.6342   9.7119430747e+01   3.4705756101e+01    0.3803527    0.3013531 -69.95  0.001287649    1.295    0.228
        54 -11.2331    135.7758    127.6672   8.8654106816e+01   2.9567072444e+01    0.7368655    0.2084293 -51.83  0.001992017    4.161    0.760
        55 -11.1079    113.8733    129.9444   9.4849048289e+01   3.3402854798e+01    0.4668789    0.3312721  33.72  0.001508447    1.541    0.351
        56 -11.3584    119.6992    123.4993   9.1822239501e+01   3.3768955504e+01    0.6643548    0.3643378 -30.15  0.002374166    2.796    0.642
        57 -10.4466    160.8833    127.8075   8.2604696489e+01   2.4117209985e+01     0.365006    0.2232431 -48.88  0.001532056    1.688    0.408
        58 -11.1261    101.1945    125.9145   9.7370780812e+01   3.6655006632e+01    0.3036355    0.2458616 -26.69  0.000763985    1.483    0.326
        59 -10.7020     76.6146    120.1267   1.0304778259e+02   4.2003536928e+01    0.2439823     0.189145  54.55 0.0007354007    1.391    0.281
        60 -10.1493    109.2213    118.9967   9.3584912640e+01   3.6818081100e+01    0.2303235     0.213332  48.88 0.0003181681    1.115    0.103
        61 -10.3364    134.5775    105.7343   8.3383894558e+01   3.4657290373e+01    0.4517852    0.1490216 -44.35  0.001392916    2.983    0.665
        62 -10.0091    167.5115    112.3218   7.7153047013e+01   2.5811205263e+01    0.3419013    0.2468791 -76.29  0.001295418    1.996    0.499
        63 -11.6868    118.5462    110.4220   8.8902097415e+01   3.6976494676e+01    0.6155148    0.4179645  65.46  0.002641801    1.915    0.478
        64 -10.3393    205.4229    110.1088   6.8755980266e+01   1.7433536587e+01    0.3262716    0.2261213  43.78 0.0008933778    1.506    0.336
        65  -9.8785     63.9292     99.8516   1.0249254681e+02   4.8594591457e+01    0.2172259    0.1769278 -36.48  0.001220157    1.259    0.206
        66 -11.4465     52.2715     90.3832   1.0409752691e+02   5.2243662664e+01    0.3080821    0.2243128 -58.83  0.001291219    1.200    0.167
        67 -13.7592     54.1416    202.1878   1.1988439213e+02   2.6226489116e+01    0.9223981    0.5380064  69.61  0.001740014    1.582    0.368
        68  -9.8967     49.4659    217.0586   1.2202460241e+02   2.3819586840e+01    0.2909522    0.2013754  19.51  0.001737183    2.383    0.580
        69  -9.3705    156.1645     80.8551   7.0919162768e+01   3.4714048422e+01    0.2153787    0.1859728  12.13 0.0004171535    1.309    0.236
        70  -9.4394    184.4881     77.0417   6.3844146201e+01   2.8389345706e+01    0.2348347    0.1511541 -33.61 0.0006144759    1.552    0.355
        71 -11.8528     66.3805    206.2783   1.1781031877e+02   2.3817620578e+01     0.673691    0.3698038 -39.32 0.0008733158    3.967    0.748
        72  -9.8523     64.9854     70.0955   9.4298328478e+01   5.5161290518e+01     0.202324    0.1831787 -30.77 0.0003412417    1.036    0.035
        73  -8.7902     43.4973    236.5739   1.2446438766e+02   2.0870861584e+01    0.1112482   0.07991674  66.65 0.0002960729    1.013    0.013
        74 -11.9511     61.2625    234.5088   1.2119928113e+02   1.9063521035e+01    0.2071142    0.1497838  72.81 0.0002896707    1.123    0.109
        75  -9.3556     72.0427    230.8349   1.1894446453e+02   1.8318743303e+01    0.1522683    0.1169152  63.67 0.0004321625    1.009    0.009
        76 -10.8332     72.4130    202.8611   1.1624557051e+02   2.3698956505e+01    0.3938001    0.2336671  71.43  0.002145185    1.701    0.412
        77 -10.9501    156.2986     58.5940   6.4010651930e+01   3.8599245922e+01    0.3819462    0.2855819 -86.57  0.001414962    1.737    0.424
        78 -10.8954    158.6754     52.4873   6.1564999709e+01   3.8969871987e+01    0.2903806    0.2636343  83.40 0.0004831125    1.154    0.133
        79  -9.5655     66.9161    216.3103   1.1863978785e+02   2.1751129304e+01    0.1671661    0.1255635  54.91 0.0005632197    1.151    0.131
        80 -10.3536    189.5338     14.8575   4.5047421495e+01   3.5915102324e+01    0.2494498    0.1869954  72.55 0.0007226694    1.229    0.186
        81 -11.0009    130.9271    214.0390   1.0559599153e+02   1.2470979075e+01    0.2004699    0.1699004  56.88 0.0004958329    1.063    0.059
