#   1 NUMBER                 Running object number                                     
#   2 MAG_AUTO               Kron-like elliptical aperture magnitude                    [mag]
#   3 X_IMAGE                Object position along x                                    [pixel]
#   4 Y_IMAGE                Object position along y                                    [pixel]
#   5 X_WORLD                Barycenter position along world x axis                     [deg]
#   6 Y_WORLD                Barycenter position along world y axis                     [deg]
#   7 A_WORLD                Profile RMS along major axis (world units)                 [deg]
#   8 B_WORLD                Profile RMS along minor axis (world units)                 [deg]
#   9 THETA_WORLD            Position angle (CCW/world-x)                               [deg]
#  10 FWHM_WORLD             FWHM assuming a gaussian core                              [deg]
#  11 ELONGATION             A_IMAGE/B_IMAGE                                           
#  12 ELLIPTICITY            1 - B_IMAGE/A_IMAGE                                       
         1 -11.3544     21.0676     32.5597   1.2059241366e+02   6.6891638837e+01    0.6753596    0.1768423 -60.59  0.002645063    3.041    0.671
         2 -11.2512    197.0953     21.7404   6.2012553147e+01   3.2820400415e+01    0.8343498    0.7624969 -68.16  0.004580494    1.153    0.133
         3 -11.3584    203.6985     13.8631   5.8793808665e+01   3.1909676207e+01    0.7215208    0.5117922  19.31  0.001583806    1.643    0.391
         4 -10.8686    213.9692      2.9113   5.4519193379e+01   3.0303699687e+01    0.6983247    0.3696845  74.06  0.003183259    1.870    0.465
         5 -10.9628    127.2579    231.0364   1.2315476245e+02   1.3665513763e+01    0.5181914    0.2286483 -57.48  0.002882974    3.069    0.674
         6  -9.0193    164.0000    244.9938   1.1811252211e+02   6.6439085951e+00    0.1993504   0.06446155 -45.67 0.0009764644    4.279    0.766
         7 -10.1422    134.6170    248.1504   1.2354417504e+02   1.0373919305e+01    0.2476863    0.1817709 -81.25  0.001823322    2.063    0.515
         8 -10.6334    114.6028    247.1014   1.2690444865e+02   1.3194748103e+01    0.6776363    0.1797192 -58.67  0.003176769    5.148    0.806
         9 -11.2319     95.4793    246.6807   1.3014683241e+02   1.5700997103e+01    0.4513133    0.3855596 -17.77  0.003666761    1.891    0.471
        10 -11.4976    101.9976    247.7330   1.2911681727e+02   1.4737384958e+01    0.5093045    0.3415328  51.26   0.00389456    1.148    0.129
        11 -10.8687    107.3562    244.3016   1.2791994611e+02   1.4518239518e+01    0.3242067    0.2389178  49.48  0.002202356    1.059    0.056
        12 -11.5895     83.1459    247.8054   1.3231009321e+02   1.7049082593e+01    0.4346454    0.3385126  80.70  0.003685069    1.383    0.277
        13 -10.4369     74.1704    249.8284   1.3393133420e+02   1.7818443069e+01    0.2709801    0.1453487  35.70  0.001718744    1.629    0.386
        14 -10.7622     58.9546    248.7019   1.3635288640e+02   1.9681587131e+01    0.3026604    0.2216256  44.89  0.002574463    1.214    0.176
        15 -13.6729     46.3851    223.6152   1.3710872736e+02   2.4823745071e+01     2.602291       1.2652 -55.10   0.01610802    2.928    0.659
        16 -14.0133     55.5990    210.5148   1.3466171301e+02   2.5997957552e+01     4.719729      0.83126  45.26   0.02024596    3.522    0.716
        17 -15.5911      4.6392    235.4612   1.4441901102e+02   2.6862692604e+01     16.79366    0.9770295 -79.51   0.05454902   11.390    0.912
        18 -11.3261    133.8353    231.6243   1.2201803004e+02   1.2653791017e+01    0.4148007    0.2805458 -54.61  0.002876909    1.966    0.491
        19 -10.0238     70.8561    190.7395   1.3014955871e+02   2.7718734246e+01     0.324776    0.2322626 -42.70   0.00165548    1.978    0.495
        20  -9.9523     75.3775    184.1125   1.2858556990e+02   2.8386579068e+01    0.2647849    0.2244512 -35.99 0.0008781425    1.616    0.381
        21  -9.7103    114.4271    175.1802   1.1905637768e+02   2.4595752069e+01    0.2823659    0.2204087 -74.98   0.00172289    1.495    0.331
        22  -9.7309     83.7970    172.6470   1.2553339216e+02   2.9484814943e+01     0.277858    0.1896503 -67.66 0.0004836959    1.547    0.354
        23 -11.4084     71.6783    169.7237   1.2791042073e+02   3.1610293697e+01    0.4014861    0.2567959 -44.09  0.001415608    2.069    0.517
        24 -10.6404     90.3410    165.0664   1.2312436271e+02   3.0078590754e+01    0.4801833    0.3935981  11.87  0.001920929    1.552    0.355
        25  -9.5830     28.0075    161.8860   1.3688479305e+02   3.7783873331e+01    0.1991888    0.1397607 -85.55  0.000949316    1.248    0.199
        26 -10.1035     78.3832    159.6889   1.2522169871e+02   3.2771449577e+01    0.3009221    0.1482551  55.92  0.001436375    2.190    0.543
        27 -10.0154     72.8693    153.6483   1.2578287630e+02   3.4720186349e+01    0.4073339    0.2262881  78.67  0.001931897    2.451    0.592
        28 -11.3095     67.9208    144.4482   1.2583276017e+02   3.7273194440e+01    0.7073694    0.4005494  59.33  0.002736355    1.913    0.477
        29  -9.2996    102.2845    148.0865   1.1782936711e+02   3.1753543037e+01    0.3615213    0.2083649 -35.69  0.001644754    2.451    0.592
        30 -10.2052     91.1118    147.7666   1.2053154553e+02   3.3485381420e+01    0.2476479    0.2231529 -22.31 0.0004387332    1.348    0.258
        31 -10.3262     59.6373    138.1204   1.2711887497e+02   3.9613754113e+01    0.4276783    0.1735356 -67.32  0.001947946    2.346    0.574
        32 -10.4220     58.1347    132.8560   1.2683285702e+02   4.0934743890e+01    0.3478943    0.2282842 -76.28  0.001988022    1.461    0.316
        33  -9.1776     99.7257    131.9134   1.1572326180e+02   3.5542864560e+01    0.2693103    0.2190046 -25.25 0.0008827496    1.494    0.331
        34 -10.5479     45.0435    126.9081   1.2954686254e+02   4.3625827015e+01    0.3761407    0.1619323 -80.72  0.001664141    2.586    0.613
        35  -8.1551    108.9525    122.3467   1.1143066301e+02   3.6082281038e+01     0.198022    0.1709967  36.50 0.0005685185    1.143    0.125
        36  -8.5197     73.6564    119.9842   1.2069803508e+02   4.1919746751e+01     0.218282    0.1064906 -86.13 0.0007050914    4.435    0.775
        37  -9.0510    168.3413    113.1442   9.4387644912e+01   2.6194151567e+01    0.2831655    0.2648751 -61.05 0.0007976792    1.288    0.224
        38  -9.1160     58.7420    109.9832   1.2331130359e+02   4.6003805381e+01     0.178042    0.1019912 -64.33 0.0009003488    1.595    0.373
        39 -12.6758     11.0339    206.9567   1.4248457967e+02   3.0896438875e+01    0.9827837    0.5328668  27.66  0.006428749    2.142    0.533
        40  -9.6230    141.8824    229.6618   1.2033600713e+02   1.1763892998e+01    0.1895944     0.170236  81.58 0.0008961168    1.436    0.303
        41 -10.8528     99.7576    236.7739   1.2862629932e+02   1.6556420190e+01    0.4028268    0.1553384  41.47  0.001060067    1.882    0.469
        42 -10.2587    125.0000    246.5118   1.2505538619e+02   1.1888871976e+01    0.3396653    0.1529365 -55.97  0.002052693    3.032    0.670
        43 -10.4819    190.0104     28.0146   6.4976583149e+01   3.3984840126e+01    0.4647824    0.3625734 -75.01  0.001785235    1.515    0.340
        44 -10.6273    128.0000    245.0267   1.2439594540e+02   1.1676031463e+01    0.4794487    0.1574568 -55.05  0.002453523    4.170    0.760
        45 -10.9754     58.3065    239.2629   1.3594352913e+02   2.1129442744e+01    0.3451967     0.244092 -79.89  0.002834792    1.595    0.373
