#   1 NUMBER                 Running object number                                     
#   2 MAG_AUTO               Kron-like elliptical aperture magnitude                    [mag]
#   3 X_IMAGE                Object position along x                                    [pixel]
#   4 Y_IMAGE                Object position along y                                    [pixel]
#   5 X_WORLD                Barycenter position along world x axis                     [deg]
#   6 Y_WORLD                Barycenter position along world y axis                     [deg]
#   7 A_WORLD                Profile RMS along major axis (world units)                 [deg]
#   8 B_WORLD                Profile RMS along minor axis (world units)                 [deg]
#   9 THETA_WORLD            Position angle (CCW/world-x)                               [deg]
#  10 FWHM_WORLD             FWHM assuming a gaussian core                              [deg]
#  11 ELONGATION             A_IMAGE/B_IMAGE                                           
#  12 ELLIPTICITY            1 - B_IMAGE/A_IMAGE                                       
         1 -14.4660    221.1279     75.3911   1.3636477832e+01   2.0310106744e+01     4.559109     2.083852 -58.55   0.01780995    3.050    0.672
         2 -14.7557    242.3347     65.2162   8.9749798161e+00   1.7585735512e+01     3.436573     1.055319 -40.90    0.0144576    2.496    0.599
         3 -13.4475    215.9503     55.8808   9.6443987624e+00   2.4193599222e+01     1.060058    0.8651126 -26.85  0.006376632    1.320    0.242
         4 -15.2486    241.7158    108.7085   1.8411724230e+01   1.1443768832e+01     1.606431     1.403696 -83.81  0.008890115    1.435    0.303
         5 -11.6332     39.6316      8.0099   3.4122883579e+01   7.1811211298e+01    0.3521545    0.1985037 -23.06  0.001830064    1.868    0.465
         6 -13.5376     43.8411     23.5792   4.0611486918e+01   6.8830093857e+01     1.176155    0.8187003 -32.86  0.006599961    1.424    0.298
         7 -12.8279    178.3580     22.9683   5.3955506941e+00   3.7118885270e+01    0.6392061    0.4149067 -53.06  0.003244409    1.454    0.312
         8 -12.7531    144.1947      3.9571   3.6645924364e+00   4.7681605765e+01    0.8827066    0.4158233  75.13  0.003969896    1.892    0.472
         9 -13.3276    156.8406     11.7542   4.6068735705e+00   4.3714252000e+01     0.814467    0.5565696  48.62  0.004327398    1.590    0.371
        10 -14.4416    167.8528      7.7895   2.2089971566e+00   4.1322315887e+01      2.09247    0.7741422  66.69  0.008788848    2.332    0.571
        11 -11.4745    227.0055     15.6964   3.5933211590e+02   2.6804023794e+01    0.4346702    0.2727558 -87.28  0.002586643    1.526    0.345
        12  -9.9648    220.4672     10.9421   3.5870032236e+02   2.8701507825e+01    0.1761405    0.1067158 -35.44 0.0005995652    1.541    0.351
        13 -10.7067    231.8774      9.3487   3.5762963218e+02   2.6470903915e+01     0.310002     0.188453 -58.61  0.001812875    1.338    0.253
        14 -10.7175    223.3923      5.0664   3.5719440061e+02   2.8683736838e+01     0.314625    0.1221913 -55.64  0.001502571    2.214    0.548
        15 -12.9390    158.8147      3.6608   1.9184156801e+00   4.3978634764e+01     1.070276    0.3695841  67.20  0.004360499    2.417    0.586
        16 -11.5910      2.4183      3.3595   5.7844709789e+01   7.7313183610e+01    0.4134034    0.2506683 -32.15  0.002556324    1.385    0.278
        17 -11.1774    129.2667      4.2463   5.7606835324e+00   5.1504030945e+01    0.3164777    0.2025689  68.49  0.001645819    1.351    0.260
        18 -10.9826     85.9785      3.3417   1.3774519113e+01   6.2486916003e+01    0.3588867    0.2341819  73.99  0.001521947    1.588    0.370
        19 -10.6624    217.5490      1.7639   3.5679888472e+02   3.0264764761e+01     0.219978    0.1457574  89.48  0.001069738    1.374    0.272
        20 -12.7199    205.4315      4.0105   3.5809059362e+02   3.2723078110e+01    0.6385688     0.291108  80.13  0.003163942    2.060    0.514
        21 -11.9797    247.5585    185.2134   3.2615052660e+01  -5.2605836498e-01    0.4024965    0.2547832 -34.45  0.002527112    1.481    0.325
        22 -10.1916    250.5286    249.5309   4.2619977369e+01  -8.5691657407e+00    0.1590308   0.08706806 -37.54   0.00103714    2.314    0.568
        23 -11.9856    245.9895    175.9350   3.1172887763e+01   9.4512604468e-01    0.5124898    0.4133278 -46.96  0.003412798    1.687    0.407
        24 -10.5553     37.4939    185.0075   7.9793223526e+01   3.1188868564e+01    0.2228284    0.1420574  18.72  0.001156715    1.833    0.454
        25 -11.7773    220.9684    173.3917   3.4775997657e+01   4.8826330057e+00    0.3512627    0.2956855  20.33   0.00228705    1.208    0.172
        26 -11.1007    173.1286    159.1177   4.1145581706e+01   1.5353931971e+01     0.232095    0.1899647  -0.43  0.001249215    1.271    0.213
        27 -11.8738    219.6588    156.3551   3.1666437509e+01   7.7434394997e+00    0.5914486    0.3645974  46.79  0.003135949    1.910    0.476
        28 -10.8404     20.4958    155.5042   8.1978105551e+01   4.0017742589e+01    0.2155235    0.1305494   2.45   0.00103714    2.319    0.569
        29 -10.0134     53.6739    143.6600   7.0535218204e+01   3.9515095565e+01    0.1488525    0.1063926 -34.01 0.0007051406    1.731    0.422
        30 -12.0119     11.0297    139.7129   8.3504212184e+01   4.4750849552e+01    0.4563863      0.22614  66.05  0.002098172    2.086    0.521
        31 -12.1181    228.3818    136.5254   2.6180488277e+01   9.4421170144e+00    0.4864028    0.3541768  81.42  0.002487367    2.557    0.609
        32 -11.4099    220.4606    137.0601   2.7552949750e+01   1.0704840401e+01    0.3395827    0.2201427  15.06  0.001680198    2.077    0.518
        33 -11.3825    238.5106    249.5029   4.4543193336e+01  -7.3207289384e+00    0.1805978    0.1135847 -11.19   0.00121425    1.314    0.239
        34 -11.2968    112.5015    100.1877   4.2312349242e+01   4.0253515482e+01     0.383364    0.2982837 -60.26  0.001790579    1.395    0.283
        35 -13.3601     15.1526     73.1855   7.3328171111e+01   6.1449190311e+01    0.8276134    0.5520777  35.86  0.004495626    1.678    0.404
        36 -11.9163      2.7638     85.1527   8.0879428349e+01   5.9156453681e+01    0.7811813    0.2505931 -74.99  0.003047689    2.696    0.629
        37 -12.9408      4.5497     75.1117   7.8644301376e+01   6.1576732262e+01    0.8020204    0.4274076  82.90  0.003727088    2.274    0.560
        38  -9.6150    193.6886     87.3010   2.0449518788e+01   2.4272785041e+01    0.1449401    0.1054645 -67.77 0.0007015793    1.606    0.377
        39 -11.2523    100.6655     84.5305   4.1390780405e+01   4.6241488850e+01    0.4705129    0.1836057 -42.15  0.001573209    2.673    0.626
        40 -12.5460     40.7397     82.7638   6.3828639671e+01   5.6743865268e+01    0.7678564    0.3167082  39.98  0.002989779    2.616    0.618
        41 -12.0902     45.8510     80.7120   6.1093225018e+01   5.6630938210e+01     1.000231    0.2410582 -46.33  0.002877751    4.191    0.761
        42 -10.5139    188.9852    115.5194   2.8198990256e+01   2.0374113686e+01    0.3001384    0.1806887  -3.16  0.001041924    3.568    0.720
        43 -10.1677    145.1314     80.8814   2.8095778421e+01   3.6725970174e+01    0.2429773    0.2109673 -78.87  0.001152072    1.254    0.202
        44 -10.4202    247.9167    240.1700   4.1639716052e+01  -7.2970546434e+00    0.1562355    0.1217802   7.51  0.001237241    1.283    0.221
        45 -10.4786     83.6980     68.9916   4.2152480250e+01   5.3072654946e+01    0.2194771    0.2020311 -34.81  0.001174901    1.092    0.084
        46 -10.4268     74.4864     69.4888   4.5788593181e+01   5.4747048828e+01    0.3087558     0.144706  40.07  0.001197442    2.124    0.529
        47 -10.5990    179.3164     65.9802   1.7201365475e+01   3.1029048332e+01    0.3284447    0.2148237  63.13  0.001580705    1.560    0.359
        48 -11.1535     25.7174     64.8878   6.6264788775e+01   6.2630815314e+01    0.3314705    0.2139312 -66.00   0.00152738    1.527    0.345
        49 -10.7623    195.5404     56.7458   1.2358272742e+01   2.8614190704e+01    0.2526201    0.1904506  69.21  0.001062606    1.361    0.265
        50 -10.4369    164.6465     53.4625   1.6085224530e+01   3.6524284211e+01    0.2793364    0.1822743 -30.98  0.001116055    1.613    0.380
        51 -12.0211    199.3011     51.6814   1.0573466739e+01   2.8468077533e+01    0.4126404     0.233905 -54.46     0.001967    1.740    0.425
        52 -12.2421    241.2989    229.4656   4.1056438963e+01  -5.3605770227e+00    0.3919492    0.2777486  19.92  0.002864503    1.306    0.234
        53 -11.5111     85.3016     47.7134   3.3690952996e+01   5.6827727086e+01    0.5117677    0.3124928  46.58   0.00233901    1.567    0.362
        54 -12.1019    248.2887    224.8454   3.9203701919e+01  -5.6006578597e+00     0.542874    0.3083215 -16.74  0.003541943    1.509    0.337
        55 -11.6216    212.8165    112.6256   2.3425327869e+01   1.6105042766e+01    0.5425563    0.2654575 -35.36  0.002426771    1.856    0.461
        56 -10.3036     94.6616    111.3306   5.0799804867e+01   4.1264380395e+01     0.163769    0.1225704  75.96 0.0006728791    1.738    0.425
        57 -12.2184     81.6242     39.4959   3.1624564265e+01   5.9005108477e+01    0.7137072    0.3368355 -43.35  0.002901665    2.329    0.571
        58 -10.8078      2.4500     41.1598   7.2852319687e+01   6.9705543368e+01    0.2166155    0.2120452  76.32  0.001535748    1.251    0.201
        59 -14.8482    246.3611    120.6938   2.0304214838e+01   8.8859754916e+00     1.511815     1.160156  14.66  0.007447051    1.571    0.363
        60  -9.2784    175.6604     39.6744   1.0425232613e+01   3.5729924024e+01    0.1408671    0.1053937  33.97 0.0007051374    1.728    0.421
        61 -10.7410    159.4964    231.5081   5.6495846753e+01   4.9278871709e+00    0.1264388    0.1012413  19.72 3.007369e-06    1.011    0.011
        62 -10.7378      3.7795    230.3794   9.0043864515e+01   2.4743907875e+01    0.1452904   0.09813671  23.09 0.0009570796    1.687    0.407
        63 -11.5459    236.1956     29.3096   1.6798382793e+00   2.3368837706e+01    0.3512809    0.2190063  74.03  0.001637162    1.693    0.409
        64 -10.4300    148.4197    111.2013   3.5699204644e+01   2.9974443994e+01    0.2249986    0.1440827 -53.88 0.0009413016    1.714    0.416
        65 -10.5938    229.6255     29.4781   2.2194631714e+00   2.4690424753e+01    0.2327202     0.167437 -51.44 0.0009707274    1.142    0.124
        66 -11.4029    158.1429    224.8958   5.5836065276e+01   6.1637039945e+00    0.1932813    0.1615346  36.37  0.001246477    1.229    0.187
        67 -10.2843    224.5068     22.2406   9.8110447995e-01   2.6602133345e+01    0.2202984    0.1582005 -57.42  0.001228125    1.148    0.129
        68 -10.7297    187.0007     19.0696   3.4244970552e+00   3.5455357183e+01    0.2113898     0.182796 -77.42  0.001312866    1.020    0.019
        69 -10.1674     79.3459    224.6740   7.3225698591e+01   1.7472612176e+01    0.1386499   0.07893962  56.28 0.0007050232    1.746    0.427
        70 -11.6334     50.6905    218.1508   7.9218137505e+01   2.2382726419e+01    0.3326286    0.2158189  38.79  0.001955641    1.297    0.229
        71 -11.0397     67.2756    217.0342   7.5288281237e+01   2.0573953075e+01    0.1790853     0.155084  60.56  0.000823574    1.082    0.076
        72 -11.8157    210.4773    214.9000   4.4018701822e+01   2.9244098307e-01    0.3618721    0.2200596  -0.28  0.002039949    1.748    0.428
        73 -10.9411    156.3132    212.9768   5.4449988806e+01   8.4032626735e+00    0.1857356    0.1631966   9.32  0.001180987    1.072    0.067
        74 -11.3522    141.5098    206.2600   5.6669193040e+01   1.1877881377e+01    0.3763037    0.2664874 -32.09  0.002009121    1.609    0.379
        75 -11.5884     80.7350    206.6189   7.1041259872e+01   2.0947520682e+01    0.2326712     0.160942 -53.00  0.001276289    1.679    0.405
        76 -12.5275    243.3887    199.8372   3.5842433682e+01  -1.9340055197e+00    0.6224399    0.3949154 -31.26  0.003351014    1.457    0.314
        77 -11.6402    246.0966    192.1037   3.4066350637e+01  -1.2578999768e+00    0.3262762    0.2004591  33.27  0.002045008    1.731    0.422
        78 -11.8692     80.0930    198.7571   7.0308847547e+01   2.2719122367e+01    0.3847077    0.1757815  54.90  0.001572753    2.480    0.597
        79  -9.9962    202.6064    196.7783   4.2394062496e+01   4.0402375458e+00    0.1648621    0.1147922 -42.32 0.0009461122    1.644    0.392
        80 -12.4746    194.3787    185.4963   4.1938522137e+01   7.0781513759e+00     0.586044    0.4540296  28.01  0.003458767    1.230    0.187
