#   1 NUMBER                 Running object number                                     
#   2 MAG_AUTO               Kron-like elliptical aperture magnitude                    [mag]
#   3 X_IMAGE                Object position along x                                    [pixel]
#   4 Y_IMAGE                Object position along y                                    [pixel]
#   5 X_WORLD                Barycenter position along world x axis                     [deg]
#   6 Y_WORLD                Barycenter position along world y axis                     [deg]
#   7 A_WORLD                Profile RMS along major axis (world units)                 [deg]
#   8 B_WORLD                Profile RMS along minor axis (world units)                 [deg]
#   9 THETA_WORLD            Position angle (CCW/world-x)                               [deg]
#  10 FWHM_WORLD             FWHM assuming a gaussian core                              [deg]
#  11 ELONGATION             A_IMAGE/B_IMAGE                                           
#  12 ELLIPTICITY            1 - B_IMAGE/A_IMAGE                                       
         1 -10.1769     19.7826     86.4870   1.1373342724e+02   5.6255772111e+01     1.629894    0.1473771 -62.52  0.004857258    4.870    0.795
         2  -9.8124     60.8294     31.8373   8.1456113077e+01   6.2991537675e+01    0.9730394       0.3787 -29.97   0.00295855    2.830    0.647
         3 -10.3576     62.3957      3.7022   6.7676407973e+01   6.6473454122e+01     0.621598    0.4182486  -2.15  0.003118436    1.394    0.283
         4 -10.2660     50.5207     15.3657   7.8191154363e+01   6.6975893130e+01     1.052735    0.5586092  -0.18  0.004655537    2.907    0.656
         5  -9.6813     62.8600     20.7704   7.5771556040e+01   6.4319950399e+01    0.5046244    0.2649457 -44.93  0.001485437    2.424    0.587
         6  -9.7560     64.5511     13.3571   7.1646460972e+01   6.5003857900e+01    0.3148693    0.2561598  -2.09 0.0002270877    1.055    0.053
         7  -9.7905    110.4869     29.4137   6.4201423375e+01   5.3838354747e+01     1.279148    0.3500042 -25.27  0.003729348    4.691    0.787
         8  -8.6753    112.5042     15.6976   5.8251716689e+01   5.5001463295e+01    0.2769993    0.2107629 -33.06 0.0005991865    1.429    0.300
         9  -9.1012    113.9808     10.0876   5.5666694196e+01   5.5226416704e+01    0.3497585    0.2297432  32.99 0.0003375924    1.486    0.327
        10  -9.0977    110.7658      5.8582   5.4687044200e+01   5.6363495507e+01    0.4879071    0.2251228 -10.50   0.00207081    2.652    0.623
        11  -9.7244    103.7887      4.7218   5.5832618057e+01   5.8052350496e+01     0.849682    0.4310028  19.03  0.003660558    2.565    0.610
        12  -9.3944    115.3572      4.2879   5.3055676974e+01   5.5433117244e+01    0.2715119    0.2375273 -88.83 0.0005985451    1.348    0.258
        13  -9.6014    103.2929     19.7006   6.2210751758e+01   5.6633650309e+01    0.8818452    0.3689753 -17.94  0.003060605    2.948    0.661
        14 -10.1190     74.4986     55.4523   8.5538445785e+01   5.6703995716e+01     1.486662    0.5760264 -31.36  0.004960286    3.585    0.721
        15 -11.1237     23.8769     32.2213   9.7626712668e+01   6.7372906566e+01     1.709501    0.4191461 -39.96  0.003509463    3.588    0.721
        16 -10.3011      9.7197     19.3717   9.9623472363e+01   7.0781668953e+01     1.270683    0.4142362 -25.62  0.004072521    6.399    0.844
        17  -8.8579     40.8545     20.5322   8.4862670257e+01   6.7543521633e+01    0.3304033    0.1554864 -35.67 0.0006262003    1.852    0.460
        18 -10.8340     37.3312      9.6729   8.1230543783e+01   6.9566839760e+01    0.8346415    0.4061972 -40.01  0.002285265    2.090    0.521
        19 -10.1744     24.7558     11.2193   8.8165771929e+01   7.0806292496e+01    0.6842871    0.3446038  19.22  0.003273426    2.164    0.538
        20 -10.3186     18.4733      5.3438   8.8512923597e+01   7.2306622056e+01    0.5954794    0.4573779 -48.16  0.003406717    1.788    0.441
        21 -10.1795      4.7490     41.7946   1.0952275192e+02   6.6849466370e+01    0.7866583    0.3685619 -68.67  0.003123688    2.244    0.554
        22  -9.8265      2.3518     14.3597   1.0153823498e+02   7.2127993475e+01    0.6629798     0.205852 -57.74  0.002815293    3.664    0.727
        23 -10.1875      6.3480      5.1602   9.5198772026e+01   7.3374788912e+01    0.3779171    0.2668417 -16.22   0.00149778    1.146    0.127
        24  -9.6067      2.4909      3.1329   9.6467196968e+01   7.3966812182e+01    0.2753646    0.1267537 -37.58  0.001103661    1.609    0.379
        25  -9.4786     77.8215      4.2081   6.2706060661e+01   6.3568402025e+01    0.4724296    0.3266053   5.67  0.001495016    1.404    0.288
        26  -8.2034     72.1509      8.5579   6.6634440450e+01   6.4202569644e+01    0.2644013    0.1629368 -15.14 0.0008715763    1.587    0.370
        27  -9.7638     73.6403     19.8263   7.1381553296e+01   6.2589218958e+01    0.5913618    0.2730852 -25.44  0.001407754    2.178    0.541
        28  -9.0019     73.9698     12.5625   6.7916436344e+01   6.3417654120e+01    0.5023319    0.2454129  -6.11  0.002068799    2.987    0.665
        29 -10.1717     69.6232     40.8162   8.1794977776e+01   6.0128597826e+01     1.283694    0.4124331 -39.07  0.004807037    2.901    0.655
        30 -10.0603    154.0661     27.8667   5.4047602956e+01   4.3439082428e+01    0.6596307    0.3636166  29.66  0.002639143    2.491    0.599
        31  -9.2144     96.2182     14.8791   6.2112191048e+01   5.8708868472e+01    0.8115506    0.2727774 -20.54  0.002893094    3.575    0.720
        32  -8.3337     97.6927      5.6996   5.7758340699e+01   5.9313232002e+01    0.2390027    0.1551142  36.11  0.000525366    1.390    0.280
        33  -8.7387     95.6442      2.8272   5.7030345448e+01   6.0015772713e+01    0.3442625    0.2366321  13.09   0.00108179    1.477    0.323
        34  -9.1440    138.7197     19.0967   5.3901123858e+01   4.8327145792e+01    0.5691184    0.3107618   8.79  0.002227062    2.912    0.657
        35  -9.2474    118.7343     21.2982   5.8977174548e+01   5.2934466331e+01    0.2590464    0.2506691 -18.70 0.0006567267    1.130    0.115
        36  -9.6187     85.2961     13.1430   6.4531866886e+01   6.1162778092e+01    0.4471097    0.2654081 -48.28   0.00126073    2.471    0.595
        37  -8.0908     80.6589     12.4808   6.5677564707e+01   6.2153809001e+01    0.2642204    0.1370212 -37.91   0.00110421    2.193    0.544
        38  -8.8285     85.0303      6.4931   6.1590510778e+01   6.1908920935e+01    0.3266577    0.1295553  36.56  0.001354034    2.556    0.609
        39  -8.4550     89.0237      3.1897   5.8948010073e+01   6.1394614586e+01    0.3704817    0.1844186 -16.47  0.001441097    2.114    0.527
        40  -9.0412    132.2412      5.6030   5.0250763738e+01   5.1257036459e+01    0.4361616    0.2435886  40.95  0.001461447    1.743    0.426
        41  -8.7634    126.8835      8.9727   5.2512141551e+01   5.2261674946e+01     0.288319    0.1913179  42.54 0.0006382281    1.394    0.283
        42  -8.2193    141.3616     11.8299   5.0846264214e+01   4.8414552034e+01    0.2171669    0.1686851 -49.32  0.001151916    1.444    0.307
        43  -8.2847    120.0122     16.0207   5.6643701222e+01   5.3212468248e+01    0.3386041    0.1845194  23.16  0.001429409    2.389    0.581
        44  -8.4798    155.9712      8.2750   4.7264415142e+01   4.5053962561e+01    0.2960096    0.1360715 -49.75  0.001189044    2.654    0.623
        45  -7.7182     68.1534      9.1453   6.8304051660e+01   6.4866633452e+01    0.1562499    0.1416513 -17.63 0.0003287936    1.286    0.222
        46  -8.7862    125.1702     12.9689   5.4365154237e+01   5.2291366791e+01    0.2283845    0.1980924 -25.70 0.0006725263    1.248    0.199
        47  -8.9518    125.9196      4.7293   5.1103418862e+01   5.2875986954e+01    0.2806279    0.1841791  21.94 0.0008820251    1.694    0.410
        48  -7.9679    151.1717      1.9790   4.5903835586e+01   4.6835576997e+01    0.2236943    0.1335333 -51.66  0.001073568    1.941    0.485
        49  -9.3548    133.6268     12.2307   5.2409131452e+01   5.0299980391e+01    0.3876391    0.1927295 -34.59  0.001733508    2.131    0.531
        50  -7.8438    136.4975      1.5230   4.8038224126e+01   5.0552243978e+01    0.1347486    0.1203521  59.22 0.0008101407    1.022    0.021
        51 -10.1034    139.6371    103.8443   8.1226026513e+01   3.3868875635e+01    0.8896414    0.4060176 -42.49  0.002121952    2.162    0.537
        52  -9.4929    218.1109    249.5556   9.4135766002e+01  -7.1651482392e+00    0.3187912    0.1553181  25.80   0.00171755    1.935    0.483
        53 -10.8056    201.0987    249.1851   9.7066397169e+01  -4.5721128163e+00    0.5877658    0.2300967  46.14  0.002767379    2.521    0.603
        54 -10.0891    108.7097    114.5647   9.2305182134e+01   3.7906874052e+01    0.7669508    0.4409872 -74.24  0.001437742    3.049    0.672
        55 -10.4617    123.3899     91.3580   8.1954761887e+01   4.0103265551e+01    0.9532306    0.5472189 -37.26  0.002599985    1.781    0.439
        56 -10.5515    131.6338    119.6205   8.7428346852e+01   3.2152910240e+01    0.9012477    0.6010068  87.05  0.002909512    2.610    0.617
        57 -11.4041    133.5072    109.2956   8.4275198174e+01   3.4041426917e+01     1.820194    0.6376399 -46.61  0.005809621    2.827    0.646
        58  -9.7005    127.7038    102.4276   8.3937532472e+01   3.6795743970e+01    0.5126829    0.4348374 -61.70  0.001125952    1.240    0.194
        59 -11.1986    120.9394    110.2651   8.7858600058e+01   3.6476740127e+01     1.479115    0.7172107 -51.63  0.003347865    2.093    0.522
        60 -10.8281    109.0400    100.8769   8.8665719089e+01   4.0969219289e+01      1.06951     0.815992 -84.33  0.004943232    1.747    0.428
        61  -9.8063     27.4716    123.0353   1.1717960476e+02   4.7070898642e+01    0.5338855    0.2745282  69.81  0.002218879    2.540    0.606
        62  -7.7732    158.4106    122.2352   8.1506823662e+01   2.5722102993e+01     0.222949    0.1468886 -53.89 0.0009391563    1.644    0.392
        63  -9.4573    151.4235    116.9844   8.1821571501e+01   2.8409411779e+01     0.481833    0.2770397 -28.56 0.0009281563    2.238    0.553
        64  -8.5476      1.6122    116.9271   1.2350182777e+02   5.0391948481e+01    0.3552622    0.1278151 -82.47  0.001574267    2.551    0.608
        65  -8.3668    237.6103    116.7677   6.4565940265e+01   9.0792378885e+00    0.2121341    0.1203879 -42.41 0.0009538303    1.663    0.399
        66  -9.7531    207.3073    115.0453   6.9394736982e+01   1.5945158481e+01    0.2729053    0.2431552 -34.34 0.0002368911    1.070    0.066
        67 -10.0938     91.7563    112.9483   9.6723469790e+01   4.1330301827e+01    0.6002798    0.4267444  87.53  0.001771142    1.929    0.482
        68  -8.9132     91.9966    104.3908   9.4560500132e+01   4.3293264565e+01    0.7858846    0.4968918   6.78  0.003005713    2.982    0.665
        69  -8.8165     55.7018    113.0440   1.0739829823e+02   4.6539851416e+01    0.5664802    0.2799088 -76.93  0.002273172    2.602    0.616
        70  -9.3822     30.4432    108.6160   1.1417868283e+02   5.0233816399e+01    0.3148102    0.2340271 -64.77  0.001928543    1.099    0.090
        71 -10.8354     21.4945    102.0536   1.1584050410e+02   5.2516509928e+01     1.375369    0.6029025 -84.50  0.004854711    2.930    0.659
        72 -10.0675    162.8551    247.6974   1.0376232404e+02   1.6083507189e+00    0.5202344    0.3098801 -76.34  0.002318921    4.304    0.768
        73 -10.4419     25.8213     78.1555   1.0998252916e+02   5.7697904436e+01    0.6008993     0.359919  86.34   0.00180503    2.516    0.603
        74 -10.5313     31.8800     64.8616   1.0454536627e+02   6.0128235603e+01     1.231874     0.458292 -32.06  0.004272625    4.358    0.771
        75 -10.2396     78.1905    112.9606   1.0069307936e+02   4.3501420127e+01    0.5348839    0.3291246 -78.09  0.001666126    2.128    0.530
        76  -8.0950    167.1686    114.1584   7.7416379989e+01   2.5394745087e+01    0.2188614    0.1877732 -77.26 0.0005366922    1.355    0.262
        77 -10.4045     65.6835    108.6097   1.0348501528e+02   4.6327974147e+01     1.100456    0.5402907 -62.21  0.003018656    1.914    0.477
        78  -8.9919     59.1463    109.5773   1.0567217656e+02   4.6946838513e+01      0.30877     0.181027 -62.86 0.0009870097    1.524    0.344
        79 -10.3888     62.9805     95.6531   1.0139022170e+02   4.9749410918e+01    0.6170332    0.3811753 -86.61  0.001601233    2.611    0.617
        80  -9.0711     64.7719     84.6482   9.8017934702e+01   5.2036862462e+01    0.6366517     0.412285 -38.97  0.003207054    1.493    0.330
        81  -9.7930     14.4961    111.6677   1.1930402427e+02   5.0777103547e+01      0.46637    0.2352998  82.17  0.002019584    2.405    0.584
        82  -8.7499     14.3175    105.3267   1.1849511198e+02   5.2270806337e+01     0.269392    0.1285779 -54.17  0.001415362    1.753    0.430
        83  -8.2705    212.2826    111.3360   6.7554163073e+01   1.5491935375e+01    0.2552977    0.2211858  -5.92 0.0007225098    1.233    0.189
        84  -9.1364    158.9951    111.4266   7.8569482979e+01   2.7851155339e+01    0.4175428    0.2091949 -42.03  0.001365266    1.971    0.493
        85  -9.0024     35.4895    111.4185   1.1313292356e+02   4.9105952532e+01     0.284052    0.2447475  31.93   0.00183655    1.394    0.283
        86  -8.8290    149.8194    109.7338   8.0300649467e+01   3.0313401102e+01    0.3017564    0.1834804 -53.00   0.00105157    1.782    0.439
        87 -10.8105     44.8192    102.4355   1.0865480456e+02   5.0308470312e+01     0.805426    0.4273075  73.18  0.002923673    3.741    0.733
        88  -8.7990     40.2198    106.6045   1.1086982441e+02   4.9791796528e+01    0.3204775    0.1480523 -65.37  0.001001007    1.844    0.458
        89  -9.2886      6.6163    103.9117   1.2058064266e+02   5.3094987285e+01    0.4700463    0.2329988  72.78  0.001599612    2.641    0.621
        90  -7.9297     78.4659    105.0231   9.8783662241e+01   4.5342395683e+01    0.3727755     0.235387  -5.86  0.001445283    3.105    0.678
        91  -9.5767     81.4880    100.2046   9.6680182090e+01   4.6000544771e+01    0.4528587    0.2714778 -65.73 0.0008058134    1.882    0.469
        92  -8.5086     82.5066     93.5397   9.4637468376e+01   4.7373260732e+01    0.3176537    0.2166815  14.74  0.001274932    1.990    0.497
        93  -8.6124    166.0727    104.1065   7.4977570101e+01   2.7686731940e+01    0.3247322    0.2188728 -45.17 0.0005362254    1.477    0.323
        94  -9.6744    149.4066    103.1219   7.8601877792e+01   3.1796386653e+01    0.4929108    0.3007417 -52.38  0.001026497    1.771    0.435
        95  -8.8236    150.1455     96.6808   7.6617429530e+01   3.2952149475e+01    0.3554243    0.2414913  22.18  0.001435826    2.031    0.508
        96  -7.8874     23.4698     69.0657   1.0879350940e+02   5.9906720150e+01    0.1788052    0.1577715 -80.45 0.0003450117    1.275    0.216
        97  -8.4317     74.1345    102.4153   9.9488882142e+01   4.6606366454e+01    0.3676727    0.1797291 -51.77 0.0009456345    1.820    0.450
        98  -8.5416    159.0128    101.3061   7.5818912325e+01   2.9923285373e+01    0.2793382    0.2233111 -51.60 0.0003931702    1.282    0.220
        99  -9.4507    243.5224     98.9471   5.9421651987e+01   1.0769720327e+01    0.3289813    0.1906288 -17.31  0.001392296    2.230    0.552
       100  -7.2363    234.6161     99.4914   6.0889578883e+01   1.2581156107e+01    0.1444637    0.1283181 -29.90 0.0001701738    1.049    0.047
       101  -9.4324     94.2904     97.1686   9.1988908978e+01   4.4552838741e+01    0.3378954    0.2809799 -75.97 0.0006102483    1.364    0.267
       102  -8.9569     96.0559     91.0606   8.9767662216e+01   4.5608572665e+01     0.468761    0.3114506 -14.50  0.001660606    2.311    0.567
       103  -8.2302    239.4826     96.5538   5.9441728549e+01   1.2013940076e+01    0.1423423    0.1291168 -34.50 0.0008079087    1.015    0.015
       104  -9.7151     15.9117     70.7202   1.1197537968e+02   6.0076563019e+01    0.4491375    0.1907981 -58.02   0.00119159    1.740    0.425
       105 -10.1878      4.3824     89.2407   1.1924516923e+02   5.6588154688e+01    0.6326702    0.2720218 -89.65  0.002138368    3.079    0.675
       106  -9.5406      6.4865     78.4983   1.1683380489e+02   5.8903531369e+01    0.6044731    0.2555201 -29.09  0.002787769    3.197    0.687
       107  -9.5844    138.7024     92.9101   7.8368390527e+01   3.6376983575e+01    0.4219128    0.3687334  80.28 0.0009499654    1.307    0.235
       108  -9.8931     34.5556     90.6017   1.0959429169e+02   5.4101344352e+01    0.5605087    0.2635687 -78.18  0.001906236    2.866    0.651
       109 -10.0692     37.0730     80.9823   1.0664123133e+02   5.6076797565e+01    0.6352524    0.3166591 -22.05   0.00255442    3.493    0.714
       110  -8.5629    153.2487     91.9726   7.4526126636e+01   3.3166705370e+01    0.2417841    0.2129214 -79.46 0.0002814288    1.282    0.220
       111  -8.8812    150.5011     89.0769   7.4335835637e+01   3.4395589080e+01    0.2776326    0.2378719 -68.44 0.0005969299    1.305    0.234
       112 -10.5777     55.2874     70.9788   9.7512451654e+01   5.6299130705e+01     0.575091    0.4403537  64.40  0.001513346    1.845    0.458
       113 -10.3769     47.8343     84.4085   1.0371752000e+02   5.4187532262e+01    0.6552959     0.388145 -74.17  0.002050582    2.052    0.513
       114  -9.2068     48.7603     77.4043   1.0162820083e+02   5.5665254131e+01    0.4301035    0.2422421   7.56  0.001934071    2.726    0.633
       115  -9.9466     62.4736     60.9820   9.1786348637e+01   5.7440354316e+01    0.6809659    0.2279426  34.65  0.002417062    3.305    0.697
       116 -10.2622     85.3480     86.5964   9.1825571739e+01   4.8468299587e+01    0.5324155    0.3936444  74.45  0.001008111    1.967    0.492
       117  -9.4555     87.4505     78.9175   8.8892400839e+01   4.9782438767e+01    0.6400039    0.3885637  16.76  0.002156088    2.486    0.598
       118  -8.6867    163.6254     87.5099   7.0855318941e+01   3.1529785881e+01     0.300011    0.1888885 -42.06 0.0007453032    1.567    0.362
       119  -9.4577    140.6012     82.1796   7.4692603510e+01   3.8094951756e+01    0.7739663     0.336204 -32.64   0.00147383    2.640    0.621
       120  -8.8294    139.9557     75.4860   7.2784323933e+01   3.9533732301e+01    0.5711756     0.312947 -36.41  0.001740176    1.830    0.454
       121  -8.5337    157.6043     91.1539   7.3272381454e+01   3.2285301316e+01    0.4003626    0.2387162 -32.95   0.00162014    1.760    0.432
       122 -10.3265    103.9361     82.6514   8.4916058243e+01   4.5947204081e+01    0.6036049    0.3091407 -52.49 0.0009577841    2.104    0.525
       123  -9.6743    104.9902     72.1001   8.1275190896e+01   4.7903991289e+01    0.8094809    0.5650482 -17.20  0.003687142    1.757    0.431
       124  -8.3296    157.7203     83.6770   7.1058410682e+01   3.3701378520e+01    0.3005536    0.2024189 -48.58 0.0006678715    1.539    0.350
       125  -7.9002    170.2156     83.2651   6.8195981064e+01   3.0704185616e+01    0.2222694    0.1829002 -69.65  0.001053203    1.384    0.277
       126  -9.6582    240.1122     81.2025   5.5625802327e+01   1.4332979476e+01    0.4180349    0.1910748 -33.46  0.001502908    2.004    0.501
       127  -8.8678    119.0116     80.4787   7.9881050807e+01   4.3301413437e+01    0.3751334    0.2476216 -53.24 0.0007969592    1.653    0.395
       128  -8.0022    119.8589     76.1485   7.8282657658e+01   4.3985290941e+01     0.240049    0.2207404  -3.60  0.000547688    1.116    0.104
       129  -9.0423    149.7933     80.1983   7.1853937510e+01   3.6286901220e+01    0.4474605    0.2422928 -38.95  0.001152898    1.825    0.452
       130  -9.1877     73.9942     79.8516   9.3585654686e+01   5.1771686604e+01    0.4664043    0.2497066 -60.46  0.001252683    2.157    0.536
       131  -8.5309     68.5810     79.3999   9.5280472272e+01   5.2672906094e+01    0.2758706    0.1277874 -55.69  0.001132738    2.120    0.528
       132  -8.1559    166.4067     78.6848   6.7662597612e+01   3.2488194427e+01    0.2795955    0.1445478 -41.34 0.0006361277    1.904    0.475
       133  -9.1494    129.9501     57.2657   6.9338510546e+01   4.5164639904e+01    0.8811094    0.3566148 -45.41  0.001258225    2.791    0.642
       134  -8.7547    130.4138     64.3771   7.1614028490e+01   4.3819977753e+01    0.5928421    0.3314212 -51.94   0.00187553    2.171    0.539
       135  -8.6078    122.9914     70.9836   7.5756926099e+01   4.4296137990e+01    0.2862107     0.204723 -43.40 0.0007941615    1.397    0.284
       136  -9.6995    127.5478     75.7918   7.6075266803e+01   4.2349360810e+01    0.6103463    0.2976649 -50.95  0.002017711    2.415    0.586
       137  -9.1003    129.1995     68.8337   7.3397534259e+01   4.3291274405e+01    0.5991597    0.3315952  21.25  0.001905872    3.636    0.725
       138  -8.9008    121.1119     66.0228   7.4633146218e+01   4.5644499729e+01    0.4001693    0.2337926 -48.99 0.0006107074    1.886    0.470
       139  -8.3436    121.9927     61.0799   7.2724837977e+01   4.6340558279e+01    0.3021118    0.2003781  35.84 0.0007963355    1.600    0.375
       140  -7.7921    184.1876     78.1054   6.3900263489e+01   2.8150889937e+01    0.2328775    0.2103189  14.74  0.000542498    1.236    0.191
       141  -7.6883    174.4670     78.5409   6.5941210749e+01   3.0503941800e+01    0.1531972    0.1523062 -36.68  8.10416e-05    1.020    0.019
       142  -8.7381    247.3508     77.1742   5.3690449058e+01   1.3384334769e+01    0.2083043    0.1087848 -42.35 0.0004256833    1.680    0.405
       143  -8.4813    156.9698     76.5443   6.9088544104e+01   3.5216704358e+01     0.237518    0.2034616 -40.42 0.0003436504    1.161    0.139
       144  -9.1976     55.6064     62.8809   9.4942794767e+01   5.7973261181e+01    0.4266214    0.2796225  11.28  0.001570382    1.896    0.473
       145  -9.9972     81.5766     72.3984   8.8792469960e+01   5.2157747928e+01    0.4707333    0.3290637 -67.09 0.0009869552    1.905    0.475
       146  -9.2859     83.1118     65.2635   8.5958968044e+01   5.3353811986e+01    0.5858461    0.3643632  -6.19  0.002372769    2.682    0.627
       147  -8.8564    164.6208     94.3595   7.2595597768e+01   2.9965210420e+01    0.3571052     0.290316 -58.85 0.0007189252    1.328    0.247
       148  -9.0687    114.9298     72.7553   7.8580039686e+01   4.5714653763e+01    0.4042403    0.2986438 -48.71  0.000943767    1.397    0.284
       149  -8.0500    116.5023     68.5458   7.6753497048e+01   4.6187091655e+01      0.26317     0.188425  42.99 0.0009110107    1.416    0.294
       150  -8.3094    162.7342     72.9585   6.6733896306e+01   3.4432530951e+01    0.2826596     0.198826 -52.96 0.0006469404    1.543    0.352
       151  -7.8287    175.2358     72.2532   6.3945954209e+01   3.1415096100e+01    0.2122449    0.1779529 -74.39 0.0006421049    1.330    0.248
       152  -8.5706    169.6196     70.5702   6.4573488650e+01   3.3121866030e+01    0.3821231    0.1825443 -36.43  0.001439691    2.060    0.515
       153  -9.2859    147.0312     69.2615   6.9113080817e+01   3.8975247888e+01    0.4039643    0.2691387 -58.11 0.0009133572    1.840    0.457
       154  -8.4651    156.4834     69.9820   6.7184761811e+01   3.6517388759e+01    0.2274136      0.15076 -38.85 0.0003900863    1.499    0.333
       155  -9.7382     94.7738     68.3508   8.3190278328e+01   5.0638157114e+01    0.4313435     0.283374 -50.84 0.0007963214    1.601    0.376
       156  -9.3886     97.3403     58.3499   7.8951630846e+01   5.2055701450e+01    0.7652061     0.455039 -29.38  0.003434917    1.751    0.429
       157  -9.1816    207.7824     67.0335   5.6730184180e+01   2.4128748704e+01    0.3839549    0.2943012 -11.47  0.001870393    1.581    0.368
       158  -8.6845     75.6360     67.6343   8.9279906562e+01   5.4112031917e+01    0.4246445    0.1249904 -48.02  0.001410237    3.184    0.686
       159  -9.0344    138.3855     64.9294   6.9792826122e+01   4.1836881018e+01    0.6445316     0.284468 -27.61  0.001272027    2.820    0.645
       160  -9.3593    109.7802     63.9418   7.7134212691e+01   4.8489378171e+01    0.3810111    0.2702459 -56.46 0.0007573887    1.697    0.411
       161  -8.9710    110.5763     58.2429   7.4931504433e+01   4.9357215580e+01    0.3773211     0.288193  -0.70  0.000997505    1.538    0.350
       162  -8.2728    170.9662     64.9333   6.2607277045e+01   3.3736371090e+01    0.2489358    0.1830589 -69.42 0.0006008906    1.658    0.397
       163  -8.0547    147.0166     64.1682   6.7491356485e+01   3.9873750370e+01    0.2650761    0.1675656  29.20  0.001069985    2.031    0.508
       164  -9.6405     16.7775     61.2867   1.0950753468e+02   6.2077866230e+01    0.4807622    0.2412006 -56.48  0.002634529    1.520    0.342
       165  -8.1963    157.6341     63.0205   6.4761998351e+01   3.7428137208e+01    0.2167895    0.1879038 -38.04 0.0005581348    1.160    0.138
       166  -9.0389     53.7242     38.0591   8.6853855778e+01   6.2980428389e+01    0.5174369    0.2050825 -37.66   0.00224324    2.290    0.563
       167  -9.0539     44.2969     53.7135   9.6354582768e+01   6.1206284746e+01    0.5315852    0.2016819 -36.97 0.0008981805    2.761    0.638
       168  -9.6008    181.5713    249.3732   1.0058559949e+02  -1.5752464629e+00    0.2347377    0.1298878  38.75  0.001360003    1.421    0.296
       169  -9.3657    171.7997    248.8730   1.0228638901e+02   2.8290799381e-02    0.2330271    0.1309701  55.14   0.00124405    2.094    0.522
       170 -10.0638     49.9963     54.5399   9.4376775906e+01   6.0372016213e+01    0.6333197    0.3015224 -53.31  0.002464642    2.049    0.512
       171  -9.8211     55.8447     43.7103   8.8201868667e+01   6.1683227533e+01     1.006058     0.517953  -7.41  0.003236083    5.178    0.807
       172 -10.3198     45.5614     29.2762   8.6651777955e+01   6.5552016376e+01    0.4285715    0.4080466 -77.14  0.002921847    1.607    0.378
       173  -9.2059    149.0002    247.9427   1.0632888396e+02   3.7701892532e+00    0.1995964    0.1703944 -56.04 0.0009006088    1.483    0.326
       174 -10.1719    116.8515    245.8227   1.1197982267e+02   9.1120409944e+00     0.198021    0.1801378  78.85 0.0004291186    1.226    0.184
       175  -7.5140     80.4998    250.4881   1.1891121557e+02   1.3620904968e+01    0.1142056   0.08533984  60.04 0.0003268199    1.010    0.010
       176  -9.0723     87.4778     57.4216   8.1795873096e+01   5.4094617567e+01    0.6257351    0.2747386 -45.36    0.0020049    2.280    0.561
       177  -9.7606    105.3893     39.4770   6.9525271598e+01   5.3549426519e+01    0.7101042    0.3191485 -26.67  0.001846038    2.448    0.592
       178  -7.7875    234.4465    237.9429   8.9510555085e+01  -8.2137753212e+00    0.1318824    0.1022754 -55.92 0.0005800014    2.464    0.594
       179  -9.6306    188.3866    233.2482   9.7026053450e+01  -4.7159155953e-01    0.2999254    0.2287478 -15.79  0.001252769    1.520    0.342
       180  -7.3883    241.4756    233.5202   8.7586733380e+01  -8.7198878146e+00    0.1180993   0.09022778  13.77 3.968825e-05    1.008    0.008
       181  -8.4575    118.8609    231.0363   1.0996291010e+02   1.1271689468e+01    0.2391787    0.1864903  63.25 0.0009652695    1.173    0.148
       182  -8.2723    228.9171    221.7736   8.7792939963e+01  -5.4164042598e+00     0.188415    0.1518745  -3.86 0.0004175582    1.155    0.134
       183 -10.0185      9.7904    207.4056   1.2849452072e+02   2.9985739399e+01    0.4068057     0.244417  26.50  0.002612431    2.353    0.575
       184  -9.3459    101.0827     31.7923   6.7749725662e+01   5.5577753090e+01    0.4866508    0.2701313 -43.57  0.001244821    2.089    0.521
       185  -9.1917    227.3065    204.0886   8.4948447742e+01  -2.7902064510e+00    0.2901062    0.2598059  86.44  0.001392173    1.872    0.466
       186  -8.9986    215.3285    198.6717   8.6146205100e+01   1.5330831936e-02    0.2518212     0.203022  34.21 0.0009836158    1.189    0.159
       187 -10.3216     85.0939     47.9911   7.9129996118e+01   5.6227277836e+01    0.5378734    0.4020141 -75.95  0.002544493    2.369    0.578
       188 -10.4071     90.1939     38.2079   7.3645350402e+01   5.6865271962e+01     1.052727    0.4288014  31.16  0.003504772    3.770    0.735
       189  -9.0147    192.1389    194.4337   8.9819547738e+01   4.8188230796e+00    0.7792439     0.398847 -62.56  0.002262945    6.596    0.848
       190 -10.4573    246.6503    196.6698   8.0157152648e+01  -4.8926600865e+00    0.2376551    0.2087001   8.60 0.0006596411    1.176    0.150
       191  -9.0244    216.2642    193.9471   8.5084809169e+01   5.6525477486e-01    0.2249909    0.1859875  26.28  0.000226108    1.101    0.091
       192  -8.4567    216.9526    189.0730   8.4022501284e+01   1.1913259890e+00    0.2123006    0.1792652 -13.78 0.0003164854    1.142    0.125
       193  -7.2416    226.4919    189.4109   8.2326300218e+01  -5.3122800585e-01    0.1315036    0.1131206  10.76 9.243742e-05    1.030    0.029
       194  -6.8327    223.2496    187.6799   8.2583058533e+01   2.9360943720e-01    0.1155829    0.1059467 -61.25 0.0006912349    1.531    0.347
       195 -10.2682    184.5550    185.2279   8.9618101295e+01   7.8051142553e+00    0.2439223    0.2333509  45.45 0.0003503225    1.143    0.125
       196 -10.2306     14.8244     44.7359   1.0590575917e+02   6.5657040356e+01    0.6345548    0.3032606 -20.40  0.003141413    2.651    0.623
       197  -8.3825    136.8862    185.3866   9.9785132425e+01   1.6780819391e+01    0.2079285    0.1815215 -74.65 0.0004729961    1.238    0.192
       198  -9.3148      6.5233     32.5103   1.0594857411e+02   6.8575876485e+01    0.2285549    0.1639468 -33.03 0.0007422689    1.141    0.124
       199  -9.9990      7.3024     28.1081   1.0410643825e+02   6.9361845483e+01    0.3031595    0.2648829 -75.62  0.001074291    1.567    0.362
       200  -7.8731    243.1875    184.8055   7.8457081497e+01  -2.6869468597e+00     0.179473    0.1598929  -0.52 0.0004094974    1.141    0.124
       201  -9.1778     69.8711    181.5531   1.1419784889e+02   2.8548008206e+01    0.2182259    0.1748655 -76.68 0.0003783765    1.179    0.152
       202 -10.8661     21.8819     53.5213   1.0542824330e+02   6.3355777909e+01    0.8464813     0.502723 -89.99  0.002932696    3.637    0.725
       203  -8.4792    164.6119     60.2343   6.2439301485e+01   3.6124356123e+01    0.3221232    0.1527355 -30.22  0.001020714    2.239    0.553
       204  -9.3960    163.4906     54.6043   6.0907615778e+01   3.7307234718e+01    0.4734387    0.2864304 -60.80  0.001335764    2.200    0.545
       205  -8.5172    146.5246     58.9743   6.5921363611e+01   4.0874361705e+01    0.2867477    0.2079251 -51.91 0.0008687879    1.519    0.342
       206  -8.8194    147.5473     53.9329   6.4037434044e+01   4.1439746475e+01    0.4253126     0.244153 -25.87   0.00144681    1.921    0.480
       207  -8.7094    139.0043     57.1379   6.7067375790e+01   4.3021319439e+01    0.3387519    0.2328723 -44.28 0.0005084496    1.515    0.340
       208  -9.2342    121.0662     46.9908   6.8025340613e+01   4.8905158774e+01    0.4484163     0.231407 -36.60 0.0005012949    1.941    0.485
       209  -9.2185    118.2697     55.5331   7.1816499801e+01   4.8143264550e+01    0.3793637    0.2900626 -74.17 0.0008004273    1.870    0.465
       210  -7.4646    118.6485     51.6829   7.0351117926e+01   4.8703346443e+01     0.245552    0.1701789  15.71 0.0006650895    1.832    0.454
       211  -7.7740    152.5109     60.0500   6.4930649485e+01   3.9207821435e+01    0.2337284    0.1497094 -35.80  0.001021567    1.566    0.362
       212  -7.6050    157.4885     55.5416   6.2423880075e+01   3.8686022826e+01    0.1505362    0.1469679  83.48 6.208057e-05    1.031    0.030
       213  -9.2752    105.5879     51.9475   7.4139420460e+01   5.1510501724e+01    0.5855535    0.2786959 -33.94  0.001944284    2.099    0.524
       214  -9.2160    141.1488     49.7060   6.4064042833e+01   4.3687765048e+01    0.5777332    0.3621796  15.83  0.001410241    2.448    0.592
       215  -7.0422    172.3174     50.6783   5.8009487936e+01   3.5643934484e+01    0.1578208     0.113115 -68.02  0.000386495    1.664    0.399
       216  -9.6935    130.2393     47.1932   6.5774689967e+01   4.6722498750e+01    0.8153945    0.3581438 -21.72  0.001517582    3.170    0.685
       217  -9.0627    133.0706     35.8866   6.1090808142e+01   4.7675525633e+01    0.4538468    0.1991452 -38.76   0.00149331    2.363    0.577
       218 -10.7396    134.0206     31.0306   5.9138336378e+01   4.8082246656e+01    0.3376436    0.2654749   6.32  0.001752811    1.426    0.299
       219  -8.7929    157.0511     47.3797   5.9888790724e+01   4.0048557670e+01    0.4761381    0.1923873 -38.50  0.001733928    2.449    0.592
       220  -8.4896    149.9695     48.1508   6.1601693720e+01   4.1727423282e+01    0.2543681    0.2130754 -37.92 0.0005002887    1.222    0.182
       221  -8.9392    112.1223     47.1837   7.0515854673e+01   5.0889647326e+01    0.3940066     0.225759 -46.39  0.001524964    1.983    0.496
       222  -8.8685    113.7980     41.8079   6.8060607185e+01   5.1351929253e+01    0.4186539    0.2547541  14.75  0.001704112    2.427    0.588
       223  -8.6482     39.9276     52.3000   9.7650286437e+01   6.1967682532e+01    0.4820412    0.1052548 -46.74  0.001678045    3.468    0.712
       224  -8.9530    205.2143    169.1683   8.2270087005e+01   6.6312126247e+00    0.2264278    0.2053705  40.57 0.0002846151    1.171    0.146
       225  -8.3616    230.1051    167.3293   7.7208789894e+01   2.2290859214e+00    0.2420538     0.171473 -20.41 0.0006401845    1.370    0.270
       226  -7.8468    191.1548    167.3643   8.4704947597e+01   9.7212458085e+00    0.2288561    0.1716993 -43.09 0.0006657654    1.407    0.289
       227  -8.8890     70.0549    166.0234   1.1216725933e+02   3.2032908009e+01    0.1937368    0.1678063  84.11 0.0003218669    1.013    0.013
       228  -7.2495    133.1262    162.5625   9.6525110586e+01   2.2274167279e+01    0.1804249    0.1387639  29.67 0.0008897819    1.433    0.302
       229 -10.1206     76.1985     32.2064   7.5892623328e+01   6.0392814677e+01    0.5215484    0.4413323  78.65    0.0017171    1.862    0.463
       230  -9.8927     79.5407     23.8753   7.1159120939e+01   6.0969894371e+01    0.6475285    0.2834865  30.67  0.002404134    2.872    0.652
       231  -9.2184     84.5325     21.9172   6.8661307067e+01   6.0270039043e+01    0.2865299    0.2325316  14.97  0.000698151    1.120    0.107
       232  -8.8403     40.0059     34.7967   9.1330501965e+01   6.5278810023e+01     0.379416    0.2268161  25.54   0.00214637    1.814    0.449
       233  -9.9714     37.7792     42.1789   9.5079333460e+01   6.4170650835e+01     0.385287    0.2898798 -85.00  0.001407982    2.472    0.595
       234 -10.0622     35.9110     38.0080   9.4355553122e+01   6.5148040791e+01    0.3095419     0.196639 -37.95 0.0003640039    1.293    0.227
       235  -7.2970    232.7790    158.0132   7.4748552943e+01   3.2240980531e+00     0.179298    0.1054039 -33.53 0.0003261864    1.604    0.377
       236  -8.3779    123.1681     40.4724   6.5118019245e+01   4.9400635664e+01     0.327656     0.222342  20.10   0.00150293    1.789    0.441
       237  -9.2527    153.5017     40.8928   5.8475280084e+01   4.1885400856e+01    0.4449041    0.2278478 -43.07  0.001765189    2.069    0.517
       238  -7.4861    160.3632     39.2809   5.6629199164e+01   4.0352990806e+01    0.2038883     0.132429 -39.98 0.0006547196    1.577    0.366
       239  -8.7353    144.1779     36.4497   5.8873782727e+01   4.4850995118e+01    0.2619532     0.220571 -49.23 0.0005654685    1.281    0.219
       240  -8.8128    118.9326     34.4762   6.3961243703e+01   5.1233440076e+01    0.2988422    0.2011271 -26.20 0.0007137147    1.525    0.344
       241  -8.1372    153.0889     34.7142   5.6507243618e+01   4.2826221001e+01    0.2813799    0.2351706 -88.96  0.001129748    1.313    0.238
       242  -7.4122    226.6734    148.7098   7.3798131218e+01   5.9223579073e+00    0.1449432    0.1045091   7.50 0.0002634473    1.616    0.381
       243  -9.3551     91.4999     26.4146   6.8400440796e+01   5.8297688224e+01    0.4399762    0.2510153 -48.67  0.001434571    2.434    0.589
       244  -8.6839     92.0147     20.9923   6.5944986541e+01   5.8883306252e+01    0.3460326    0.1995833   8.86 0.0009947042    2.352    0.575
       245  -8.3032    133.5615    146.6140   9.3190027081e+01   2.5700232596e+01    0.4338138     0.148696 -53.66  0.001362824    3.254    0.693
       246  -9.2856     66.7563    144.1082   1.0976372673e+02   3.7640442415e+01    0.4624664     0.303791  68.96  0.002332747    1.700    0.412
       247  -8.7113    144.2727     25.8576   5.5199553298e+01   4.6167147975e+01    0.3401347    0.2287181 -15.36  0.001275043    1.687    0.407
       248  -8.9119    128.6277     24.8389   5.8066462167e+01   5.0159988111e+01    0.4682877    0.2645814 -20.11  0.001420953    1.954    0.488
       249  -8.4019    146.3928     41.2407   6.0044108154e+01   4.3634627317e+01    0.2076529    0.1337546 -41.21 0.0009424976    1.620    0.383
       250  -7.5298    140.2922     22.6826   5.4865008141e+01   4.7535499775e+01     0.215574    0.1756003  75.24 0.0004136444    1.273    0.214
       251  -8.7412    238.2218    145.6054   7.1083765658e+01   4.2037918274e+00    0.1918664    0.1251323  33.24 0.0009440207    1.633    0.388
       252  -8.6241    139.4158     40.1558   6.1175302035e+01   4.5527202943e+01    0.3941113    0.2405861 -34.78     0.001409    1.673    0.402
       253  -7.1680    162.7166    141.7088   8.5212174419e+01   2.0680791999e+01    0.1498841     0.121126   1.75 0.0002095478    1.533    0.348
       254  -8.8297    132.7446     17.5359   5.4515369370e+01   4.9975238276e+01    0.2378047    0.2115481 -78.99  0.000586658    1.277    0.217
       255  -8.6572    128.9700     16.0525   5.4736260272e+01   5.1055706863e+01    0.2824436    0.2341498 -54.90 0.0006832789    1.406    0.289
       256  -7.9434    155.2622     17.6480   5.0453872716e+01   4.4295963068e+01    0.1428463    0.1014443 -59.85 0.0003581871    1.615    0.381
       257  -7.3637    175.4228     16.5037   4.7056743272e+01   3.9229849061e+01    0.1383168    0.1279498  80.76 9.994184e-05    1.014    0.013
       258  -7.7647    167.5084     15.9192   4.7998725042e+01   4.1331736958e+01    0.1975679    0.1411455 -22.53 0.0005797468    1.548    0.354
       259  -7.4171     95.6690    136.3021   1.0072206295e+02   3.5120309889e+01    0.1510057    0.1095447  76.94 0.0002473007    1.651    0.394
       260  -8.6189    112.3945    134.0985   9.5840492348e+01   3.2663406493e+01    0.3474415    0.2402944  83.59  0.001044226    2.031    0.508
       261  -8.1143    242.2527    133.9999   6.7802660318e+01   5.3143397625e+00     0.192678    0.1093898 -33.65 0.0008935216    1.593    0.372
       262  -9.9714    133.9994    132.0078   8.9822775336e+01   2.8880660627e+01    0.5874601    0.4008003  58.03  0.002611779    1.625    0.385
       263  -8.9937     83.5313    131.8024   1.0310466317e+02   3.8163109097e+01    0.6823243    0.3447201  64.17  0.002388164    3.414    0.707
       264  -7.8250    143.2148    132.2088   8.7589751692e+01   2.6903120053e+01    0.3808917    0.1941305  66.00  0.001085614    4.255    0.765
       265  -9.7808     98.5020    128.5441   9.8347458179e+01   3.6478080187e+01    0.6210974    0.3778008  77.04   0.00206236    2.823    0.646
       266 -10.7790     70.0866    126.5850   1.0582513773e+02   4.1401948928e+01    0.7375669    0.6121772 -32.55  0.001658225    1.423    0.297
       267 -10.1144     58.3377    124.6321   1.0877817073e+02   4.3423713241e+01    0.6029514     0.345497  76.98  0.002074593    2.583    0.613
       268  -9.8045     41.8946    122.8472   1.1312612232e+02   4.5733670504e+01    0.6925844    0.3153442 -86.37  0.002595596    3.308    0.698
       269  -8.0098    160.5302    127.9907   8.2448672423e+01   2.4035164437e+01    0.2434785    0.1530704 -43.54 0.0006284684    1.587    0.370
       270  -9.8214    110.5118     89.9647   8.5165385289e+01   4.3082404501e+01     2.365964    0.9878471  27.25  0.005172088    7.740    0.871
       271 -10.2256    117.4645    124.2650   9.2270799043e+01   3.3976104500e+01    0.9660019    0.5937677 -50.75  0.002387242    1.585    0.369
       272 -10.2722    140.5154    117.1722   8.4549714663e+01   3.0789300132e+01    0.9497983    0.4000902 -51.21  0.001877906    2.579    0.612
