#   1 NUMBER                 Running object number                                     
#   2 MAG_AUTO               Kron-like elliptical aperture magnitude                    [mag]
#   3 X_IMAGE                Object position along x                                    [pixel]
#   4 Y_IMAGE                Object position along y                                    [pixel]
#   5 X_WORLD                Barycenter position along world x axis                     [deg]
#   6 Y_WORLD                Barycenter position along world y axis                     [deg]
#   7 A_WORLD                Profile RMS along major axis (world units)                 [deg]
#   8 B_WORLD                Profile RMS along minor axis (world units)                 [deg]
#   9 THETA_WORLD            Position angle (CCW/world-x)                               [deg]
#  10 FWHM_WORLD             FWHM assuming a gaussian core                              [deg]
#  11 ELONGATION             A_IMAGE/B_IMAGE                                           
#  12 ELLIPTICITY            1 - B_IMAGE/A_IMAGE                                       
         1 -13.4413    221.8010    105.4705   5.7465167511e+01   1.6491482411e+01     3.199067      2.19603  28.08   0.01717216    1.758    0.431
         2 -12.9720    164.9459    105.7946   6.7502486038e+01   2.7964367681e+01     2.753384     1.740256 -37.14    0.0126226    1.520    0.342
         3 -12.7330      4.0913     79.1735   1.1466196979e+02   6.0281613020e+01     1.607059    0.4900632 -68.13  0.006470661    2.451    0.592
         4 -13.2278     36.7213     72.0697   9.8799600541e+01   5.9572041151e+01     1.694978     1.286321  85.30  0.006698878    1.498    0.332
         5 -13.1188    214.0918     58.4111   4.6863957601e+01   2.4895816571e+01     1.421811    0.9692028  75.42  0.005100789    1.715    0.417
         6 -12.8998    215.1542     30.2381   3.9377393618e+01   2.8250602978e+01     1.359443    0.8593764 -44.66  0.005479184    1.343    0.255
         7 -13.6758      8.5168     17.1204   9.6962125449e+01   7.4966644730e+01     1.793283    0.8035683 -58.90  0.008002945    1.973    0.493
         8 -11.4659     23.7405     29.1219   9.1595082054e+01   7.1046401336e+01    0.8599415    0.3582925 -45.75  0.003825069    2.073    0.518
         9 -11.7438    242.3919     28.7900   3.6849072268e+01   2.2690042359e+01    0.9288143    0.2948819 -42.68  0.004075343    2.338    0.572
        10 -11.5135    241.0841     13.0923   3.3240713331e+01   2.4638420922e+01    0.5602719    0.3566485 -21.19  0.002727387    1.610    0.379
        11 -10.9941    237.8719     10.4336   3.2797537257e+01   2.5560633867e+01    0.4656933    0.3072368 -10.50  0.002167248    1.871    0.466
        12 -10.6293     65.7558     13.8649   6.0998374513e+01   6.6875687021e+01    0.4913717    0.3711526  55.28  0.002696332    1.387    0.279
        13 -11.1310     87.5538      2.7271   4.7871748295e+01   6.3118269979e+01    0.9321997    0.3603787  64.62   0.00368475    2.451    0.592
        14 -11.7143     94.3105      5.2715   4.7552586734e+01   6.1214204238e+01     1.145562    0.6147425 -56.36  0.004791705    2.537    0.606
        15 -11.7718     99.6849      3.2067   4.5342841155e+01   6.0061300666e+01      1.09502    0.4720047  70.01  0.004431521    2.311    0.567
        16 -12.9459     44.0844      5.0837   6.5329426319e+01   7.2360884831e+01     1.469975     0.703158  47.64  0.006252236    2.106    0.525
        17 -12.0255     70.0471      3.7798   5.3522690361e+01   6.7141391860e+01     1.102953    0.5081842  60.31  0.004088785    2.151    0.535
        18  -9.9131    250.0779      6.9533   3.1355263667e+01   2.3477678128e+01    0.3391049    0.1458117 -29.49  0.001759575    1.906    0.475
        19 -11.1665    222.6096     27.8466   3.8123297743e+01   2.6897035668e+01    0.4291106    0.3695715  15.69  0.001936606    1.495    0.331
        20 -12.1442    248.8035    222.7339   7.5733358416e+01  -2.8244360469e+00     1.283923    0.3787662 -30.68  0.006446842    3.185    0.686
        21 -10.3797    202.6574    231.8708   8.4474539881e+01   1.5698365969e+00    0.3921436     0.337842 -44.33  0.002589922    1.806    0.446
        22 -11.6033    232.4890    158.1936   6.7099131308e+01   7.0421298414e+00     1.018727    0.6499467 -22.29  0.005150267    1.368    0.269
        23 -11.7781    222.7707    150.4631   6.7105664872e+01   9.6236958832e+00    0.6634495    0.6101308  50.02  0.002769929    1.460    0.315
        24 -13.2491    208.7432    242.9402   8.4976798997e+01  -4.1855057351e-01     1.073947    0.6868157   6.04  0.006392652    1.361    0.265
        25 -13.3776    239.1751    200.7891   7.3714156565e+01   7.1300956571e-01     1.388076     0.972109 -17.03  0.007752184    1.217    0.179
        26 -12.7873    237.3482    243.9137   8.0555062831e+01  -3.7150282178e+00    0.9580711    0.6274733  13.27  0.004901502    1.117    0.105
        27 -11.6282    223.4484    241.6903   8.2418032450e+01  -1.9676914428e+00    0.6784345    0.3464397 -23.55  0.003742812    1.959    0.490
        28 -11.7045    184.8401    247.7313   8.9650804262e+01   1.8759133709e+00    0.7589265     0.380138  23.99  0.003410992    1.675    0.403
        29  -9.6001    148.7938    249.7558   9.6330463657e+01   6.0606660687e+00    0.3326088    0.1652189  22.06  0.001868727    1.992    0.498
        30 -10.6903     59.7244    248.8318   1.1316145905e+02   1.6903496176e+01    0.3106323    0.2112434  46.18  0.002262813    1.084    0.078
        31  -8.6244     26.0113    250.0241   1.1955370575e+02   2.0171793411e+01     0.129343    0.0896049  49.41 0.0005957899    1.033    0.032
        32 -10.1549     14.6463    250.0045   1.2163107663e+02   2.1234305000e+01    0.3494268   0.06407181  39.95  0.001747868    2.649    0.622
        33 -12.9748      8.8521    208.0328   1.2145371070e+02   2.9363566194e+01    0.9184532    0.8096195  38.83  0.005480425    1.322    0.243
        34 -11.8273      2.6805    244.2155   1.2365622092e+02   2.3256623716e+01    0.9641371    0.3217625  87.19  0.005280054    3.011    0.668
        35 -12.3223      3.3128    227.5863   1.2314617965e+02   2.6124188328e+01    0.9469051    0.3409361  46.10  0.005528181    1.842    0.457
        36 -11.8748    220.0512    180.6567   7.3312926278e+01   5.7888308407e+00    0.9265866      0.49076  29.79  0.004239695    1.845    0.458
        37 -10.2303    230.9971    182.0107   7.1772736839e+01   4.0832737876e+00    0.3674546    0.2427922  14.99  0.001572556    1.424    0.298
        38  -9.9847     54.1428    180.5380   1.0934633141e+02   3.0583733542e+01    0.3309976    0.2334309 -26.82  0.001394686    2.199    0.545
        39 -11.8821     21.6002    174.8658   1.1701794134e+02   3.5253774659e+01    0.9178938    0.2615552  67.90  0.002889379    5.161    0.806
        40 -11.3639     12.5532    158.7691   1.1839682112e+02   3.9737587559e+01    0.6026627    0.1578482  89.07  0.001957932    4.573    0.781
        41  -9.7653     79.5279    175.3155   1.0242811540e+02   2.8494223129e+01    0.2675044    0.2020047  66.26 0.0009660167    1.315    0.239
        42 -10.0855     60.2489    174.6025   1.0722765618e+02   3.1169996913e+01    0.2571375    0.2400138 -27.30 0.0009155953    1.352    0.260
        43 -10.5272      1.9977    171.5907   1.2169206581e+02   3.7609097660e+01    0.4106005   0.08559626 -81.54  0.001473299    4.178    0.761
        44  -9.4283     86.1531    171.5058   1.0026627037e+02   2.8399359077e+01     0.229676    0.1775667  73.64  0.001283735    1.358    0.264
        45  -9.9496     71.4972    164.5267   1.0314607982e+02   3.2010546753e+01    0.2898238    0.2372484  29.86 0.0005385897    1.284    0.221
        46 -11.3810     77.5360    158.7849   1.0077027408e+02   3.2502816651e+01    0.6491448     0.472425  -5.29   0.00224871    2.077    0.519
        47 -11.6519     57.6872    160.9950   1.0641311698e+02   3.4615066687e+01    0.4834475    0.3035733 -43.25  0.001413887    2.034    0.508
        48 -10.3422    185.4614    143.3885   7.2213656011e+01   1.7092823181e+01    0.3799614    0.3098276 -84.82  0.002017762    1.920    0.479
        49 -11.8044     68.2627    143.7746   1.0119072978e+02   3.7371822715e+01    0.7010863    0.4022675  65.49  0.002501623    2.101    0.524
        50 -10.5126     82.2402    142.1812   9.6916558042e+01   3.5736430385e+01    0.2838918    0.2621939 -50.02 0.0005387951    1.172    0.147
        51 -11.4822      7.7115    125.6109   1.1766620411e+02   4.8186901092e+01    0.5459874    0.1585065 -64.79  0.002154463    2.843    0.648
        52 -12.7681      1.9888    127.0053   1.1954655090e+02   4.8201007509e+01     2.356143    0.2963577 -82.96  0.005409183    8.300    0.880
        53 -11.1422    164.4456    121.3657   7.1488215717e+01   2.5120320981e+01     1.017009    0.3579619 -43.80  0.003528984    2.791    0.642
        54  -9.8698     85.5305    248.9324   1.0821857715e+02   1.3951270537e+01    0.1983618    0.1178482  48.33  0.001305139    1.377    0.274
        55  -9.6377     30.4433    247.1286   1.1862109247e+02   2.0223492545e+01    0.1821517   0.09082641  39.40 0.0005849765    1.462    0.316
        56  -8.8922     94.3236    144.3095   9.3897202792e+01   3.3338752318e+01    0.1424836    0.1134077 -18.02 0.0005778893    1.651    0.394
        57 -11.0149    234.4751    127.6235   6.0559435667e+01   1.1018506090e+01    0.6355982    0.3933877 -37.51  0.002884943    1.459    0.315
        58 -13.6946    198.4409    119.3213   6.4436550674e+01   1.8736798253e+01     1.878255     1.195904 -35.06  0.007328759    1.433    0.302
        59  -9.1062    106.8669    131.8891   8.8044778309e+01   3.4099058327e+01    0.2294949    0.2051887 -13.29 0.0008415665    1.295    0.228
        60 -10.9261     17.1190    129.8589   1.1504898711e+02   4.6434267832e+01    0.3420809    0.2607896 -84.75  0.002013091    1.135    0.119
        61 -11.6306     17.7303    123.3772   1.1427376791e+02   4.8029950997e+01    0.5348468    0.4377983  -4.87  0.002174402    1.577    0.366
        62  -8.5054     94.2306    128.1711   9.0857364977e+01   3.7173943072e+01    0.2458904     0.157016 -20.10 0.0009422014    2.773    0.639
        63 -11.5747     14.3024    113.5846   1.1448169645e+02   5.0793872197e+01    0.5083216      0.34306 -52.74  0.002811268    1.525    0.344
        64 -13.7495    188.3823    101.2045   6.1803821903e+01   2.3804632709e+01     1.995257     1.267648 -54.57  0.007230822    1.846    0.458
        65 -10.6682      1.9225    184.1186   1.2216369122e+02   3.4866494098e+01    0.5948305   0.05875229 -83.77   0.00139683   10.536    0.905
        66 -10.8870    198.8260     86.2928   5.6229843142e+01   2.4048997706e+01    0.5083103    0.3854364 -83.78  0.002602964    1.753    0.430
        67 -10.2625     23.8495     85.5655   1.0720244099e+02   5.7337139190e+01    0.4600952    0.3373762 -57.39  0.002556955    1.235    0.190
        68 -10.8994    168.5117     81.9013   6.0290555818e+01   3.1519322154e+01    0.4542393    0.3400129 -50.49  0.001971751    1.337    0.252
        69 -10.3460    250.0666     78.0673   4.7607758109e+01   1.5173173724e+01    0.5070441    0.1762064 -32.85  0.002206679    2.234    0.552
        70 -10.5989    248.4992     68.2899   4.5542463330e+01   1.6726333464e+01    0.5184247    0.3578219 -42.64  0.003140751    1.220    0.180
        71  -8.9411     20.5407    238.5464   1.2017026469e+02   2.2635153773e+01    0.1076618    0.0775167  53.68 8.482584e-05    1.007    0.007
        72 -12.6952     22.0820     72.0822   1.0547027550e+02   6.0950869756e+01    0.9910896    0.6321816 -69.49  0.002758614    1.373    0.272
        73  -9.9293    231.5302     58.5141   4.4956250467e+01   2.1253912852e+01    0.3682539    0.2783456 -54.15   0.00190308    1.260    0.206
        74 -11.4297    208.4922     69.8001   5.0534477597e+01   2.4490335091e+01    0.9338462    0.5211076 -57.41  0.004149524    2.154    0.536
        75  -8.3166     53.4940    231.4583   1.1334136790e+02   2.0529745799e+01    0.1153463   0.08574126  50.88 0.0002399558    1.032    0.031
        76  -9.5489    250.3916     58.4313   4.3101992319e+01   1.7627293668e+01    0.3326302   0.07663739 -34.70  0.001254356    2.954    0.661
        77 -10.6446    249.7396     48.8503   4.0957458638e+01   1.8925057659e+01    0.4454811    0.1811417 -30.04  0.002095529    2.006    0.502
        78 -10.6267    246.1982     41.0226   3.9432276238e+01   2.0535531509e+01    0.3779726    0.2629503 -26.02  0.002288459    1.328    0.247
        79  -9.9835     84.1808    229.8616   1.0696033084e+02   1.7227934859e+01    0.2244491    0.1221407  77.39  0.001158739    2.713    0.631
        80 -10.5658      6.9215     35.1959   1.0478315567e+02   7.1035976201e+01    0.4284718    0.3059428 -89.00  0.001821607    1.600    0.375
        81 -10.4591     87.4067    226.0562   1.0596309857e+02   1.7484117482e+01    0.2432376    0.1749864  56.36   0.00160672    1.291    0.225
        82 -11.4355    168.0154    218.8915   8.8883638794e+01   7.7805989970e+00    0.6476176    0.5003994  -3.70   0.00383555    1.305    0.234
        83 -10.6498    175.4114    216.5379   8.7154712289e+01   7.0982913024e+00    0.6307496    0.4018781 -54.99  0.003651158    2.388    0.581
        84  -9.5440     50.1701     32.1622   7.7902773787e+01   6.6830586164e+01     0.180787    0.1693286 -85.70  0.001073421    1.325    0.245
        85  -9.9079     58.6307     30.7925   7.3167176800e+01   6.5610822256e+01    0.2870056    0.2478574 -22.45  0.001647386    1.102    0.092
        86 -12.4863    248.6861    178.0395   6.8350427146e+01   2.2264057396e+00     2.277871    0.3812124 -35.79  0.007715825    5.275    0.810
        87 -13.4473    200.2032    162.5746   7.3373093351e+01   1.1432063596e+01     1.667641      1.45405  30.19  0.007379747    1.228    0.186
        88 -11.7887    210.8545    201.1555   7.8394213544e+01   4.3361825524e+00    0.9597324    0.5940173 -36.10  0.005935353    1.716    0.417
        89 -13.0031    198.1841    185.9306   7.8050162915e+01   8.2318612867e+00     1.435993    0.9830037 -30.21  0.007364557    1.433    0.302
        90  -9.8533    146.3299    207.0478   9.1491795229e+01   1.2657447111e+01    0.4309151    0.2803856 -58.98  0.002444527    2.054    0.513
        91 -11.3629     23.8672    208.3194   1.1826549166e+02   2.7948486442e+01    0.3221601    0.2810524 -31.58 0.0008832229    1.678    0.404
        92 -13.0175     35.0039    197.3373   1.1519841353e+02   2.9080840647e+01     1.004161    0.8933822  85.71  0.006045984    1.205    0.170
        93 -10.4855    118.6204    197.6059   9.6088938975e+01   1.8358077016e+01    0.5347692    0.3927829 -81.50  0.002744991    1.826    0.452
        94  -9.6924    114.1826    197.3882   9.7044952562e+01   1.9046922070e+01    0.2906195    0.2387212  89.72  0.001715044    1.475    0.322
