#   1 NUMBER                 Running object number                                     
#   2 MAG_AUTO               Kron-like elliptical aperture magnitude                    [mag]
#   3 X_IMAGE                Object position along x                                    [pixel]
#   4 Y_IMAGE                Object position along y                                    [pixel]
#   5 X_WORLD                Barycenter position along world x axis                     [deg]
#   6 Y_WORLD                Barycenter position along world y axis                     [deg]
#   7 A_WORLD                Profile RMS along major axis (world units)                 [deg]
#   8 B_WORLD                Profile RMS along minor axis (world units)                 [deg]
#   9 THETA_WORLD            Position angle (CCW/world-x)                               [deg]
#  10 FWHM_WORLD             FWHM assuming a gaussian core                              [deg]
#  11 ELONGATION             A_IMAGE/B_IMAGE                                           
#  12 ELLIPTICITY            1 - B_IMAGE/A_IMAGE                                       
         1 -12.6664    159.9175     53.8927   7.1625670949e+01   3.8090812483e+01     1.027997     1.002811 -54.99  0.004173884    1.146    0.127
         2 -12.5976    174.4974     25.2199   6.2113671965e+01   3.8382242469e+01    0.8185024    0.7333676 -66.53  0.004421693    1.175    0.149
         3 -11.0163    167.9447     25.5154   6.3087304164e+01   3.9848836499e+01    0.4446031    0.2789837 -39.40  0.002097749    1.738    0.425
         4  -9.9845    120.1789      9.2355   6.6379343504e+01   5.2189844484e+01    0.3915155    0.2784668  49.58  0.001246178    1.199    0.166
         5  -8.8179    144.8241      6.8411   6.1640939337e+01   4.6953712699e+01    0.1615468    0.1279748 -80.25 0.0003739566    1.315    0.240
         6  -9.3077    248.2718    241.6669   9.6011269459e+01  -1.3299173077e+01    0.1836894    0.1613585 -11.16 0.0007105046    1.239    0.193
         7 -15.9187     69.3945    139.3905   1.1746901680e+02   3.8960979126e+01     5.795566     4.485852  53.15   0.03006276    1.433    0.302
         8 -14.0627     48.8702    238.1606   1.3631876662e+02   1.7844860258e+01    0.4173823    0.2865228 -59.42  0.001427133    1.625    0.385
         9  -8.9547      6.2129    171.7490   1.3918137810e+02   3.7907555512e+01    0.2288339    0.1480654 -54.35 0.0006549272    1.526    0.345
        10  -9.6510    237.9709    166.0882   8.3632982304e+01   9.8758345606e-01    0.2066828    0.1780037 -33.11 0.0003960095    1.027    0.026
        11 -10.1653    205.7971    163.6957   8.9011626526e+01   7.2311065970e+00    0.2756839    0.2507427 -65.21 0.0003497219    1.183    0.155
        12  -9.2468     22.8151    157.0461   1.3338795345e+02   4.0036822577e+01    0.1924092    0.1873839  52.65 0.0005839838    1.237    0.191
        13 -10.0833    188.1771    153.9321   9.0450404741e+01   1.2746603582e+01    0.4252136     0.342532  53.47  0.002145401    1.336    0.252
        14  -9.8568    186.9396    236.2635   1.0683505150e+02  -3.5956168495e+00     0.451663    0.1800061 -52.55  0.001725973    3.359    0.702
        15 -10.2806     20.9697    146.5041   1.3246072873e+02   4.2787188340e+01    0.3763428    0.2294312 -37.14  0.001295678    1.908    0.476
        16  -8.6467    225.1879    146.4915   8.1799787950e+01   7.0047324988e+00    0.1984658    0.1711941 -44.93 0.0004987405    1.029    0.028
        17  -9.5222    169.9470    237.7026   1.1060141442e+02  -1.0868161314e+00    0.2203821    0.1788442 -25.30 0.0007212412    1.322    0.244
        18  -8.8826    186.2184    144.2089   8.8690662641e+01   1.5228493239e+01    0.2102043    0.1802814 -88.06 0.0006928403    1.332    0.249
        19 -10.4988    153.1881    143.8900   9.5953747890e+01   2.2296794859e+01    0.3862835    0.2468711  66.25  0.001083282    2.133    0.531
        20 -11.2856    157.3990    140.2783   9.4123034059e+01   2.2218864601e+01    0.5394253    0.4007046 -77.48  0.001646256    1.723    0.420
        21  -9.0493     12.9576    143.5327   1.3423343414e+02   4.4176050464e+01    0.2243671    0.1383768 -56.98 0.0003429741    1.363    0.266
        22 -10.2140     24.5893    138.6237   1.3030562619e+02   4.4387338907e+01    0.4145335    0.2454688 -19.67  0.001165454    2.504    0.601
        23 -11.2957    153.1706    130.0095   9.2673666330e+01   2.5429519429e+01    0.5689507    0.4391905 -82.36  0.002559656    1.623    0.384
        24 -11.1118    160.7225    128.7923   9.0631087149e+01   2.4048707165e+01    0.5374727    0.3490656 -56.88  0.002033436    1.635    0.388
        25 -10.7511      9.3167    215.3931   1.4229142154e+02   2.7440354934e+01    0.2124194    0.1638399 -88.43 0.0002877121    1.076    0.070
        26  -9.9318    165.5767    211.1815   1.0696928496e+02   4.8500905657e+00     0.303833    0.2587091  53.65  0.000577412    1.258    0.205
        27 -18.9841     73.0328    220.0533   1.2928812213e+02   1.8549295293e+01     5.910052     4.772522  42.59   0.01687613    1.272    0.214
        28 -10.6346    111.1891    121.8592   1.0143583557e+02   3.6046114089e+01    0.3412127    0.3080598  48.16 0.0007262179    1.142    0.125
        29  -9.8056    141.1947    121.7072   9.3521971227e+01   2.9869328804e+01    0.4163106    0.2708273  84.22  0.001510311    2.766    0.639
        30 -10.2800      1.2721    203.1553   1.4298248991e+02   3.0965923783e+01    0.2586199   0.09084074 -77.91 0.0004752027    2.361    0.577
        31  -7.8794    242.6477    120.7391   7.3658980567e+01   8.6146821688e+00     0.123452    0.1054856  -0.20 0.0002960851    1.613    0.380
        32  -9.7780    115.1817    116.8806   9.9077689588e+01   3.6387439069e+01    0.2255747    0.2081017 -84.33 0.0003568044    1.170    0.146
        33 -10.0602    248.6755    180.7288   8.4715820941e+01  -3.4006078009e+00    0.3593886    0.2554856 -67.71  0.001819007    2.164    0.538
        34 -10.3045    134.7255    113.1981   9.2978236613e+01   3.3123887246e+01    0.6863679    0.1375506 -43.05   0.00163508    5.220    0.808
        35  -9.3881    168.1472    113.7518   8.5327075258e+01   2.5592834074e+01    0.4019259    0.2794698 -85.78  0.001691474    2.052    0.513
        36  -9.9847    221.3575    176.0415   8.8605276112e+01   1.9387113013e+00    0.3839485    0.1931729 -53.69  0.001572729    2.330    0.571
        37  -9.9316      1.5479    199.5195   1.4264829635e+02   3.1773824875e+01    0.4567875    0.1145527 -65.98  0.001880736    2.955    0.662
        38  -9.8110     33.0812    104.4786   1.2146898444e+02   5.1670500196e+01     0.412244    0.2173598   3.86  0.001831349    2.788    0.641
        39  -9.1563    165.9456    233.3322   1.1072753123e+02   3.9629427030e-01    0.1919136    0.1633299  28.25 0.0004871138    1.084    0.078
        40  -8.7003     18.5908    103.3309   1.2604307090e+02   5.3191191291e+01    0.1977522    0.1515558   2.40 0.0005188725    1.508    0.337
        41  -8.8936    167.9674     98.4888   8.1569753371e+01   2.8676652262e+01    0.2472908    0.2076011 -26.21 0.0003542654    1.370    0.270
        42  -9.6456     98.6103     97.2464   9.8572537668e+01   4.3859600037e+01    0.3262664    0.2508772  32.47 0.0007155715    1.335    0.251
        43  -8.2229    250.6924    199.1246   8.7890819861e+01  -6.8933675686e+00    0.1791112   0.09710477 -32.19            0    1.653    0.395
        44 -10.8044    237.0776    175.7056   8.5708827536e+01  -6.5428430683e-01    0.3187531    0.2907294 -52.09 0.0009963531    1.203    0.169
        45  -8.8696     10.8467    230.3236   1.4307707813e+02   2.3991143343e+01    0.1803584     0.120084  85.17 0.0002564723    1.187    0.158
        46  -8.8930     50.9965     92.6910   1.1260753164e+02   5.2295281996e+01    0.1838045    0.1664132  -4.88 0.0005040446    1.115    0.103
        47  -9.5757    223.9053     91.5977   7.0277300675e+01   1.7545549714e+01    0.2343944     0.193437 -52.46 0.0004236768    1.115    0.104
        48  -8.2219    108.9944     89.7779   9.3489139474e+01   4.3347387895e+01    0.1890081    0.1182983  43.55 0.0003191526    1.588    0.370
        49  -9.2776    108.4937     83.5270   9.1835112315e+01   4.4648002820e+01    0.2943003    0.1416122 -41.15 0.0008989655    2.109    0.526
        50  -9.9602    237.6414    171.1114   8.4695858513e+01   1.0555928729e-01    0.2299253    0.2038304  30.83 0.0003795747    1.271    0.213
        51  -9.3444    104.7329     81.0062   9.2159191061e+01   4.5871610663e+01    0.2712964    0.1811969  28.78  0.001027644    1.657    0.397
        52  -9.3526    110.8276     78.8080   8.9811800895e+01   4.5043062167e+01     0.297753    0.2343194 -71.81  0.001497183    1.682    0.406
        53  -7.9595    168.0097     71.9876   7.4828799339e+01   3.3412155818e+01     0.167918     0.156349 -83.52 0.0009648874    1.029    0.029
        54 -12.0262    149.1076     67.5555   7.7383568596e+01   3.8523016084e+01     1.020315    0.6712989  48.43   0.00170895    1.478    0.323
        55  -8.7749    189.3813    241.8640   1.0727853696e+02  -4.9588956273e+00    0.2264592    0.1631218  39.64 0.0005091043    1.368    0.269
        56 -11.4456    164.5462     45.1348   6.8551000259e+01   3.8227389480e+01    0.5007197    0.4381417 -74.88 0.0007796014    1.132    0.116
        57 -10.2876    124.5513     57.2711   7.9906646588e+01   4.5664960895e+01    0.2473263    0.2223717  46.83 0.0002454078    1.031    0.030
        58  -9.1961    220.2252     43.2009   6.0542236198e+01   2.5909530341e+01    0.2785335    0.1965133 -37.24  0.001186093    1.611    0.379
        59  -8.2099    194.0215     35.5024   6.1970161164e+01   3.2705281372e+01    0.1863151    0.1119032  69.92 -0.0002630726    1.488    0.328
        60  -8.6965    137.6765    246.0046   1.1870200260e+02   2.6952516010e+00    0.3038379    0.1816976 -66.12  0.001377078    2.188    0.543
        61  -8.0996     14.0462    246.7467   1.4359223572e+02   2.0178063533e+01    0.1820299    0.1105408  85.63 0.0005519255    1.347    0.258
        62 -11.3701    177.9068    219.0875   1.0572910865e+02   1.0983874902e+00    0.5167766    0.4147905 -80.96  0.002711196    1.781    0.438
