#   1 NUMBER                 Running object number                                     
#   2 MAG_AUTO               Kron-like elliptical aperture magnitude                    [mag]
#   3 X_IMAGE                Object position along x                                    [pixel]
#   4 Y_IMAGE                Object position along y                                    [pixel]
#   5 X_WORLD                Barycenter position along world x axis                     [deg]
#   6 Y_WORLD                Barycenter position along world y axis                     [deg]
#   7 A_WORLD                Profile RMS along major axis (world units)                 [deg]
#   8 B_WORLD                Profile RMS along minor axis (world units)                 [deg]
#   9 THETA_WORLD            Position angle (CCW/world-x)                               [deg]
#  10 FWHM_WORLD             FWHM assuming a gaussian core                              [deg]
#  11 ELONGATION             A_IMAGE/B_IMAGE                                           
#  12 ELLIPTICITY            1 - B_IMAGE/A_IMAGE                                       
         1 -14.7481    198.4725    128.3243   1.8553497544e+01   1.7848996994e+01     2.544871     1.854372  20.53   0.01126694    1.694    0.410
         2 -15.1641    216.9572    138.7417   1.7769637431e+01   1.3171239299e+01     2.042491    0.7701777 -50.71  0.007365641    4.013    0.751
         3 -17.1939    246.4925    132.0777   1.2395126093e+01   9.9434136473e+00     8.598598     1.623402 -35.53   0.02863382    4.547    0.780
         4 -15.8602    238.7933     94.3424   5.8203512894e+00   1.6503294421e+01     2.690557     1.465928 -55.01   0.01456175    1.984    0.496
         5 -16.1900    239.8754    124.1905   1.1701007365e+01   1.2007529262e+01     2.387653     1.393517 -63.67   0.01140583    3.264    0.694
         6  -9.9332    201.6968     15.2677   3.5136104788e+02   3.3810559354e+01    0.3245758    0.2386777  43.40  0.001977443    1.944    0.486
         7  -9.2074    175.2011      2.5991   3.4989488326e+02   4.0938979972e+01    0.1765657    0.1020935  69.36 0.0009591145    1.717    0.418
         8 -10.3964    183.4283      2.9960   3.4945763759e+02   3.9035639936e+01    0.4897892    0.2030824 -28.98  0.002352296    2.301    0.565
         9  -8.7641      2.9703      2.8263   4.7032828652e+01   7.9456539074e+01    0.1908811     0.127571  44.41  0.001088927    1.987    0.497
        10  -9.4057    159.5851      2.2469   3.5095145591e+02   4.4634417630e+01    0.2484286    0.1335005 -83.92  0.001245612    1.759    0.432
        11  -8.5317    244.9598    234.7604   2.9870891566e+01  -3.4202802332e+00    0.1667529    0.1121325 -19.04 0.0005781871    1.179    0.152
        12 -14.8430    239.3844    161.1752   1.8746363031e+01   6.7018134084e+00    0.8325455    0.3751591 -44.73  0.004293556    2.260    0.557
        13 -15.8064    230.3158    112.0855   1.0480800976e+01   1.5242430241e+01     1.467914     0.977719 -45.19  0.008942436    1.311    0.237
        14 -15.9481    233.1271    142.6655   1.6181521065e+01   1.0228127055e+01     1.336879    0.5911067 -33.37  0.006782253    1.883    0.469
        15 -15.6354    231.1813    130.9893   1.4178803866e+01   1.2258158738e+01    0.9186164    0.7245108   0.24  0.006079068    1.427    0.299
        16 -16.4786    246.8381    152.4671   1.6146377087e+01   7.0059068525e+00     2.610474    0.5444931 -39.22  0.009840855    3.779    0.735
        17  -8.0255    193.2180    232.1310   3.7992169690e+01   2.0228516864e+00    0.2855781    0.1238868  13.35  0.001265632    2.934    0.659
        18  -7.3779    167.6318    226.6877   4.2044125100e+01   5.7341918969e+00    0.1277899   0.07861342  -3.93 0.0007036936    1.769    0.435
        19  -8.0763    174.7071    224.0174   4.0280970403e+01   5.2985180624e+00    0.1645422    0.1324381 -12.75 0.0004482889    1.128    0.114
        20  -7.5362    134.5618    224.4754   4.8600901671e+01   1.0167229627e+01    0.1247018    0.1049621  16.28 0.0001544957    1.018    0.017
        21  -8.9138    169.3765    215.5854   4.0086179523e+01   7.2570006687e+00    0.3400212     0.263007 -55.74  0.002129973    1.800    0.445
        22  -8.2427    202.3863    230.2029   3.6087541504e+01   1.2966573967e+00    0.1817327    0.1302763 -34.40  0.001273172    1.500    0.333
        23  -8.1349    178.6819    209.6775   3.7358124187e+01   7.0294449007e+00    0.2173816    0.1633038  21.93  0.001398342    1.232    0.188
        24  -7.8354    175.3119    216.3270   3.9029634107e+01   6.4054768870e+00    0.1751466    0.1118825 -31.13 0.0004476085    1.517    0.341
        25  -8.8895    177.9652    213.7022   3.8117375190e+01   6.4877228840e+00    0.2801647    0.2310241  39.89  0.001384986    1.546    0.353
        26  -8.1720    106.4734    216.0387   5.3901896897e+01   1.5311041912e+01    0.1943575    0.1560251  28.88 0.0005464309    1.074    0.069
        27  -8.3065    184.9324    214.0956   3.6848364308e+01   5.5765242308e+00    0.2303316    0.2086877  34.36  0.001632023    1.497    0.332
        28  -8.2602    186.3841    209.1490   3.5806749781e+01   6.1547632668e+00      0.19823    0.1434829 -40.18  0.001074941    1.496    0.332
        29  -8.2929    172.0925    206.6690   3.8180258172e+01   8.3512183182e+00    0.1851478    0.1418736  36.19 0.0008192043    1.444    0.308
        30  -7.6987    126.5982    206.7370   4.7981127581e+01   1.4429119957e+01    0.1638865    0.1298907 -69.45 0.0006808664    1.642    0.391
        31  -8.8784    167.4948    201.5555   3.8294899983e+01   9.8054730765e+00    0.3631014    0.1180157 -45.75  0.001464308    3.141    0.682
        32 -14.5579    221.0356    150.4336   1.9438441894e+01   1.0738595274e+01     1.297943    0.7592424   4.66  0.006183389    2.830    0.647
        33  -9.0414    160.8898    200.9835   3.9564059995e+01   1.0793036208e+01    0.2846814    0.2249639  -6.45 0.0005258868    1.184    0.155
        34  -7.8978    150.6459    199.6802   4.1536925426e+01   1.2429596674e+01    0.1382675   0.09220848  -6.72 0.0001248075    1.751    0.429
        35  -8.8560    177.0423    197.2521   3.5686483103e+01   9.2515393791e+00    0.3275298    0.2320842  -1.39  0.001935324    1.401    0.286
        36  -8.8504    172.1534    196.1961   3.6482927084e+01   1.0085772731e+01    0.2269861    0.2024928 -24.00 0.0006503735    1.187    0.158
        37 -10.2395    172.7396    191.0741   3.5509176236e+01   1.0879255230e+01    0.2385267    0.2165567 -26.90 0.0003250773    1.208    0.172
        38 -10.1393    167.8100    185.0909   3.5485911972e+01   1.2623231310e+01    0.4794836    0.2300887 -51.23 0.0002775166    2.448    0.591
        39  -8.2585    169.5208    178.5065   3.3972180106e+01   1.3553591578e+01    0.2438721    0.1513232 -42.79 0.0007575101    1.587    0.370
        40  -7.6572    145.4794    198.5344   4.2488721831e+01   1.3359226728e+01     0.131908    0.1150372   6.70  0.000162838    1.013    0.013
        41  -7.9810    141.1685    194.8177   4.2867739855e+01   1.4666391108e+01    0.2047082    0.1462148  -9.49 0.0003572989    1.581    0.368
        42  -7.3468      3.3936    196.3049   7.8388469367e+01   3.0854796313e+01    0.1222581    0.0901436 -36.64 0.0001055018    1.819    0.450
        43  -9.0655    154.2156    192.1366   3.9549856229e+01   1.3301244803e+01    0.2207552    0.1967028 -26.16 0.0003615134    1.144    0.126
        44  -8.0226    149.4652    186.5059   3.9651589971e+01   1.5041359043e+01    0.1335706    0.1203121   3.50 0.0001478427    1.015    0.015
        45  -7.7296    144.5317    231.5295   4.7394276753e+01   7.7551807743e+00    0.1222557   0.09958252  12.95 0.0001621049    1.002    0.002
        46  -7.8935    158.3604    181.6578   3.6875056571e+01   1.4634559310e+01     0.130096    0.1069557  70.82 0.0007033718    1.834    0.455
        47 -15.2995    231.9743    176.2910   2.2519672638e+01   5.4523665660e+00     2.205786    0.8944871  42.99   0.01088698    3.273    0.694
        48 -15.7006    216.9829    166.4970   2.3095033381e+01   8.8129846227e+00     2.998479     1.715876  -5.15   0.01469246    2.534    0.605
        49  -7.9773    142.9859    169.2204   3.8079877023e+01   1.9442265982e+01    0.2568325    0.1809256 -60.77   0.00111123    1.722    0.419
        50  -8.3414    158.2148    169.1446   3.4642540773e+01   1.7028823868e+01    0.2077396    0.1729722  -9.00 0.0004775851    1.182    0.154
        51 -14.6652    218.3100    114.1388   1.2506672210e+01   1.6857838089e+01     1.465288     1.045172 -64.00  0.005684799    1.783    0.439
        52 -14.7437    224.0446    121.8214   1.3312241670e+01   1.4738968789e+01    0.8639584    0.6075434  42.38  0.005320942    1.721    0.419
        53  -9.8501    162.9291    150.2901   2.9931852762e+01   1.9912542990e+01     0.577211    0.3631797 -68.56  0.001628268    2.824    0.646
        54  -8.7352    158.2262    158.4010   3.2576945164e+01   1.9116989413e+01    0.2564542    0.2300892 -69.10 0.0004664243    1.366    0.268
        55  -9.0889    161.6789    156.9184   3.1537665611e+01   1.8833152905e+01    0.2797378    0.2658219  19.53  0.001216153    1.116    0.104
        56  -9.3704    153.0987    156.1790   3.3268441597e+01   2.0417112962e+01    0.2412515    0.1956993 -39.09 0.0006407155    1.194    0.163
        57 -10.3626    156.0883    150.9288   3.1543417643e+01   2.0960079619e+01    0.3216678    0.2400484 -52.21            0    1.417    0.294
        58  -9.7971    149.0937    151.0037   3.3130127063e+01   2.2154956901e+01    0.4316038    0.2471284  52.18  0.001105454    2.186    0.542
        59  -9.5346    133.0892    147.2668   3.6184910957e+01   2.5762918888e+01    0.3610025    0.2087246 -46.47 0.0005931783    1.710    0.415
        60  -8.0895    142.9385    147.4945   3.3839244603e+01   2.3965792298e+01    0.2131559    0.1415556  36.93 0.0005986792    1.526    0.345
        61  -9.7838    155.1642    140.3348   2.9519389599e+01   2.3256436077e+01    0.5062451    0.1915324 -45.67  0.001862269    2.540    0.606
        62  -9.3613    156.5900    134.7415   2.7981985700e+01   2.4125826125e+01    0.2727864    0.2429901 -42.00  0.001497775    1.082    0.076
        63 -10.5556    166.4434    135.5425   2.6066647531e+01   2.2165254930e+01      0.74427    0.3072197 -46.05  0.002913261    2.328    0.570
        64  -7.8234    159.6164    140.2323   2.8525151782e+01   2.2474727270e+01    0.2012129    0.1263787 -34.96 0.0009323793    1.585    0.369
        65  -8.9637    138.4337    136.2747   3.2516694534e+01   2.7182203025e+01    0.2891645    0.1376647 -43.00  0.001130965    2.082    0.520
        66  -7.8649    104.5091    131.5059   4.0570066714e+01   3.4568310829e+01    0.1511999    0.1506122  79.64 8.685727e-05    1.007    0.007
        67  -8.5253    157.3067    119.4620   2.4318484762e+01   2.7055648031e+01     0.259697    0.1764286 -40.74 0.0007746667    1.391    0.281
        68 -11.2020    164.0655    123.9926   2.3960184761e+01   2.4854388917e+01     0.693975    0.5093744 -20.46  0.001177347    1.567    0.362
        69  -9.9327    154.2703    127.7471   2.6913755804e+01   2.5976757834e+01    0.5497882    0.3005341  27.27  0.002155245    2.601    0.616
        70 -10.7479    151.1387    124.3419   2.6821176755e+01   2.7274709763e+01    0.9975162     0.391134 -31.36  0.002763156    4.738    0.789
        71  -9.8312    128.4544    127.4343   3.3021285744e+01   3.1020456521e+01    0.3375176    0.2837556 -37.36  0.001728097    1.196    0.164
        72  -8.1465    143.3032    125.3002   2.8849073081e+01   2.8600647926e+01    0.1477373    0.1164178  -6.62 0.0007003752    1.588    0.370
        73  -7.7636    137.1682    124.8375   3.0217099725e+01   2.9897736530e+01    0.2058008    0.1763808 -12.82 0.0007242128    1.311    0.237
        74 -15.0095    205.7128    147.6779   2.1338908250e+01   1.3429367769e+01     2.873796      1.59769  22.63   0.01254242    2.520    0.603
        75  -9.6512    181.6535    118.5514   1.9309554388e+01   2.2559818390e+01    0.2771443    0.2137581 -16.87 0.0007874529    1.448    0.310
        76  -8.9799    133.2522    117.3807   2.9395384501e+01   3.2293557014e+01    0.4615344    0.1963169 -34.38  0.001459838    3.309    0.698
        77  -8.1471    164.8055    107.7752   1.9945717064e+01   2.7835708001e+01    0.2578557    0.1757977 -65.59 0.0007166459    1.857    0.461
        78 -10.1429    163.3455    114.6663   2.1912666699e+01   2.6806338580e+01    0.6122352    0.4020088  10.47  0.002509114    2.695    0.629
        79  -8.6382    167.4167    110.7571   2.0158190325e+01   2.6746409958e+01    0.2586154    0.2224553 -31.40  0.000929112    1.131    0.116
        80  -9.8049    146.4435    117.0281   2.6140896145e+01   2.9710278158e+01    0.2807636    0.2720409 -30.75 0.0006779098    1.028    0.028
        81 -10.3200    147.6002    112.2142   2.4692075165e+01   3.0466421944e+01    0.3928119    0.2768202 -20.59  0.001783761    1.813    0.448
        82  -9.8389    154.1811    107.1262   2.1970217140e+01   3.0135330692e+01    0.3812971    0.2611459 -19.40  0.001141619    1.939    0.484
        83  -9.5641    176.8635    111.0703   1.8443450106e+01   2.4831659866e+01    0.2689959    0.2401801 -12.74 0.0003118838    1.201    0.167
        84  -9.1437    172.7182    107.0824   1.8255715736e+01   2.6377617927e+01    0.3833998    0.2786643  72.24  0.001225822    1.783    0.439
        85 -10.1841    159.2418    111.1227   2.1896732869e+01   2.8315869983e+01    0.6479632    0.3045951  30.81  0.002113797    3.885    0.743
        86  -9.1129    174.3520    102.6367   1.6873233387e+01   2.6863422340e+01    0.2960688    0.2032713 -49.78  0.001057668    1.387    0.279
        87  -8.7596    159.4637    102.0210   1.9578327067e+01   3.0030289251e+01    0.3216704    0.1781447 -41.66  0.001016852    1.685    0.407
        88  -8.4207    160.6927     98.0699   1.8321781670e+01   3.0522340945e+01    0.2677518    0.1890285 -51.28 0.0007909117    1.373    0.271
        89  -8.2222    150.6974    100.3238   2.0975510493e+01   3.2206600910e+01    0.2385048    0.2000507 -67.15 0.0005800709    1.266    0.210
        90  -9.0602    152.1430     97.1903   1.9845380627e+01   3.2509232885e+01    0.2770101    0.2383658 -26.76 0.0002553797    1.235    0.190
        91  -8.9373    187.8461     99.3286   1.3756491000e+01   2.4773233741e+01    0.3079535    0.2443271 -45.52 0.0009585088    1.121    0.108
        92 -11.9597    180.0245     95.8293   1.4207343282e+01   2.6931180496e+01    0.4487019    0.3288724 -47.66  0.002403041    1.243    0.195
        93 -10.7618    187.7595     92.9897   1.2248988632e+01   2.5867964659e+01    0.3600414    0.2751278 -49.45 0.0003162233    1.188    0.158
        94  -9.0471    170.1521     96.2334   1.6048894458e+01   2.8881897744e+01    0.3758246     0.289422 -40.94  0.001082312    1.193    0.162
        95  -7.4913    142.2726     94.3385   2.1244936712e+01   3.5208391832e+01    0.1472731    0.1193987  -6.24 0.0002713126    1.606    0.377
        96  -9.8569    169.1192     90.8758   1.4871739723e+01   3.0061777831e+01    0.2878656     0.246041  78.38 0.0002603047    1.288    0.224
        97  -9.4278    157.5532     89.0634   1.6580695477e+01   3.2876317720e+01    0.3311465    0.3003657 -49.91  0.001524449    1.029    0.029
        98  -8.1019    142.5397     87.8557   1.9394465238e+01   3.6421699424e+01    0.2172405    0.2035902  64.17 0.0007727977    1.101    0.092
        99  -9.5894    165.5207     90.0120   1.5307246108e+01   3.0982057576e+01    0.4042098    0.2191991 -32.84 0.0001777535    1.929    0.482
       100  -8.3015    168.9258     83.3885   1.2958148439e+01   3.1422634338e+01    0.3114627    0.1802034  47.59  0.000873803    1.935    0.483
       101  -8.9741    184.2974     81.9924   1.0078778631e+01   2.8403592829e+01    0.3639512    0.2690716 -12.06 0.0004705353    1.803    0.445
       102  -8.2853    184.2989     78.3321   9.1571487432e+00   2.9000997179e+01    0.2720531    0.1930879  52.91  0.001363902    1.583    0.368
       103  -9.6578    183.4911     74.6520   8.3429916057e+00   2.9763507218e+01    0.2792063    0.2519801  40.85 0.0004843723    1.325    0.245
       104  -8.0428    157.9987     80.9557   1.4297102930e+01   3.4249753397e+01     0.220226    0.1805382   8.01 0.0005882031    1.649    0.394
       105  -7.9417    129.8086     78.6388   1.9664597317e+01   4.1097042438e+01    0.2093904    0.1890246 -38.84 0.0006409419    1.135    0.119
       106  -8.6524    150.1647     76.8595   1.4675361663e+01   3.6749301367e+01     0.277259    0.2048817  51.54 0.0008339043    1.429    0.300
       107  -8.0516    197.1062     76.1209   6.7950460346e+00   2.6726975776e+01    0.1914222    0.1643006 -28.16 0.0003106308    1.228    0.186
       108  -7.9641    201.5506     74.1196   5.7336025512e+00   2.6147360058e+01     0.196762    0.1133287 -37.17 0.0005358706    1.507    0.336
       109  -9.5035    189.7257     73.6949   7.2055746276e+00   2.8609792316e+01    0.2166084    0.1882831 -44.75 0.0002033315    1.064    0.060
       110 -10.3834    193.1967     72.1403   6.3438557590e+00   2.8134797034e+01    0.2749679    0.2469152 -13.64 0.0005083056    1.323    0.244
       111  -8.0522    206.3613     72.3926   4.7265206103e+00   2.5461075558e+01    0.2219911    0.1045608 -37.99 0.0007267047    1.775    0.437
       112  -8.1439    179.9265     72.0563   8.2052062749e+00   3.0938543244e+01    0.1969166    0.1659806   8.33 0.0005618328    1.594    0.373
       113  -7.9889    218.5343     71.5182   3.1237434430e+00   2.3273587476e+01    0.2045064    0.1378319 -35.65 0.0005326131    1.287    0.223
       114  -8.8789    214.5371     69.7420   3.1607789930e+00   2.4277262552e+01    0.2583916    0.2004012  47.36 0.0005489178    1.633    0.388
       115  -7.6142    143.0192     69.0532   1.3837071987e+01   3.9788068373e+01    0.1740596    0.1607949 -61.62            0    1.023    0.023
       116  -8.6766    200.6005     66.7241   4.0707383931e+00   2.7442698635e+01    0.1988894     0.187678   6.53 0.0004581597    1.337    0.252
       117  -7.8932    204.0735     64.0335   3.0098865399e+00   2.7137201827e+01    0.2084887    0.1282027 -57.90 0.0009836379    1.574    0.365
       118  -9.8329    221.0142     60.0790   2.8429657205e-01   2.4409333565e+01    0.2806278    0.2499311 -60.29  0.001433836    1.132    0.117
       119  -7.8238    183.9535     60.1806   4.5427161090e+00   3.1900518361e+01    0.1639555    0.1516671  42.90 0.0003403481    1.321    0.243
       120  -7.6488    215.3983     55.8496   3.5987092528e+02   2.6053053543e+01    0.1621498     0.108003 -26.97 0.0003785034    1.573    0.364
       121  -7.6107    184.9872     55.5348   3.1964640356e+00   3.2357045845e+01    0.1709806    0.1290576  70.95 0.0001634772    1.406    0.289
       122  -9.1116    219.2483     50.9228   3.5837506148e+02   2.5969314317e+01    0.3552658     0.191656  54.27  0.001902133    2.312    0.567
       123  -7.7513    207.7320     52.3940   3.5982736103e+02   2.8031911917e+01    0.1414419     0.118227  67.24 0.0002500168    1.384    0.277
       124  -8.8217    213.1085     50.1473   3.5876834617e+02   2.7263893314e+01    0.1999831    0.1447043 -43.59 0.0003614058    1.145    0.127
       125 -15.5562    249.0153    112.0978   8.2425893816e+00   1.2430770890e+01     1.584981    0.3826845 -33.32  0.005709153    3.904    0.744
       126  -7.0609    172.3342    230.3234   4.1636416219e+01   4.6323248923e+00    0.1242096    0.0765361  -5.27 0.0005667613    1.709    0.415
       127  -7.1833     66.6956    231.6981   6.4868971597e+01   1.7059586015e+01    0.1164248   0.09169813 -11.90 0.0001962114    1.594    0.373
       128 -13.7995    234.5429    223.6404   2.9817604938e+01  -1.1375072406e+00     1.710919     1.062969  12.87  0.009743555    1.430    0.300
       129  -7.5359    196.9710    247.2852   3.9422274197e+01  -3.7008923586e-01    0.1253826   0.07742262  19.39 0.0003350327    1.339    0.253
       130 -15.0849    244.7409    170.5605   1.9661867422e+01   4.7397254968e+00     2.100541    0.6080814  39.46  0.009481521    4.152    0.759
