#   1 NUMBER                 Running object number                                     
#   2 MAG_AUTO               Kron-like elliptical aperture magnitude                    [mag]
#   3 X_IMAGE                Object position along x                                    [pixel]
#   4 Y_IMAGE                Object position along y                                    [pixel]
#   5 X_WORLD                Barycenter position along world x axis                     [deg]
#   6 Y_WORLD                Barycenter position along world y axis                     [deg]
#   7 A_WORLD                Profile RMS along major axis (world units)                 [deg]
#   8 B_WORLD                Profile RMS along minor axis (world units)                 [deg]
#   9 THETA_WORLD            Position angle (CCW/world-x)                               [deg]
#  10 FWHM_WORLD             FWHM assuming a gaussian core                              [deg]
#  11 ELONGATION             A_IMAGE/B_IMAGE                                           
#  12 ELLIPTICITY            1 - B_IMAGE/A_IMAGE                                       
         1 -14.7890     10.6811    157.3168   1.4566887327e+02   4.1290641536e+01     5.431003     1.551776 -83.87    0.0201578    3.563    0.719
         2 -13.1763    192.1991     28.6652   7.0517888918e+01   3.3890339096e+01     1.343898     1.273457  68.73  0.006697236    1.086    0.080
         3 -13.4240    206.4616      9.6881   6.3490514706e+01   3.2387053061e+01     1.489671     1.048864  39.80  0.007816735    1.734    0.423
         4 -11.5900      2.4123      3.2358   1.1778372221e+02   7.4306407314e+01    0.4344297    0.3024651 -62.67  0.002920372    2.109    0.526
         5  -8.9026     33.5207      8.9415   1.0415891775e+02   7.0486674067e+01    0.1727892   0.09596203 -33.37  0.000406052    1.536    0.349
         6 -11.8618      2.2781     10.7251   1.2128861512e+02   7.3089767375e+01     1.183057   0.09473538 -52.88  0.003482284    7.170    0.861
         7  -9.7104      1.5216    241.5086   1.5185078363e+02   2.5662526688e+01    0.1716277   0.07302112 -80.46  0.001115706    2.037    0.509
         8 -10.9747    140.1543    250.0826   1.2947384561e+02   6.2108527035e+00     0.408152    0.1171173  44.93  0.001781913    2.655    0.623
         9 -10.7893    121.6786    249.7852   1.3264668149e+02   9.0962826114e+00    0.3596287    0.1300621  49.01  0.001604491    2.187    0.543
        10 -11.0369    109.5863    249.5508   1.3471075153e+02   1.0945108792e+01    0.2879024    0.2116608  79.33  0.002034811    1.390    0.281
        11 -10.9040     99.2507    248.9960   1.3643357927e+02   1.2544248752e+01    0.2987243    0.2234861  52.26  0.002164511    1.114    0.102
        12 -10.1619     28.9798    249.7463   1.4800438477e+02   2.1436953578e+01    0.2634209    0.1411967  52.40  0.001699117    1.389    0.280
        13  -9.9474     33.5009    247.9955   1.4721051938e+02   2.1224300992e+01    0.2032892    0.1228161 -61.59  0.001399404    2.240    0.554
        14 -10.3800     34.8320    243.8511   1.4677965931e+02   2.1775282120e+01    0.2593201    0.1928966  45.61  0.001298454    1.510    0.338
        15  -9.9892      2.0085    249.5085   1.5206385111e+02   2.4273369655e+01    0.2970043    0.1369946 -83.74  0.002113376    1.862    0.463
        16 -10.0798      5.5106    248.4624   1.5150964234e+02   2.4104921806e+01    0.3104395   0.09710251  55.71  0.001887312    2.110    0.526
        17  -9.6767     11.6699    240.0178   1.5024186042e+02   2.4920018238e+01    0.2939585    0.1175859  66.93  0.001625081    1.915    0.478
        18  -9.3533      5.8763    240.9110   1.5116831961e+02   2.5342850006e+01    0.1352013    0.1038047  77.98 0.0004214324    1.270    0.212
        19  -8.9668     71.3337    239.2262   1.4041038722e+02   1.8054783372e+01      0.18816    0.1219137  83.89  0.001272817    1.438    0.305
        20  -9.5982    194.6154    237.7726   1.1836777948e+02  -7.9590194408e-01    0.1404478    0.1137355 -50.57 0.0009557745    1.668    0.400
        21  -9.2723    183.4340    238.4963   1.2042839656e+02   9.1145580145e-01    0.1190168    0.0951882  34.80 0.0008068508    1.022    0.021
        22  -8.7511     24.5449    237.9241   1.4811677485e+02   2.3938941738e+01    0.1418109   0.07964557 -89.81 0.0004263734    1.501    0.334
        23 -10.7070    233.1293    235.9853   1.1154750176e+02  -6.5692908600e+00    0.2797543    0.2062165 -68.36  0.001507301    3.612    0.723
        24 -11.9805     56.4959    226.3404   1.4201234503e+02   2.2273814945e+01     1.617899    0.9378559 -45.52  0.008082973    3.390    0.705
        25 -14.1081      9.6779    206.1789   1.4898090428e+02   3.1296739814e+01     9.570202          nan  41.74   0.01425896    5.574    0.821
        26  -8.8603     94.3637    216.8153   1.3418498493e+02   1.8793354655e+01    0.1850334    0.1283515  79.62 0.0006213904    1.409    0.290
        27  -9.2185      7.8295    226.3692   1.5025936195e+02   2.7706543855e+01    0.1623754   0.09717057  35.07 0.0007020818    2.050    0.512
        28 -12.3835     39.0039    233.0564   1.4547775652e+02   2.3180070506e+01    0.2604226     0.209124 -87.29 0.0007754111    1.350    0.259
        29  -8.2994    152.4073    212.7882   1.2248848681e+02   9.9965173965e+00    0.1422156    0.1238178 -32.88 0.0002856394    1.410    0.291
        30 -11.5010     19.5242    199.3329   1.4682316715e+02   3.1676039069e+01    0.3357726    0.1536028  57.40  0.001009122    1.789    0.441
        31 -14.0887     44.7616    225.1707   1.4398783698e+02   2.3930831235e+01     1.596093     1.454733  49.38  0.006021369    1.545    0.353
        32 -11.2088     64.5675    198.5697   1.3811888905e+02   2.6581387366e+01    0.3047061    0.2260316 -49.97  0.001099205    1.850    0.459
        33  -9.4855    191.7003    192.7146   1.1165581008e+02   6.1989749621e+00    0.4697261    0.2523239 -64.68  0.001541178    5.381    0.814
        34  -8.5463     50.8602    196.8263   1.4066637197e+02   2.8690096825e+01    0.1623628    0.1054975  65.50 0.0003933411    1.278    0.217
        35  -9.9195    150.2323    229.6063   1.2520975258e+02   7.6566993978e+00    0.1801997   0.09895594  36.46 0.0009559758    1.682    0.405
        36 -11.4746     70.2467    190.6540   1.3615467026e+02   2.7438114666e+01    0.2510422    0.2170908 -76.30 0.0004298418    1.264    0.209
        37 -12.9680     66.8369    175.8937   1.3520900323e+02   3.1046684967e+01    0.4585228    0.2645499 -48.51  0.001461116    2.241    0.554
        38  -8.6480    101.9830    178.3386   1.2782435347e+02   2.5242072959e+01    0.1852465    0.1491674  62.81 0.0004690383    1.113    0.101
        39 -10.5616     79.7536    177.8064   1.3262175001e+02   2.8811069332e+01    0.2215215    0.1967192  80.87 0.0003594452    1.106    0.096
        40  -8.3641    250.6817    171.7105   9.7101253886e+01  -1.3084457478e+00    0.1313942   0.08871561   8.74 0.0002067281    1.597    0.374
        41 -11.6147     87.4278    168.0868   1.2958718905e+02   2.9778895077e+01    0.6466032    0.5818588  49.34  0.004046487    1.235    0.190
        42 -10.7236      4.5086    228.5136   1.5088288429e+02   2.7642113336e+01    0.3673878    0.1416975  63.53  0.002251009    1.937    0.484
        43 -10.8265    249.0042    247.9784   1.1082464236e+02  -1.0098748668e+01    0.2664769    0.2182385 -17.35   0.00209797    1.446    0.309
        44  -9.7394     99.2955    152.3946   1.2431101298e+02   3.1376757910e+01    0.2691332    0.2501468 -77.31 0.0007565551    1.105    0.095
        45 -11.8146     87.9470    151.6437   1.2692635305e+02   3.3392523534e+01    0.2780797    0.2471098 -49.18 0.0005828705    1.306    0.234
        46  -9.6890    187.5518    150.9469   1.0418079822e+02   1.4254195223e+01    0.3945097    0.2698678 -76.20   0.00164723    2.507    0.601
        47 -12.2833     67.0730    143.8476   1.3083000804e+02   3.8253314046e+01    0.7352456    0.4700674  72.07  0.003769434    1.721    0.419
        48  -8.8787    102.0749    148.1543   1.2288310779e+02   3.1864825026e+01    0.2057642    0.1878308 -35.58 0.0005459873    1.327    0.247
        49  -8.6169    182.2051    145.4486   1.0405340882e+02   1.6420179552e+01    0.2006425    0.1403022  60.19 0.0005650089    1.612    0.380
        50 -10.0878    141.8093    230.1857   1.2683390252e+02   8.9555805801e+00    0.1638535    0.1342223  29.01 0.0007629204    1.344    0.256
        51  -9.4333    110.2802    137.2096   1.1874152307e+02   3.2899232532e+01    0.3502202    0.2523659 -24.40  0.001603777    2.076    0.518
        52  -9.6588     84.7687    135.2883   1.2486912590e+02   3.7670703181e+01    0.3193941     0.198282  62.06  0.001506546    1.836    0.455
        53 -10.8477     96.4695    134.3907   1.2167807567e+02   3.5976916910e+01    0.4439941     0.246761  45.00  0.001369363    1.833    0.454
        54 -10.6276     58.0963    133.8958   1.3157733240e+02   4.1753066047e+01    0.3371663    0.1723296 -77.13   0.00153094    2.042    0.510
        55  -8.3464    191.9748    144.0059   1.0175253309e+02   1.4592187041e+01    0.1713346    0.1658767  -6.23 0.0004332963    1.021    0.021
        56  -8.9956    160.6541    125.6361   1.0405416656e+02   2.5074849177e+01    0.2943301    0.2130722 -83.12  0.001100808    1.967    0.492
        57  -9.1124    107.1433    124.0121   1.1672704707e+02   3.6487490562e+01    0.2059153    0.1941907 -72.70 0.0003515477    1.032    0.031
        58 -10.9305     53.8370    121.3670   1.3067100760e+02   4.5223884960e+01    0.5885286    0.2050846 -71.95  0.002015465    3.553    0.719
        59 -10.0994    173.5785    222.4283   1.1990886599e+02   4.8167118678e+00    0.3684868    0.2483282  61.24  0.002079405    1.768    0.434
        60 -10.3872    167.8686    113.0548   9.9291852401e+01   2.5977061967e+01    0.3569057    0.2967214 -78.94 0.0006822443    1.409    0.290
        61  -9.1148    203.2187    111.5758   9.1788338810e+01   1.8006591307e+01    0.2049445    0.1408271  40.44 0.0004553519    1.554    0.357
        62  -9.7029     73.5228     86.4257   1.1723011263e+02   5.0698187610e+01    0.2794587    0.2133346  73.12  0.000888617    1.700    0.412
        63  -8.9700    156.5132     76.4393   9.1497280722e+01   3.5773796054e+01    0.1529541    0.1512395 -77.06 0.0001326175    1.007    0.007
        64 -10.1104      2.2441     73.7925   1.3845558276e+02   6.0552807882e+01    0.2202275    0.1144466 -71.86  0.001271752    1.527    0.345
        65 -11.0450     10.1404     64.0616   1.3379213329e+02   6.2228708840e+01    0.2942382    0.2079462  39.79 0.0007054793    1.801    0.445
        66 -10.2955     29.4076     60.9152   1.2574000047e+02   6.1484690271e+01    0.3104404    0.1932405  41.33 0.0008995754    2.026    0.506
        67  -9.9480     82.0659    248.8446   1.3933930673e+02   1.4990737206e+01    0.1843471     0.113321  62.82  0.001236559    1.296    0.229
        68  -9.7681    198.4534    245.4841   1.1879664380e+02  -2.3643891046e+00    0.1162338   0.09049825  31.89 2.686693e-05    1.004    0.004
        69 -11.3035    127.8648    244.2686   1.3098956705e+02   8.9867021262e+00    0.3652808    0.1258766  42.08  0.001703266    2.323    0.569
        70  -9.9270     81.4206    241.6034   1.3886326686e+02   1.6278368911e+01    0.3735917    0.1519861  69.87  0.001561965    3.858    0.741
