#   1 NUMBER                 Running object number                                     
#   2 MAG_AUTO               Kron-like elliptical aperture magnitude                    [mag]
#   3 X_IMAGE                Object position along x                                    [pixel]
#   4 Y_IMAGE                Object position along y                                    [pixel]
#   5 X_WORLD                Barycenter position along world x axis                     [deg]
#   6 Y_WORLD                Barycenter position along world y axis                     [deg]
#   7 A_WORLD                Profile RMS along major axis (world units)                 [deg]
#   8 B_WORLD                Profile RMS along minor axis (world units)                 [deg]
#   9 THETA_WORLD            Position angle (CCW/world-x)                               [deg]
#  10 FWHM_WORLD             FWHM assuming a gaussian core                              [deg]
#  11 ELONGATION             A_IMAGE/B_IMAGE                                           
#  12 ELLIPTICITY            1 - B_IMAGE/A_IMAGE                                       
         1 -13.7390      6.7801     13.0065   1.3531778794e+02   7.5159913178e+01     2.501663    0.7985463 -57.01   0.01134593    2.203    0.546
         2 -14.1806    201.7567     11.4521   6.5175505722e+01   3.2392252963e+01     2.642283     1.511073  30.72   0.01156589    2.403    0.584
         3 -13.3800    191.3923     26.1316   7.0673141793e+01   3.3549913593e+01     1.063942    0.8663934 -17.65  0.005707474    1.291    0.225
         4 -11.0650     81.9725    248.5076   1.3996196940e+02   1.6569664441e+01    0.2694065    0.1432049  43.24  0.001238912    1.304    0.233
         5 -11.0582    248.6451    249.1120   1.1012954681e+02  -4.6559276234e+00     0.258139    0.1490059  31.63  0.001905882    1.547    0.354
         6 -11.5464    124.3447    249.9639   1.3202672920e+02   1.1082488715e+01    0.5600593    0.1136357  35.90  0.002265632    3.279    0.695
         7 -11.9431    109.2361    249.3509   1.3483952618e+02   1.3103793858e+01    0.5911377    0.1605356  43.75  0.002744568    2.704    0.630
         8 -11.6126     98.5216    249.8001   1.3691098466e+02   1.4382961588e+01    0.3633612    0.1726601  40.44  0.002106688    1.442    0.307
         9 -10.1658     66.9990    250.2872   1.4288728086e+02   1.8033934352e+01    0.2262917   0.08698766  42.45  0.001341892    1.697    0.411
        10 -11.1048     46.5240    248.5785   1.4660032449e+02   2.0493401149e+01    0.3852434    0.1495156  52.40  0.001560211    1.887    0.470
        11 -14.6067     33.9760    246.7963   1.4882754905e+02   2.2023717945e+01     10.38607     2.801344  23.77   0.02948123   10.289    0.903
        12  -9.9462    228.5968    228.1178   1.1038172645e+02  -3.6961513810e-01    0.2322695    0.1870795 -57.92  0.001402599    3.511    0.715
        13  -9.5753     33.8098    228.8827   1.4820393724e+02   2.4898182670e+01    0.1482376    0.1185773  48.84 0.0005054531    1.163    0.140
        14  -9.8246    163.2098    249.6165   1.2474010267e+02   5.9978026174e+00    0.1703676   0.07631759  28.47 0.0009563756    1.745    0.427
        15 -10.1401    174.3538    222.6763   1.1934990116e+02   7.7037438244e+00    0.1714518    0.1257658  49.60  0.001106851    1.704    0.413
        16 -15.3247     18.7924    170.3294   1.4900425765e+02   3.7276065393e+01     6.459626      1.82292  80.66   0.02366578    4.477    0.777
        17 -11.6821    126.4742    245.1606   1.3117693677e+02   1.1437946561e+01    0.2984005    0.1480097  43.60  0.001799551    1.577    0.366
        18 -13.8161     50.5182    221.9759   1.4455960334e+02   2.4344773833e+01    0.9920747    0.5233208  49.58  0.004103371    1.407    0.289
        19  -8.9927    152.6746    212.9971   1.2234592297e+02   1.2206712115e+01    0.1590682    0.1326579  24.94 0.0003344248    1.105    0.095
        20 -14.5206      3.1627    232.8706   1.5406808494e+02   2.6988875921e+01     6.688531    0.4520606 -75.09    0.0224755    9.905    0.899
        21  -9.9921    192.0120    193.0172   1.1149059600e+02   8.8867382078e+00    0.3887425    0.2387235 -61.86  0.001526153    5.283    0.811
        22 -11.5049     68.4713    197.3211   1.3903015427e+02   2.6713371480e+01    0.3108259    0.2370581 -40.82  0.001586475    1.842    0.457
        23 -11.5964     73.6104    189.8245   1.3718779934e+02   2.7505177659e+01    0.2448172    0.2277878 -22.41 0.0008301926    1.418    0.295
        24 -13.2625     69.9794    175.0847   1.3665402456e+02   3.0913743812e+01    0.4554971    0.2796586 -42.87  0.001839685    2.261    0.558
        25 -10.9353     82.5214    177.3669   1.3377137680e+02   2.8794539333e+01    0.2320239    0.1996809  46.17  0.000300907    1.047    0.045
        26 -12.0249     89.1813    168.1336   1.3099292647e+02   2.9745522518e+01    0.8328024    0.4768823  48.58   0.00420441    1.577    0.366
        27 -13.1184     66.3382    143.0200   1.3399013544e+02   3.8394997131e+01     2.233884    0.9992005  77.33  0.003263129    4.907    0.796
        28 -12.2051     81.1893    242.8648   1.3973849418e+02   1.7493361166e+01    0.3558241    0.3003029  55.18  0.002776901    1.220    0.181
        29  -9.9679    101.0472    151.9361   1.2555947993e+02   3.1347376889e+01    0.3034332    0.2513491  23.72 0.0008231432    1.254    0.203
        30  -9.2413    104.1145    147.2754   1.2396606755e+02   3.1846238315e+01    0.2852136    0.1869823 -32.48  0.001322824    2.065    0.516
        31 -12.0418     90.0102    151.1915   1.2844505526e+02   3.3231286114e+01    0.2719371    0.2509448   0.15  0.000536503    1.269    0.212
        32 -13.2910     46.2144    232.0266   1.4592369605e+02   2.3124400323e+01    0.7984319    0.2432355  36.41  0.002236984    2.184    0.542
        33  -9.9216    185.8279    239.0266   1.1935161421e+02   4.1633509816e+00    0.1429332     0.124619  60.42 0.0004533996    1.963    0.490
        34  -8.6529    192.3548    144.1978   1.0222447490e+02   1.5916877219e+01    0.1735216    0.1267616 -39.19 0.0003638992    1.539    0.350
        35  -9.2681    242.3714    138.7783   9.2183559165e+01   7.6583603016e+00    0.1745397    0.1035319 -15.60 0.0002919979    1.575    0.365
        36  -9.7567    111.5133    136.9308   1.2007299138e+02   3.2811861366e+01    0.3402745    0.2427987 -18.22   0.00117207    2.004    0.501
        37 -10.4442     99.1253    134.1844   1.2306461181e+02   3.5556627946e+01    0.2668165    0.2227846 -27.18 0.0006061658    1.433    0.302
        38 -14.2426     10.1365    207.3090   1.5219593904e+02   3.0791193710e+01     1.872913    0.8785831  83.58  0.003480018    1.987    0.497
        39 -10.9758     43.5973    127.1908   1.3892122922e+02   4.4765598751e+01    0.2264144    0.1928105 -70.70   0.00100804    1.173    0.148
        40 -14.2824     58.0638    212.7822   1.4244729929e+02   2.5110306350e+01     3.021875    0.3113444  43.49   0.01093702    4.069    0.754
        41  -9.4340    108.1234    123.9497   1.1843775433e+02   3.6278611147e+01    0.2127516    0.1994986  44.16  0.000325403    1.002    0.002
        42 -10.9683    168.2088    113.2593   1.0022043514e+02   2.6067411975e+01    0.3440711    0.3161632 -76.47 0.0008665854    1.355    0.262
        43  -9.2482    203.4696    111.4872   9.2597468353e+01   1.8749096140e+01     0.145808    0.1270922   6.37 0.0001553246    1.058    0.055
        44 -10.6180     43.8746    108.8246   1.3651187538e+02   4.9232891996e+01    0.4295388    0.1011587  39.23  0.001450691    3.614    0.723
        45  -8.4109    184.6600     77.6691   8.7182985471e+01   2.8269719448e+01    0.1616662    0.1132982  19.46 0.0007051651    1.743    0.426
        46 -12.2224    140.5707    248.9954   1.2887611591e+02   9.0777539108e+00    0.4748835    0.2777631  41.87  0.003165199    1.359    0.264
        47 -10.9132     85.4038    247.1722   1.3922022669e+02   1.6354936817e+01    0.2216369    0.1503229  61.72   0.00143908    1.467    0.318
