#   1 NUMBER                 Running object number                                     
#   2 MAG_AUTO               Kron-like elliptical aperture magnitude                    [mag]
#   3 X_IMAGE                Object position along x                                    [pixel]
#   4 Y_IMAGE                Object position along y                                    [pixel]
#   5 X_WORLD                Barycenter position along world x axis                     [deg]
#   6 Y_WORLD                Barycenter position along world y axis                     [deg]
#   7 A_WORLD                Profile RMS along major axis (world units)                 [deg]
#   8 B_WORLD                Profile RMS along minor axis (world units)                 [deg]
#   9 THETA_WORLD            Position angle (CCW/world-x)                               [deg]
#  10 FWHM_WORLD             FWHM assuming a gaussian core                              [deg]
#  11 ELONGATION             A_IMAGE/B_IMAGE                                           
#  12 ELLIPTICITY            1 - B_IMAGE/A_IMAGE                                       
         1 -13.8998    216.1990     27.7205   6.1013327785e+00   2.8183243065e+01     1.047363    0.8628495 -29.76    0.0039471    1.248    0.199
         2 -11.8395    227.2164      9.6597   6.5314794469e-01   2.7909730085e+01    0.2965285    0.2345679 -50.33 0.0007631451    1.045    0.043
         3 -15.2851    120.5871    234.2692   7.0200117245e+01   8.2680411709e+00     6.150419     3.889892 -69.08   0.03598732    2.102    0.524
         4 -13.2800    247.7717    242.4031   4.8178253556e+01  -8.9145810241e+00     1.196648    0.3502966 -30.54  0.005930445    3.219    0.689
         5 -12.0846     89.1680    216.2482   7.4756191144e+01   1.5840041055e+01    0.4416354    0.3223863 -60.32  0.002418609    1.533    0.348
         6 -10.3768     60.9299    219.0798   8.0992597204e+01   1.8891021386e+01    0.1557201    0.1173484  67.82 0.0002966272    1.157    0.135
         7 -10.6022     62.3953    239.3159   8.2194720170e+01   1.4848222285e+01     0.104944   0.08747165  -9.65 0.0007001954    1.859    0.462
         8  -9.0431     71.7309    217.2489   7.8566603669e+01   1.7921295400e+01      0.12115   0.07666174  59.19 0.0003359793    1.441    0.306
         9 -11.5324     67.8639    214.1348   7.9115076693e+01   1.9039955005e+01     0.180085    0.1494145  64.70 0.0002970024    1.037    0.036
        10 -10.8369    152.4961    207.5570   6.0144995063e+01   8.3015146399e+00    0.2270963    0.2079385   5.27 0.0007114506    1.063    0.059
        11  -8.7152    182.3343    201.7248   5.3165710972e+01   4.8071402559e+00    0.1164812    0.1001225  56.37 0.0003762151    1.602    0.376
        12 -10.1442    161.1987    200.2753   5.7192071424e+01   8.2627860728e+00    0.3072397    0.2397296  60.17  0.001736347    1.709    0.415
        13 -10.0512    210.9745    198.8025   4.7248070485e+01   1.1072187148e+00    0.2006517    0.1569948 -16.35 0.0004602484    1.121    0.108
        14  -9.6488     69.4651    195.7561   7.7016571419e+01   2.2759167556e+01    0.3630812    0.1272537 -70.77  0.001420727    3.072    0.674
        15 -10.1052    192.0509    193.1991   4.9787202277e+01   4.7449609521e+00    0.4415401    0.2562502 -66.12  0.001249194    8.175    0.878
        16 -10.2970     54.9770    191.7527   7.9977878587e+01   2.5479091405e+01    0.3093098    0.1649474 -79.37  0.000382362    1.862    0.463
        17  -8.7417     46.4603    185.4079   8.1403986213e+01   2.7951043425e+01     0.132815    0.1063986  69.21 0.0002355954    1.052    0.050
        18 -19.4941     20.7444    142.8578   8.4217902475e+01   4.1228838984e+01     19.06905       3.2348 -77.64    0.0487439    5.816    0.828
        19 -10.6222     73.9925    180.1941   7.4206020528e+01   2.5724709255e+01    0.2703936    0.1829004 -69.54 0.0007644708    1.452    0.311
        20  -9.7399     72.3231    176.7143   7.4195156309e+01   2.6778863094e+01    0.2187572    0.1709574  67.38  0.000889888    1.202    0.168
        21 -11.9648    173.0662    175.3789   5.0297470752e+01   1.0911811660e+01    0.6467803    0.4425386 -48.19  0.001770812    1.568    0.362
        22 -11.8175    179.6666    169.1464   4.7706391934e+01   1.0965590488e+01    0.6741009    0.5800112 -17.46  0.003283971    1.071    0.066
        23 -12.4098     59.9076    227.5699   8.1848948491e+01   1.7341466270e+01    0.1789641    0.1751689  82.30 0.0006585932    1.321    0.243
        24 -11.3439    229.8714    166.3538   3.7751518525e+01   3.3412603939e+00    0.2333731    0.1575147 -35.98  0.001325554    1.373    0.272
        25 -11.0114    239.9997    162.2412   3.5255662930e+01   2.4787680197e+00    0.1551812    0.1048129  32.88 0.0008959653    1.652    0.395
        26 -12.0256    133.5477    145.3938   5.3232152702e+01   2.4336864705e+01     1.149213    0.3413371 -54.34  0.003218916    3.946    0.747
        27 -11.7900    108.8807    145.3824   5.9626039279e+01   2.8828768618e+01    0.4571183    0.3536963  51.72  0.002237329    1.342    0.255
        28 -10.1769    113.2762    144.7026   5.8315513099e+01   2.8220510283e+01     0.408475    0.2587315  82.34  0.001165242    2.714    0.632
        29 -11.6265    113.0455    151.6615   5.9754478153e+01   2.6562476450e+01    0.5600989    0.4425123 -67.31     0.002801    1.297    0.229
        30 -11.0440     90.5915    148.6021   6.5209944903e+01   3.1075903081e+01    0.2822247    0.2664013  83.17 0.0005086775    1.030    0.029
        31 -12.7196     95.9103    143.4028   6.2782565653e+01   3.1538634252e+01    0.8499298    0.6473017 -41.88  0.002355848    1.416    0.294
        32 -11.4112    160.2705    221.7891   6.0669041785e+01   4.7719961875e+00    0.2843029    0.2818837  -9.77  0.001317496    1.268    0.211
        33 -11.4226    139.5919    171.1548   5.6894925360e+01   1.7486512567e+01    0.2745561    0.2349663  44.12 0.0005421882    1.178    0.151
        34 -12.6388    106.3242    132.5203   5.7648060971e+01   3.2510490210e+01    0.8805316    0.5107613 -59.52  0.003621432    1.711    0.416
        35 -11.9692     95.8225    130.9360   6.0303011835e+01   3.4763849041e+01    0.4104024    0.2893052 -52.37 0.0004346808    1.345    0.256
        36  -9.6235    150.9017    134.2438   4.6481106965e+01   2.3518491398e+01    0.2214327    0.2054769 -78.90  0.000520091    1.205    0.170
        37 -10.7230    135.0000    120.0213   4.6924062364e+01   3.0018030485e+01    0.4813429    0.1420939 -45.49  0.001381439    3.196    0.687
        38 -10.3797    131.3755    125.7914   4.9298554102e+01   2.9386669541e+01    0.3189618    0.2298684 -13.70 0.0008416862    1.956    0.489
        39 -11.6271    135.3515    130.2959   4.9361672063e+01   2.7525941146e+01    0.6445402    0.2880396 -47.60  0.002041558    2.125    0.529
        40 -10.0245    161.3475    127.3157   4.2387954989e+01   2.2929527857e+01    0.3429634    0.2564596  -7.71  0.001540346    1.707    0.414
        41 -11.2248    114.6805    125.4839   5.3714831282e+01   3.2732640120e+01    0.3294944    0.3137757  12.45 0.0007870997    1.152    0.132
        42 -15.8996     68.1957    143.1358   7.0605996102e+01   3.5838236137e+01     2.973467     2.053091  69.29    0.0142247    1.569    0.363
        43  -8.7347    184.3088    122.6668   3.6340845584e+01   1.9200429818e+01    0.1518005    0.1178069 -67.90 0.0007041891    1.671    0.402
        44 -10.6216    102.3955    120.5167   5.6047496994e+01   3.6290006730e+01    0.2953536    0.2555573 -26.71 0.0004009648    1.298    0.230
        45  -9.6941    155.9551    111.0259   3.9438602143e+01   2.7615158965e+01    0.4032972    0.2318787 -65.10  0.001375342    2.831    0.647
        46  -9.9225    162.3203    119.6596   4.0247547165e+01   2.4380657331e+01    0.2958027     0.241734 -71.49 0.0007256416    1.483    0.326
        47  -9.8981    159.7050    116.3146   3.9975449740e+01   2.5657474029e+01    0.3089784    0.2198677 -61.11 0.0008180481    1.637    0.389
        48 -10.3627    110.0564    115.5285   5.2595424305e+01   3.6116540277e+01    0.2866499    0.2088032 -38.98 0.0003502968    1.409    0.290
        49 -11.9642    116.1939    108.9765   4.9131127652e+01   3.6532630759e+01     0.605296    0.4491012  78.26  0.001822858    1.829    0.453
        50 -11.9073    119.1989    103.8259   4.6871452552e+01   3.7170765093e+01    0.4874766      0.34695  83.93  0.001948252    2.118    0.528
        51 -11.7603    111.8578     99.6616   4.7812638653e+01   3.9697790041e+01    0.6382987    0.4659078 -80.65  0.002038192    1.843    0.457
        52  -9.0431    147.3656    106.0864   4.0126511931e+01   3.0581882977e+01    0.2337443    0.1407905 -53.18 0.0004705697    1.718    0.418
        53 -10.6012    134.4661    105.2692   4.3136280204e+01   3.3583340522e+01    0.4108278     0.151874 -47.27  0.001293943    2.568    0.611
        54  -9.7447     83.6015    221.6070   7.6466213965e+01   1.5532462679e+01    0.2876266    0.1611076 -63.02  0.001107153    1.968    0.492
        55 -12.3191     53.8888    231.2773   8.3312488760e+01   1.7337594732e+01    0.4878206    0.2097428  84.14  0.002256296    3.086    0.676
        56  -9.6272     70.3613    233.8396   8.0227520875e+01   1.4893210283e+01    0.1284774    0.1028867 -58.72 0.0004801744    1.540    0.351
        57  -9.1262    114.5113     89.0110   4.3876081681e+01   4.1688903560e+01    0.2472025    0.1527176 -47.08 0.0004525309    1.513    0.339
        58 -10.7430     97.5687     87.9137   4.8743351095e+01   4.5440737154e+01    0.7712684    0.4092292  66.56  0.002153736    4.568    0.781
        59 -12.2631     40.3671    231.0376   8.5953165124e+01   1.8904522737e+01    0.1972938    0.1713856 -89.16 0.0009287248    1.290    0.225
        60 -12.6399     47.9008    228.8952   8.4343225448e+01   1.8479769993e+01    0.2478017    0.2132081 -69.22  0.001805956    1.424    0.298
        61  -9.0033    155.6743     86.7208   3.2604987110e+01   3.2847448961e+01    0.1570913    0.1264381   7.07 0.0004355861    1.592    0.372
        62 -10.0412    128.4355     90.1293   4.0317756871e+01   3.8379697807e+01    0.2634685    0.2348045  65.16   0.00042007    1.231    0.187
        63 -10.8705     73.1562     79.3391   5.4551594164e+01   5.2015619266e+01    0.2861052    0.2501596  67.65 0.0005580742    1.333    0.250
        64  -8.9418    102.4959     76.9859   4.3668474839e+01   4.7022680239e+01    0.2058643    0.1368045 -69.51 0.0007959796    2.094    0.522
        65 -13.1000    173.7653     67.0649   2.3006224144e+01   3.2282082144e+01    0.7921733    0.6923277 -25.94 0.0007978887    1.166    0.142
        66  -9.5046    151.7160     68.0167   2.7644231199e+01   3.7479888408e+01    0.2227936    0.1931675 -41.50 0.0003831203    1.075    0.069
        67 -13.8510    190.8163     53.7374   1.6283689185e+01   3.0402241770e+01     1.305654     1.054579  23.10  0.003924029    1.618    0.382
        68 -12.1266    196.5968     48.4028   1.3949858383e+01   2.9849117501e+01    0.3992785    0.3651292  -1.57 0.0009423131    1.303    0.233
        69  -8.7028     99.2918     64.6557   4.0376744219e+01   5.0429674012e+01    0.1590358    0.1233681 -73.33 0.0003435607    1.659    0.397
        70  -9.5200    143.7982     60.8195   2.6987665529e+01   4.0759793973e+01    0.2168293    0.1782073 -65.29 0.0004025458    1.305    0.234
        71 -10.9060     89.5768    221.8913   7.5241807581e+01   1.4689350670e+01    0.3624133    0.2363919  35.53   0.00137208    1.372    0.271
        72  -9.8305     58.9147     46.0872   4.8278819000e+01   6.2052562645e+01    0.2154186    0.1939315 -29.70 0.0004047921    1.033    0.032
        73  -9.2971    118.8878     42.8967   2.6345271485e+01   5.0026525393e+01    0.2012367    0.1758368 -66.49 0.0002762166    1.250    0.200
        74 -12.4332     91.9252    241.5682   7.6612442291e+01   1.0811163801e+01     0.216545    0.1947967 -73.14 0.0007007914    1.322    0.244
        75 -10.3857     52.0623     24.8278   4.1326763571e+01   6.7249798972e+01    0.1928417    0.1863198 -28.47 0.0005202763    1.253    0.202
        76 -11.2464     61.1074     21.3976   3.5375900116e+01   6.6187479953e+01    0.2955715     0.246434  50.73 0.0009401512    1.402    0.287
