#   1 NUMBER                 Running object number                                     
#   2 MAG_AUTO               Kron-like elliptical aperture magnitude                    [mag]
#   3 X_IMAGE                Object position along x                                    [pixel]
#   4 Y_IMAGE                Object position along y                                    [pixel]
#   5 X_WORLD                Barycenter position along world x axis                     [deg]
#   6 Y_WORLD                Barycenter position along world y axis                     [deg]
#   7 A_WORLD                Profile RMS along major axis (world units)                 [deg]
#   8 B_WORLD                Profile RMS along minor axis (world units)                 [deg]
#   9 THETA_WORLD            Position angle (CCW/world-x)                               [deg]
#  10 FWHM_WORLD             FWHM assuming a gaussian core                              [deg]
#  11 ELONGATION             A_IMAGE/B_IMAGE                                           
#  12 ELLIPTICITY            1 - B_IMAGE/A_IMAGE                                       
         1 -15.0721    174.1028     49.1638   5.7684353494e+01   3.5510024160e+01     1.345568     1.124241  12.72  0.004102805    1.422    0.297
         2 -15.4854    196.2380     16.7559   4.4856911718e+01   3.3996440507e+01     2.295357     1.580396  73.66  0.007596661    1.357    0.263
         3 -13.8924    174.1429    219.9951   9.8073194874e+01   3.9239648298e+00     0.523614    0.4832564   7.77   0.00239866    1.156    0.135
         4 -12.6498    189.5250    249.0295   9.9454284886e+01  -2.7059677692e+00    0.4252333    0.1992675  23.33  0.001908559    2.956    0.662
         5 -10.8608     83.0490    249.4552   1.1863415728e+02   1.3456533608e+01     0.141636     0.111154  54.69 0.0003590348    1.136    0.120
         6 -18.4005     65.7290    213.8294   1.1874483937e+02   2.2309032025e+01     9.076805      5.69902 -72.38   0.04653266    1.580    0.367
         7 -14.9068    185.5053    213.4178   9.4827531407e+01   2.9904933939e+00    0.9743575    0.6922611  17.44  0.004709803    1.509    0.337
         8 -12.5970    110.8344    226.1937   1.1126076958e+02   1.3400972196e+01    0.2426803    0.2075272 -73.94 0.0005070474    1.315    0.240
         9 -12.5504    110.4229    222.0068   1.1085863333e+02   1.4221656187e+01    0.2531365    0.1914074 -79.39 0.0008616194    1.450    0.310
        10 -10.3019    131.1913    230.3982   1.0783605667e+02   9.4300549389e+00    0.2123746    0.1635162 -82.84 0.0008657675    1.569    0.363
        11 -10.4253    126.3454    229.1255   1.0861188194e+02   1.0427552236e+01    0.3171195    0.2525317 -46.89  0.002050257    1.581    0.368
        12 -13.1307    165.9293    217.4066   9.9276092719e+01   5.7507465991e+00    0.4944683    0.2988928 -48.08   0.00071112    1.958    0.489
        13 -13.5775    164.8058    226.1927   1.0080013760e+02   4.5404668545e+00    0.5317327    0.4403359  53.93 0.0007842407    1.223    0.182
        14 -12.1670    158.6235    227.8943   1.0223047835e+02   5.3111449412e+00    0.3516658    0.2774276  65.16  0.001125484    1.447    0.309
        15 -12.3572    158.6135    222.8450   1.0151351813e+02   6.1212060097e+00     0.249272     0.231236  69.44  0.001010417    1.214    0.176
        16 -10.1675    167.7982    241.8043   1.0241288769e+02   1.7101436293e+00    0.1593771    0.1247229  53.92 0.0004459581    1.312    0.238
        17 -12.7937    139.7706    217.8945   1.0452404558e+02   1.0155170885e+01     0.613513    0.2577296 -58.71  0.002632834    3.130    0.680
        18 -12.0856    152.1040    218.7670   1.0220085536e+02   7.9052461768e+00    0.2462521    0.2411703 -70.05   0.00109115    1.198    0.165
        19 -19.1128     47.2332     96.3914   1.0714947268e+02   5.1417780542e+01     16.63078    0.7974589 -61.01   0.02470159   17.344    0.942
        20 -10.7700    101.6900    240.0218   1.1444999553e+02   1.2379378712e+01    0.1817278    0.1348472  52.57 0.0004890398    1.071    0.066
        21 -11.7722    174.9956    209.4422   9.6230789274e+01   5.4665950777e+00    0.1884658    0.1760952 -24.60 0.0005473256    1.205    0.170
        22 -12.3288    104.0232    236.2265   1.1363729523e+02   1.2681328056e+01    0.2756304    0.1752938  58.74  0.001064133    1.359    0.264
        23 -11.8886    183.1735    205.4266   9.3946004457e+01   4.6703366614e+00    0.2187207     0.185949 -32.17 0.0002411454    1.306    0.234
        24  -9.7151    107.3200    230.4331   1.1240588229e+02   1.3191679071e+01    0.3446619    0.2094953  69.00  0.001366391    1.797    0.444
        25 -11.2485     11.7978    205.9939   1.2828991112e+02   3.0030237502e+01     0.225215    0.1399797  45.45  0.001562475    1.555    0.357
        26 -11.0875    134.8085    239.1225   1.0820763660e+02   7.4198944806e+00    0.1785598    0.1457154  50.97 0.0007755918    1.036    0.035
        27 -13.1694    202.5128    189.1689   8.7220575954e+01   3.8168623494e+00    0.4892486    0.3021892  24.85  0.001437111    1.729    0.421
        28 -13.1613    211.1734    187.7170   8.5278414692e+01   2.4744652226e+00    0.5581986    0.2071106  34.75  0.002086565    2.903    0.656
        29 -11.0329    164.1953    186.1623   9.4435935411e+01   1.1529391982e+01    0.1857142    0.1628631  77.73 0.0004300977    1.333    0.250
        30 -11.2659     97.1670    237.3343   1.1501817229e+02   1.3508596674e+01    0.2364301    0.1763337 -38.37  0.001353913    2.142    0.533
        31  99.0000      4.0667    180.2307   1.2826701962e+02   3.6009693373e+01    0.2525257    0.1775744  -1.31  0.001596199    2.742    0.635
        32 -11.8648    183.5123    177.9338   8.8851242666e+01   9.3314060549e+00    0.3276947    0.2713285 -29.61  0.001008114    1.269    0.212
        33 -12.5876    180.0482    175.0331   8.8998299183e+01   1.0536764333e+01    0.3349508    0.2916864 -50.01 0.0006430592    1.275    0.215
        34 -11.7596     86.7579    237.3759   1.1693124008e+02   1.5005844999e+01    0.1880597    0.1338418 -67.70 0.0006136057    1.593    0.372
        35 -11.6983      8.5406    175.4686   1.2707335076e+02   3.6647494344e+01    0.1823942    0.1058891  40.29  0.000900359    1.803    0.446
        36 -13.5632    230.1317    169.8028   7.8163065953e+01   1.8621608783e+00    0.5306298    0.3241314 -37.61  0.002682028    1.636    0.389
        37 -13.3457    244.9793    168.8440   7.5357945992e+01  -6.2645441840e-01    0.6022978    0.2868821  25.86  0.002464888    2.827    0.646
        38 -12.3159    190.9388    167.0939   8.5138268387e+01   9.8369937448e+00    0.5359973    0.4579654  66.89   0.00161742    1.424    0.298
        39 -11.9791    185.9403    236.9312   9.8386006987e+01  -5.3147398357e-01     0.183097    0.1414545  61.83  0.001139135    1.693    0.409
        40 -11.8307    185.4503    170.9419   8.7057092683e+01   1.0224587761e+01    0.3959535    0.2726894 -50.61   0.00160979    1.653    0.395
        41 -12.0437    156.6888    159.9652   9.1020239887e+01   1.8159355174e+01    0.2642485    0.2115368  45.32   0.00061553    1.202    0.168
        42 -10.2989     13.1578    157.9021   1.2479810948e+02   4.0120042250e+01     0.149441    0.1126151 -69.09 0.0002521542    1.285    0.222
        43 -11.2900    234.0124    150.9988   7.3452822263e+01   4.1514589428e+00    0.1715682     0.152054  -9.47 0.0004095534    1.005    0.005
        44 -11.3960      3.6120    149.9600   1.2630966019e+02   4.2649032244e+01    0.1727828    0.1531916  76.69 0.0003187102    1.246    0.197
        45 -10.9123    174.6442    148.9229   8.4661076066e+01   1.6669573130e+01    0.2685331    0.2349217 -79.30 0.0007213079    1.368    0.269
        46 -11.1187    167.9939    235.2553   1.0148146773e+02   2.6313422062e+00    0.1815831    0.1753896   3.20 0.0005592199    1.220    0.180
        47 -11.0373    151.4915    234.1014   1.0443594276e+02   5.5163391373e+00    0.3740132    0.2353353  75.30  0.001833017    2.760    0.638
        48 -10.5930    179.7996    141.7982   8.1924781530e+01   1.6981841247e+01    0.2039959    0.1821468 -83.45 0.0004554768    1.326    0.246
        49 -11.3585    155.1925    141.9328   8.7465354680e+01   2.2253241934e+01    0.2396918    0.2088358  79.18 0.0006911597    1.295    0.228
        50 -11.9952    160.5244    127.9916   8.2936837422e+01   2.4051131535e+01    0.3956411    0.3029771 -56.67  0.001405406    1.404    0.288
        51 -12.1123    237.1471    125.4502   6.7126871137e+01   7.7525484578e+00     0.460756     0.255385 -49.73   0.00140791    2.084    0.520
        52 -11.0581    175.3569    125.3778   7.8949458945e+01   2.1259295047e+01    0.3326332    0.2557973 -79.25  0.001196186    1.769    0.435
        53 -12.5202    151.4877    227.6119   1.0356490724e+02   6.5494802404e+00    0.3198325    0.2758279  -2.86  0.001463438    1.445    0.308
        54 -11.4603    167.8768    112.8494   7.7409564309e+01   2.5524261520e+01    0.3846041    0.3037319 -78.87  0.001089748    1.620    0.383
        55 -14.2601    119.5766    109.5017   8.8543594127e+01   3.6925989828e+01    0.8623034     0.746824  40.80  0.004130967    1.200    0.167
        56 -11.1424    205.4556    110.3680   6.9030793154e+01   1.7251854146e+01    0.3065299    0.2585441  33.92 0.0008916697    1.260    0.206
        57 -10.5166    200.0211    100.2051   6.7422648137e+01   2.0374745854e+01    0.2510113    0.1810409 -87.30 0.0009560602    1.988    0.497
        58 -11.5929    119.8364     98.3797   8.5475425318e+01   3.9355802706e+01    0.2906837    0.2424294 -81.10 0.0006712739    1.427    0.299
        59 -11.3067    191.0122     90.5179   6.6535763516e+01   2.4305774326e+01    0.3140934    0.2097278 -51.59  0.001072597    1.583    0.368
        60 -12.8867    176.2758    229.9882   9.9170158345e+01   2.0435087031e+00     0.478662    0.2253539 -35.05  0.002182124    2.808    0.644
        61 -10.7976    149.4046     83.7382   7.3535180436e+01   3.5753176678e+01    0.2162937     0.151256 -27.60 0.0004515338    1.556    0.357
        62 -10.7037    101.5044     71.9695   8.2863831794e+01   4.8654449821e+01    0.2892399    0.2136492  62.30  0.001374264    1.720    0.419
        63 -14.5124    160.8552     62.9620   6.4558187176e+01   3.6710215845e+01     1.308235      1.10352  53.06  0.001002623    1.175    0.149
        64 -10.9992    127.2562    248.7189   1.1068758496e+02   7.0926883151e+00    0.1359499    0.1192518  31.82 0.0003399976    1.295    0.228
        65 -13.2184    179.4050     41.9440   5.4570625456e+01   3.5180759133e+01     0.439735     0.426636 -26.74 0.0008541076    1.096    0.088
        66 -11.5444     14.3256     59.1162   1.1054491598e+02   6.2649382814e+01    0.3327902    0.1925646 -30.25  0.001501344    1.774    0.436
