#   1 NUMBER                 Running object number                                     
#   2 MAG_AUTO               Kron-like elliptical aperture magnitude                    [mag]
#   3 X_IMAGE                Object position along x                                    [pixel]
#   4 Y_IMAGE                Object position along y                                    [pixel]
#   5 X_WORLD                Barycenter position along world x axis                     [deg]
#   6 Y_WORLD                Barycenter position along world y axis                     [deg]
#   7 A_WORLD                Profile RMS along major axis (world units)                 [deg]
#   8 B_WORLD                Profile RMS along minor axis (world units)                 [deg]
#   9 THETA_WORLD            Position angle (CCW/world-x)                               [deg]
#  10 FWHM_WORLD             FWHM assuming a gaussian core                              [deg]
#  11 ELONGATION             A_IMAGE/B_IMAGE                                           
#  12 ELLIPTICITY            1 - B_IMAGE/A_IMAGE                                       
         1 -13.0179     58.7753    108.0766   1.1015219149e+02   4.6995548576e+01     2.107849    0.4296515 -46.19  0.006266903    4.612    0.783
         2 -13.1649     67.4028    142.5421   1.1454567024e+02   3.8052122663e+01     2.275787     1.271886  85.43   0.00368564    3.291    0.696
         3 -13.1067    190.2719     33.6759   5.8381864164e+01   3.4294463201e+01      1.39701    0.9829889  17.35   0.00700306    2.368    0.578
         4 -11.4817    217.0307      3.2158   4.8313262232e+01   3.1736888227e+01    0.5481016    0.4116794  47.89  0.002711139    1.669    0.401
         5 -11.3965    211.8162      3.8333   4.8975112907e+01   3.2827852889e+01     0.437966    0.3349027  85.29  0.002790608    1.051    0.048
         6  -9.9491     39.1894      4.8018   8.5942654162e+01   6.6526853855e+01    0.1961842    0.1478422   3.06  0.001514429    1.033    0.032
         7 -10.9066     71.9092    210.1776   1.2336689647e+02   2.1732596372e+01    0.4545768    0.3595909  22.92 0.0003128332    1.806    0.446
         8 -10.4513    139.9008    245.4583   1.1427016327e+02   3.5419333012e+00    0.3988408    0.1946007 -47.06  0.001876278    2.468    0.595
         9 -19.5048     17.8630    143.1444   1.2698165452e+02   4.3132115569e+01     18.96552     2.731802 -68.81   0.05063516    6.646    0.850
        10  -9.2046     94.0436    249.7288   1.2353646750e+02   1.0252359793e+01    0.1726351    0.1353246  59.15 0.0004375855    1.087    0.080
        11  -8.7330     99.6479    180.7595   1.1319630387e+02   2.4177263919e+01    0.2279257    0.2089284 -55.07 0.0005964213    1.199    0.166
        12  -7.6159     69.2768    178.2963   1.1978992310e+02   2.9366015387e+01    0.1254992   0.09924968 -42.73 0.0002052872    1.531    0.347
        13 -10.1577     80.4919    175.4925   1.1679936862e+02   2.8420914217e+01    0.3131523    0.2758766 -25.77 0.0006682372    1.494    0.331
        14 -10.9006     84.1979    170.0202   1.1506427376e+02   2.9157918489e+01    0.4946144    0.3154532 -34.92  0.002260401    2.232    0.552
        15  -9.9534    117.8243    173.6339   1.0771340287e+02   2.2694933391e+01    0.3241398    0.1323727  43.79  0.001202667    2.422    0.587
        16  -9.3480    184.5182    211.9547   9.9911890196e+01   1.7990098923e+00    0.2093592    0.1385731 -45.34  0.001038126    1.608    0.378
        17  -9.3611    124.4826    171.4965   1.0574514462e+02   2.1970823655e+01    0.2697981    0.1415617 -65.94  0.001034169    2.305    0.566
        18  -8.7102    164.7156    171.1104   9.6363852560e+01   1.4123164284e+01    0.2240147    0.1981139 -79.24 0.0005522393    1.208    0.172
        19  -9.4704    114.3632    170.2022   1.0790655216e+02   2.4121044314e+01    0.2980339    0.1759019 -41.05  0.001270476    2.008    0.502
        20 -10.3666     96.9933    169.4944   1.1192870648e+02   2.7265382015e+01    0.3687826    0.1985034  63.62  0.001449729    2.570    0.611
        21  -9.0525     78.7902    167.7674   1.1598555417e+02   3.0496196516e+01    0.2524976    0.1715526  54.82  0.000546466    1.534    0.348
        22  -8.6664    205.1677    166.0029   8.6627915314e+01   6.8870607444e+00    0.3621815    0.1967528 -55.50  0.001449726    2.177    0.541
        23  -9.2561    193.5469    165.9664   8.9017820055e+01   9.2734413119e+00    0.2826508    0.2666338  73.39 0.0007837442    1.116    0.104
        24 -10.3000     90.8256    161.6904   1.1205893160e+02   3.0109769136e+01    0.3717842    0.2544677 -46.28 0.0006753754    1.535    0.349
        25  -9.6308    106.9193    210.9422   1.1618598407e+02   1.6128082064e+01    0.3504251    0.1884821  40.63  0.001290685    1.832    0.454
        26  -8.4719    113.5415    151.7586   1.0455355933e+02   2.8617025097e+01    0.2039825    0.1395604 -68.13 0.0004933267    1.564    0.361
        27  -9.7815    134.0970    146.0959   9.8269578847e+01   2.6031250876e+01    0.7188106    0.2114826 -55.49  0.001930307    4.293    0.767
        28  -8.5989    115.2043    144.0911   1.0255094533e+02   3.0116661328e+01    0.2537306    0.1712401 -82.93 0.0009419246    2.041    0.510
        29 -10.5941    108.0008    140.0858   1.0354304508e+02   3.2352429282e+01    0.5284445    0.3258942 -37.68  0.002306256    1.869    0.465
        30 -10.7681     96.2743    139.5430   1.0646738718e+02   3.4481005261e+01    0.3156116    0.2586655 -41.02 0.0005788727    1.264    0.209
        31  -9.6849    106.1537    130.8568   1.0202570397e+02   3.4823351707e+01    0.4137821    0.3207619 -70.59  0.001225269    1.386    0.279
        32  -9.4764    102.9068    126.1178   1.0182855752e+02   3.6477585672e+01    0.3104067     0.253052 -17.82  0.001145879    1.484    0.326
        33  -9.4860    115.0462    130.1504   9.9539905534e+01   3.3379194559e+01    0.3369882    0.2299682 -39.88 0.0008134568    1.529    0.346
        34  -9.8514    107.9754    203.4922   1.1487693752e+02   1.7589004996e+01    0.2464463    0.2269318 -79.32 0.0003285584    1.122    0.109
        35  -9.6981    119.9835    124.0258   9.6840845730e+01   3.3840514333e+01    0.3419627    0.2019862 -28.26  0.001317627    2.451    0.592
        36 -10.7630     96.8437    153.9844   1.0916435491e+02   3.0972453767e+01     0.648787    0.4291704 -32.83  0.002944417    2.007    0.502
        37  -9.2769     95.0094    200.1445   1.1719900290e+02   2.0475123404e+01    0.3386211    0.2260773  80.40  0.001068473    1.665    0.399
        38  -8.7641    110.3145    119.0385   9.8211033293e+01   3.6763682967e+01    0.2076619    0.1785714 -51.52 0.0003040334    1.117    0.105
        39 -10.8571     70.7086    134.8808   1.1227124202e+02   3.9404818755e+01    0.5245604    0.2859702  55.07  0.002078117    2.382    0.580
        40  -8.7159    167.9094    112.7886   8.2433030504e+01   2.6145093988e+01    0.3068918    0.1992291 -69.92  0.001228203    2.147    0.534
        41  -8.5883    135.0000    111.9754   9.0055793734e+01   3.3491939598e+01    0.2594304   0.08521304 -45.84 0.0008118388    3.008    0.668
        42  -9.4668    120.5775    111.3290   9.3610382487e+01   3.6527983377e+01    0.2876841     0.141903 -51.62  0.001126115    2.070    0.517
        43  -8.2113    205.5349    110.4342   7.4141582970e+01   1.8056344863e+01    0.1500238    0.1392801 -75.75 0.0001795769    1.033    0.032
        44  -9.7432    192.8448    194.7125   9.4979038132e+01   3.5641669150e+00    0.7451607    0.3393823 -63.03  0.001968816    6.123    0.837
        45  -8.3367     98.7525    197.1882   1.1595287530e+02   2.0538026931e+01    0.3785806    0.1362688 -50.76  0.001397095    2.976    0.664
        46  -9.7739    112.8722    196.2830   1.1269731544e+02   1.8363890148e+01    0.4034382    0.2306949 -28.36  0.001360546    4.288    0.767
        47 -11.9580     79.7161    156.2160   1.1383605014e+02   3.3102936540e+01     0.451176    0.3790264 -43.55  0.001131565    1.295    0.228
        48  -8.7878     81.3256    196.1252   1.1960267409e+02   2.3508215773e+01     0.288592    0.1861649 -49.73 0.0008490725    1.751    0.429
        49  -9.9720    165.5478     66.0050   7.0932626178e+01   3.5407878577e+01    0.3330534    0.2499269  85.04 0.0005331807    1.578    0.366
        50 -11.6571    174.8057     49.1409   6.4759995957e+01   3.5821084826e+01    0.6136016    0.4740206 -28.12  0.001513235    1.505    0.336
        51  -8.9707    151.3451    221.6728   1.0845791235e+02   6.0465969759e+00    0.1451512    0.1024128  72.46   0.00070505    1.747    0.428
        52 -10.4482    164.9345    218.0984   1.0504416363e+02   4.2530650931e+00    0.4157995     0.167106  39.27  0.001614635    2.382    0.580
        53  -8.6213    130.4953    212.9873   1.1148254667e+02   1.1597584001e+01    0.2085254    0.1749049  56.07  0.000500837    1.089    0.082
