#   1 NUMBER                 Running object number                                     
#   2 MAG_AUTO               Kron-like elliptical aperture magnitude                    [mag]
#   3 X_IMAGE                Object position along x                                    [pixel]
#   4 Y_IMAGE                Object position along y                                    [pixel]
#   5 X_WORLD                Barycenter position along world x axis                     [deg]
#   6 Y_WORLD                Barycenter position along world y axis                     [deg]
#   7 A_WORLD                Profile RMS along major axis (world units)                 [deg]
#   8 B_WORLD                Profile RMS along minor axis (world units)                 [deg]
#   9 THETA_WORLD            Position angle (CCW/world-x)                               [deg]
#  10 FWHM_WORLD             FWHM assuming a gaussian core                              [deg]
#  11 ELONGATION             A_IMAGE/B_IMAGE                                           
#  12 ELLIPTICITY            1 - B_IMAGE/A_IMAGE                                       
         1 -11.7575     99.7488     68.1254   5.1513899677e+01   4.9921053677e+01    0.6105645    0.3339315 -39.37  0.002443184    1.936    0.484
         2 -11.3483     30.9975     16.3091   6.0287140104e+01   7.4005122822e+01    0.4843053    0.1746142 -47.14  0.001869845    2.880    0.653
         3  -9.7473     54.8540     11.1625   4.2502798569e+01   7.0184113332e+01    0.1994197    0.1567969  24.33  0.001083953    1.332    0.249
         4 -10.9839     40.1288      9.8441   4.9620301939e+01   7.3462547031e+01    0.1954851    0.1886073  78.47   0.00088035    1.240    0.194
         5 -11.0292     92.9740      8.5151   2.8368719263e+01   6.1077465443e+01    0.2359714    0.1899643 -70.30  0.001082552    1.315    0.239
         6 -11.2148     88.7545      4.4651   2.7293454684e+01   6.2582358289e+01    0.3480743    0.2391119 -67.23  0.001289448    1.657    0.397
         7 -11.0601     84.3836      8.2300   3.0319294911e+01   6.3345212451e+01    0.2407479    0.1744248 -39.68 0.0007205835    1.475    0.322
         8  -9.8074    153.9833      9.5257   1.9530404958e+01   4.4892822772e+01    0.1930648     0.124144  81.41 2.701819e-05    1.456    0.313
         9 -10.1785    101.0591      2.4825   2.3837387592e+01   5.9507396073e+01    0.2235068    0.1258053  71.36  0.001031535    1.589    0.371
        10  -9.9138     84.7229    238.0088   8.6706346775e+01   1.5425464733e+01    0.1537796    0.1279095  33.03 0.0001982767    1.083    0.077
        11 -10.4641    237.8781    248.6688   5.9058142089e+01  -2.6818046384e+00    0.2103035     0.118946 -32.08  0.001583641    1.906    0.475
        12  -9.8756     85.8036    250.6237   8.7473845441e+01   1.3250822236e+01    0.1694151   0.07556632  35.46 0.0007377535    1.615    0.381
        13 -14.5647     10.3349    186.4664   1.0164839776e+02   3.3312183992e+01     2.044015     1.572649  34.33    0.0130409    1.187    0.158
        14 -15.1026     58.8691    234.8350   9.2247436666e+01   1.8825095494e+01     1.739631     1.363468  25.55   0.01205449    1.174    0.148
        15 -17.0952     68.2996    194.8677   8.6787965435e+01   2.5560756405e+01     3.901204     3.705948 -14.02   0.02562582    1.242    0.195
        16 -14.9717     11.8335    218.3866   1.0229728155e+02   2.6445458154e+01     1.166717    0.5461888  22.11  0.006179885    1.958    0.489
        17 -10.4046    130.7390    232.4246   7.6204564049e+01   1.0870325781e+01    0.1744051   0.09405848  20.47 0.0009561004    1.643    0.391
        18 -10.6489    112.8265    228.7905   7.9639053256e+01   1.3635842202e+01    0.2653688    0.1684683 -45.90  0.001605697    1.906    0.475
        19 -10.4750     88.8003    229.4190   8.5054077628e+01   1.6423840036e+01    0.2188578     0.132754  16.77 0.0005554858    1.630    0.386
        20 -15.2003     94.9078    195.5751   8.0057118695e+01   2.1992581071e+01     1.555335     1.108653 -85.39  0.004852341    1.864    0.463
        21  -9.6680    178.1941    228.8123   6.6347107997e+01   5.6994123789e+00    0.1533857    0.1045774   1.67  0.000320096    1.294    0.227
        22 -11.7104    191.6365    225.6438   6.3465781919e+01   4.5626866773e+00    0.1959413    0.1556293   8.59 0.0005940064    1.129    0.114
        23 -10.8013    212.2047    223.8292   5.9672560598e+01   2.5055967474e+00    0.2415223    0.1446496 -21.10  0.001391443    1.499    0.333
        24 -11.6025     76.8646    220.2671   8.6996792106e+01   1.9477794687e+01    0.3820377    0.2269709 -38.76  0.002033949    2.324    0.570
        25 -17.2865     15.7426    238.5483   1.0199056478e+02   2.2300860334e+01     2.486236     1.473027  27.48   0.01472816    1.408    0.290
        26 -11.5418    125.1211    221.6303   7.6141079065e+01   1.3277614956e+01    0.2431272    0.1980462  24.38 0.0003661414    1.034    0.033
        27 -10.3335    159.9482    221.7717   6.8898228834e+01   8.8659368248e+00    0.2087243     0.139285  -7.53  0.000852819    1.575    0.365
        28  -9.4974    150.3294    222.2771   7.0901423892e+01   9.9899442900e+00    0.1207413   0.07887211   2.85 0.0001639261    1.596    0.373
        29 -10.7266     89.9591    221.7271   8.4071278846e+01   1.7647510271e+01    0.2136852    0.1615032   9.04 0.0004026394    1.396    0.284
        30 -10.2811     93.2952    218.9962   8.3028445765e+01   1.7733188975e+01    0.2234493    0.1534263  30.40 0.0006616404    1.173    0.148
        31 -11.3675    173.5798    219.9855   6.5999664874e+01   7.4437199976e+00    0.2356954    0.1891078 -28.03    0.0012227    1.376    0.273
        32 -10.3567    189.3592    220.3024   6.3116872299e+01   5.5140393408e+00     0.120218   0.07131099   1.06 0.0007037917    1.719    0.418
        33 -11.1082    223.3086    220.4566   5.7380646875e+01   1.7179513082e+00    0.1863318    0.1448065  -3.56 0.0006315963    1.169    0.144
        34 -11.0724    110.2949    214.5147   7.8615108915e+01   1.6389524802e+01    0.3498227    0.2186557 -14.79 0.0006750802    2.330    0.571
        35 -10.0505     95.7984    225.2887   8.3078748987e+01   1.6307827602e+01    0.1962015    0.1539383  57.76 0.0007656043    1.416    0.294
        36 -10.9573    125.1347    212.6289   7.5031353737e+01   1.4781149629e+01    0.2960524    0.1471279 -39.14  0.001028004    2.439    0.590
        37 -15.5149     19.8757    212.9402   1.0021445226e+02   2.6848570057e+01     1.847613     1.072897  67.42   0.01092799    1.599    0.375
        38  -9.9321    184.4389    213.5338   6.3032397833e+01   7.0092056675e+00     0.116662   0.09090125   5.88 3.837527e-05    1.005    0.005
        39 -10.1224    135.5143    213.4845   7.2861690563e+01   1.3272798435e+01    0.2207555    0.1619589  18.68 0.0008436547    1.163    0.140
        40 -10.1963    135.9799    210.4889   7.2363496034e+01   1.3706208149e+01    0.2134815    0.1398162  41.20 0.0009709282    1.505    0.336
        41  -9.4516    247.2965    212.6976   5.2593927591e+01   1.3948967764e-01   0.08489718   0.07303333 -12.59 0.0002685841    1.579    0.367
        42 -10.3050    210.0293    211.8275   5.8264097798e+01   4.2051557718e+00     0.155616    0.1236568  44.15   0.00107884    2.000    0.500
        43 -11.4970    154.6313    210.1361   6.8363341286e+01   1.1294852957e+01    0.4029581     0.242859   3.79  0.001831038    1.956    0.489
        44 -11.4360    141.9476    211.4206   7.1202582224e+01   1.2762378453e+01    0.3707013     0.194294  39.68  0.001360592    1.803    0.445
        45 -11.0298    229.6419    207.7680   5.4480111638e+01   2.5174247969e+00    0.2498761    0.1644385 -22.67  0.001805508    1.306    0.234
        46 -10.4162    160.3556    206.4681   6.6662694028e+01   1.1109027853e+01    0.2050654    0.1518172 -41.21 0.0009276986    1.548    0.354
        47 -10.6284    123.9878    205.5494   7.4375465547e+01   1.6163452601e+01    0.1790452    0.1639404   5.05 0.0004586642    1.128    0.113
        48  -9.5456    121.3612    210.2614   7.5579232828e+01   1.5688389051e+01    0.1275669   0.08775923   3.55 0.0002600084    1.632    0.387
        49 -12.7630    146.0415    204.2389   6.9323941653e+01   1.3387014643e+01    0.4855196    0.3138091 -27.63  0.002759817    1.732    0.423
        50 -10.5360    166.2603    203.9877   6.5104385981e+01   1.0707570289e+01    0.1470355    0.1008975 -36.97 0.0008928222    1.560    0.359
        51 -11.3202    120.9859    200.5241   7.4396485917e+01   1.7475472544e+01    0.2531939    0.1900411  15.07 0.0007291581    1.265    0.209
        52 -12.1242    124.2196    195.4881   7.2951135798e+01   1.7945370998e+01    0.3851733    0.2895246 -12.30  0.002128118    1.527    0.345
        53 -10.4539    212.1494    199.7789   5.6039569433e+01   5.4878248539e+00    0.1827049      0.13711 -32.02 0.0009001622    1.453    0.312
        54 -10.0726    225.4856    199.5033   5.3836252193e+01   3.9694006790e+00    0.1112818   0.08331695  -4.28 -4.502634e-08    1.004    0.004
        55 -11.5954    139.7865    195.9888   6.9482797852e+01   1.5650930162e+01    0.2419608    0.1681958  17.93  0.001375717    1.339    0.253
        56 -10.1254    245.2456    197.2754   5.0509376646e+01   2.0643430232e+00    0.1537628   0.07222182 -39.73 0.0008910275    2.386    0.581
        57 -10.2096    172.9266    195.7073   6.2502835731e+01   1.1079733516e+01    0.1701158     0.136874  15.91 0.0004012828    1.075    0.070
        58 -11.7633    189.1512    194.8471   5.9277313301e+01   9.0404431088e+00    0.3140388    0.1924635  31.35  0.001514987    1.529    0.346
        59 -11.1457    146.9924    194.5570   6.7686486182e+01   1.4876456815e+01    0.1895996    0.1650969 -24.14 0.0005734492    1.215    0.177
        60 -10.2445    218.4588    193.4995   5.3991264807e+01   5.5426342237e+00    0.2038326   0.08700664 -25.92  0.001032659    2.364    0.577
        61 -10.3431    212.1922    193.1277   5.4959649783e+01   6.3506523661e+00    0.1436677    0.1290852  -3.83 0.0009303305    1.349    0.259
        62 -10.2884    163.2382    192.6421   6.3959961384e+01   1.2899589931e+01    0.1799612    0.1034984  23.27 0.0003843075    1.640    0.390
        63 -11.2074    143.8030    190.7403   6.7798651544e+01   1.5991824281e+01    0.2681397    0.1823122 -47.00  0.001508786    1.659    0.397
        64 -11.5594    110.8786    191.4805   7.5578614141e+01   2.0594851148e+01    0.2669792    0.2216483 -85.32  0.001003673    1.553    0.356
        65 -10.6915    173.4534    188.5063   6.1234608237e+01   1.2123791420e+01    0.2181114    0.1039508  43.04  0.001027325    2.362    0.577
        66 -11.2357    135.4261    187.3445   6.9157748331e+01   1.7820769488e+01    0.2340984    0.1225575 -43.58  0.001125734    2.081    0.519
        67 -12.2091    130.5382    184.7753   6.9892239693e+01   1.9019099855e+01      0.45513    0.2218323  31.70  0.002095176    1.836    0.455
        68 -11.5103    122.9269    187.6456   7.2124546086e+01   1.9599206515e+01    0.3307597    0.1975948  39.78  0.001153393    1.533    0.348
        69 -10.6358    248.4460    185.9228   4.8225602164e+01   3.0323489655e+00    0.1860048    0.1384549  15.37 0.0006219257    1.318    0.241
        70 -10.4955    152.7641    181.9756   6.4431496759e+01   1.6204091553e+01    0.1561245    0.1067377 -40.68 0.0002350283    1.548    0.354
        71 -10.6960    143.6784    182.1832   6.6467920268e+01   1.7529383564e+01    0.1934411    0.1564134  31.04  0.001150971    1.145    0.127
        72 -10.0814    221.1577    180.8215   5.1442245337e+01   6.8628364470e+00    0.1589663    0.1099239  -3.33 0.0004903444    1.290    0.225
        73 -12.1114    118.8902    178.2975   7.1689860127e+01   2.2022548179e+01    0.4213147    0.2656673  -8.73  0.001860278    2.457    0.593
        74 -12.0289    127.2206    175.2151   6.9163917456e+01   2.1355095424e+01    0.3350135    0.2486067 -84.23  0.001697545    2.081    0.519
        75 -12.4710    137.5239    176.4558   6.6928714735e+01   1.9521784818e+01    0.3330694    0.2653466  -6.74  0.001905377    1.336    0.251
        76 -11.1646    190.3307    176.9836   5.6049718231e+01   1.1520486140e+01    0.2481053    0.1944436  59.05  0.001465657    2.072    0.517
        77 -11.5374    154.9595    176.8657   6.3094258197e+01   1.6765613841e+01    0.2209839    0.1848622 -26.57 0.0006844829    1.207    0.172
        78 -15.3775      8.5759    227.3510   1.0327642508e+02   2.4976293515e+01     1.171914    0.4403315  22.94  0.005879676    2.322    0.569
        79 -14.4446     88.4454    205.4298   8.2777424808e+01   2.0891300094e+01     1.100564    0.7789624 -67.32  0.001724567    1.704    0.413
        80 -11.3798    113.4873    175.3937   7.2591282898e+01   2.3430534656e+01    0.2697735    0.2357312   5.18  0.000152075    1.173    0.147
        81 -12.0201    104.6460    175.0285   7.4806535011e+01   2.4841035491e+01    0.4398118    0.2529354  37.68 0.0004798358    1.541    0.351
        82 -12.4706    105.4488    169.6574   7.3778494125e+01   2.5860682039e+01    0.4292142     0.343169  71.49  0.001699299    1.511    0.338
        83 -10.5998      6.9218    175.2895   1.0218239328e+02   3.6132345544e+01    0.1956655    0.1581939 -55.46 0.0005140176    1.493    0.330
        84 -10.6397    116.1207    240.2752   8.0128017683e+01   1.1413575129e+01    0.1722409    0.1567929  32.12 0.0002383737    1.237    0.192
        85 -11.2394     45.2139    164.2444   9.0298680968e+01   3.5265231660e+01    0.2678577    0.1745772  29.12  0.000774587    1.428    0.300
        86 -12.3659     48.1911    169.3338   8.9895978292e+01   3.3704702083e+01    0.5030771    0.2975859 -55.63  0.001543152    1.880    0.468
        87 -10.6554      2.9917    170.5554   1.0312964688e+02   3.7523820945e+01    0.2438636    0.1567856 -76.23 0.0005950612    1.598    0.374
        88 -11.2049    194.7826    171.0080   5.4177307806e+01   1.1789581530e+01     0.335626    0.1362859  30.73  0.001492661    2.652    0.623
        89 -12.3775    152.6393    168.1047   6.2061247465e+01   1.8690821969e+01    0.5387957    0.1747395 -47.95  0.001971237    3.373    0.703
        90 -12.5678    123.5029    168.4608   6.8955641021e+01   2.3284549612e+01    0.4016322    0.3131365 -49.81  0.002074598    1.401    0.286
        91 -12.8796    130.9850    168.2400   6.7084606317e+01   2.2133655652e+01     0.472268    0.3251765  33.68  0.002472185    1.332    0.249
        92 -11.5626    127.6533    166.7218   6.7633737913e+01   2.2970794929e+01    0.3223375    0.2130785  18.23 0.0008403567    1.654    0.396
        93 -10.5954     41.0980    168.8409   9.1942114664e+01   3.4599719804e+01    0.2791957    0.1951264  52.58  0.001509659    1.277    0.217
        94  -9.7649     89.3875    240.7585   8.5912745153e+01   1.4437948123e+01     0.181986    0.1541246  47.81 0.0008044699    1.226    0.184
        95 -10.7275     91.1275    236.7399   8.5186545922e+01   1.4904098075e+01    0.3354141    0.2588324   8.05  0.002251691    1.357    0.263
        96 -10.6265     10.7406    166.9988   1.0076993669e+02   3.7808835775e+01    0.3053296    0.2642274 -23.72   0.00191429    1.460    0.315
        97 -11.4577     28.9564    166.5969   9.5369793528e+01   3.6358482511e+01    0.4480339    0.1904901  22.76  0.001917248    2.262    0.558
        98  -9.7745     19.1045    166.8534   9.8307590925e+01   3.7174706553e+01    0.1674967    0.1532466 -15.70 0.0007432938    1.345    0.256
        99 -10.6263    205.8329    164.8297   5.1123788099e+01   1.1129274075e+01    0.1919004    0.1438813  -4.35 0.0006862647    1.227    0.185
       100 -11.4700     24.4317    143.9536   9.5102214691e+01   4.2447244656e+01    0.3240898    0.2413088  87.75 0.0005641204    1.283    0.221
       101 -12.0954     28.1325    160.3424   9.5171092775e+01   3.7967674665e+01    0.3238387    0.2459459  77.32 0.0004946698    1.247    0.198
       102 -11.9326     21.3406    160.2823   9.7247876379e+01   3.8589905043e+01    0.5963772    0.4870818  56.37  0.002499068    1.057    0.054
       103 -11.4363     12.4620    149.4039   9.9385839239e+01   4.2020641875e+01    0.5634277    0.1783658  38.98  0.001449764    2.492    0.599
       104 -10.9705     14.7690    156.4789   9.9046164390e+01   4.0070829685e+01    0.2681543    0.2292785  26.12  0.001121856    1.223    0.182
       105 -13.0198     21.5782    153.3920   9.6725054357e+01   4.0287459072e+01    0.8248867    0.4508084  24.50  0.003944149    1.766    0.434
       106 -10.2433     94.1426    240.5309   8.4859393820e+01   1.3931843562e+01     0.176459   0.09179996  28.42 0.0004880608    1.478    0.323
       107 -12.4638     59.1335    158.7395   8.5478173524e+01   3.4962430940e+01    0.4580402    0.3548217 -68.13 0.0009123614    1.362    0.266
       108 -10.3417     55.6911    156.3630   8.6254390370e+01   3.5975082079e+01    0.2565892    0.1741498  67.27  0.001261909    1.548    0.354
       109  -9.5773    156.4341    238.4978   7.1734305308e+01   6.9309555574e+00    0.1142864   0.08721209  16.17 5.559307e-05    1.025    0.024
       110 -10.7936    172.2977    166.8282   5.7690867557e+01   1.5816929669e+01    0.2514105    0.1126864 -48.47  0.001080046    2.627    0.619
       111 -12.2106    158.9920    160.3945   5.9256783382e+01   1.9059210400e+01    0.3294348    0.2294061  18.55 0.0008865759    1.504    0.335
       112 -10.7270     53.7959    167.3812   8.8049310514e+01   3.3523379572e+01    0.2796703    0.2263433  12.84  0.001089871    1.362    0.266
       113 -11.4442    120.1547    159.3575   6.8226019267e+01   2.5705813030e+01    0.2466758     0.194382 -35.60  0.001314598    1.370    0.270
       114 -12.2099     44.5856    159.2449   9.0004937939e+01   3.6561453236e+01    0.6695251    0.2730362  15.50    0.0023962    3.193    0.687
       115  -9.3684    250.0329    158.7667   4.3378772174e+01   6.1151033549e+00    0.1169739   0.08631316  27.32 0.0008432706    1.508    0.337
       116 -12.8566    113.7890    156.3186   6.9346662804e+01   2.7405659958e+01    0.4877944    0.3413809 -68.65  0.002370123    1.776    0.437
       117 -11.8679     97.1216    157.3678   7.4080616635e+01   2.9865091755e+01    0.3125667    0.2131685  42.32  0.001241313    1.364    0.267
       118 -10.7884    141.6634    156.1171   6.2338623477e+01   2.2754158851e+01    0.2648416    0.1312186 -55.33  0.001080973    2.520    0.603
       119 -11.8793     39.9665    154.2941   9.0964750888e+01   3.8297662778e+01    0.3616944    0.2198359  12.87  0.001689692    1.903    0.475
       120 -12.3255     22.8181    149.2074   9.6033983507e+01   4.1240675517e+01    0.8148542    0.1520764  29.67  0.001676899    3.556    0.719
       121 -11.3540     50.6877    154.0173   8.7546645143e+01   3.7162132997e+01    0.2849527    0.2040054  24.31 0.0004392643    1.399    0.285
       122 -12.1616    126.0384    151.7063   6.5314624691e+01   2.6318940500e+01    0.2994755    0.2556533  11.78 0.0002046692    1.203    0.169
       123 -11.8041    147.3044    150.2634   5.9891512280e+01   2.2922250030e+01    0.2895382    0.2478182  57.12 0.0009834706    1.367    0.269
       124 -12.7590    108.8677    148.6154   6.9278799614e+01   2.9923132462e+01    0.4451338    0.3390926 -50.36  0.001203156    1.388    0.279
       125 -13.5344    101.9469    142.1858   7.0023723361e+01   3.2559432118e+01    0.7606236    0.4679301  51.88  0.002485136    1.753    0.430
       126 -10.2358    167.0098    237.2939   6.9554648760e+01   5.8715290029e+00    0.1566982      0.11633  15.53 0.0006572182    1.032    0.031
       127 -10.2656     34.4772    148.5152   9.2180563666e+01   4.0329992308e+01    0.2360598     0.113703 -61.74 0.0009736617    2.088    0.521
       128 -10.3311    224.1394    148.1833   4.5081412318e+01   1.0903973519e+01    0.1541995     0.129242 -36.57 0.0004337672    1.312    0.238
       129 -12.6922    170.3838    149.3576   5.4723389929e+01   1.9126512076e+01    0.5073617    0.3351303 -54.35  0.002557874    1.895    0.472
       130 -10.0550    117.0199    235.3109   7.9424445235e+01   1.2079269944e+01    0.1738772    0.1202596  26.92 0.0004551865    1.121    0.108
       131 -11.3696    139.8586    141.3042   5.9820024454e+01   2.6012557332e+01    0.3198713    0.1871987 -44.82 0.0008637756    1.743    0.426
       132 -10.6980     81.3517    234.0301   8.7128540617e+01   1.6487713043e+01    0.1939693    0.1521488  40.19 0.0006684684    1.097    0.088
       133 -12.3942     84.3589    148.6859   7.6366230176e+01   3.3876796100e+01     0.547579    0.3270469 -44.24  0.002428509    1.914    0.477
       134 -11.3583     78.4897    139.4701   7.6635153261e+01   3.7022108306e+01    0.4422452    0.1336727 -58.29  0.001431512    3.245    0.692
       135 -10.2141     30.5415    139.9108   9.2684602269e+01   4.2936813893e+01    0.2497573    0.1659817  48.30 0.0009350925    1.383    0.277
       136 -11.0495     36.1377    138.3927   9.0611161593e+01   4.2778379919e+01    0.2329483    0.1833382 -66.69 0.0007189571    1.294    0.227
       137 -10.2889      4.9316    147.1965   1.0169173412e+02   4.3101116900e+01    0.2511666     0.149333  32.96 0.0006447087    1.544    0.352
       138 -11.0333     12.7112    134.0499   9.8384081740e+01   4.5955127066e+01     0.543633     0.252629  58.40  0.002137062    2.067    0.516
       139 -13.6044    155.0566    129.7966   5.3832790321e+01   2.5453749027e+01     1.200046    0.3906994  44.69  0.004130899    3.135    0.681
       140 -12.5368    137.3670    130.7655   5.8162633106e+01   2.8621957546e+01     0.780286    0.2433134  40.07  0.002527629    3.211    0.689
       141 -11.3850     62.0789    134.4945   8.1197730338e+01   4.0671355895e+01    0.4900503    0.1950962  33.93  0.001829587    2.263    0.558
       142 -10.1133    206.6968    149.0116   4.7985993369e+01   1.3344583981e+01    0.1721783    0.1368651 -22.73 0.0003391461    1.092    0.084
       143 -11.4489     81.7470    131.2358   7.4112576678e+01   3.8551109834e+01    0.3181455    0.2244407  60.66  0.001466993    1.567    0.362
       144 -11.1570     40.3305    130.1478   8.8179789888e+01   4.4503633980e+01    0.4157243    0.1816602  18.07  0.001559242    2.629    0.620
       145 -10.6829     21.0941    128.4676   9.4967122508e+01   4.6789082778e+01    0.1878197    0.1677774  41.90 0.0002613048    1.113    0.101
       146 -13.2976    142.6251    133.1550   5.7420275256e+01   2.7141794163e+01    0.7667852    0.5113323  -1.26  0.003249757    2.363    0.577
       147 -11.3445     31.1788    129.0534   9.1356887796e+01   4.5736103290e+01      0.39425    0.3016572 -64.93  0.001177973    1.312    0.238
       148 -11.0922    126.4529    131.9595   6.1184397107e+01   3.0437007242e+01    0.2683869    0.2118495  38.45 0.0003367484    1.231    0.188
       149 -11.0922     59.8143    126.4767   8.0685127134e+01   4.3060546701e+01    0.4445896    0.1661584 -62.11  0.001485608    2.589    0.614
       150 -10.9454     35.8313    131.6271   8.9968715905e+01   4.4589658842e+01    0.2342638    0.1876568 -63.07 0.0005239936    1.277    0.217
       151 -10.4174     15.1608    126.6992   9.6987217482e+01   4.7716908160e+01    0.3123668    0.1883149  15.46  0.001514214    1.794    0.443
       152  -9.7840    245.1582    122.8862   3.7321184305e+01   1.1331769344e+01    0.1506792    0.1147584  -7.83 0.0003174965    1.287    0.223
       153 -11.4532    104.6879    121.9189   6.5025546764e+01   3.6788040781e+01    0.4356039    0.3425148  68.31  0.001066188    1.477    0.323
       154 -11.5009     99.2661    118.8153   6.5968495225e+01   3.8530134719e+01    0.3088898     0.253195  68.65   0.00058008    1.357    0.263
       155 -11.3844    189.0585    121.1131   4.5187449090e+01   2.0672412314e+01    0.2170264    0.1758551 -35.88            0    1.143    0.125
       156  -9.6459     67.5052    122.4432   7.7262269974e+01   4.3001907096e+01    0.1538192    0.1396284  61.54 8.322757e-05    1.065    0.061
       157 -11.3509     43.3767    120.7164   8.5781203729e+01   4.6672482495e+01    0.3656568    0.2913492   5.99 0.0005144474    1.451    0.311
       158 -11.1196     48.8150    116.0747   8.2995321903e+01   4.7258277991e+01    0.3274997     0.260823 -65.86 0.0008813026    1.243    0.196
       159  -9.4978     24.5129    122.4630   9.3129547195e+01   4.8105959493e+01    0.1405574    0.1303898  77.42  0.000702523    1.024    0.024
       160  -9.9280    199.4025    120.7760   4.3366388426e+01   1.8887467049e+01     0.189969    0.1128286 -26.73 0.0007871455    1.656    0.396
       161 -11.2020     36.1882    120.5427   8.8477111077e+01   4.7510039549e+01    0.3251064    0.2387263  47.97 0.0009315616    1.306    0.234
       162 -10.5493    232.0389    118.7828   3.8166483280e+01   1.3820385624e+01    0.1401257   0.09892876  46.84 0.0008770839    1.710    0.415
       163 -11.4748    155.5543    117.7036   5.0945137940e+01   2.7663551802e+01    0.3493768    0.1776535  57.43  0.001347686    2.631    0.620
       164 -12.6766    219.9725    230.6103   5.9370959745e+01   9.1181215831e-01    0.2276766    0.1721307   1.88  0.000389381    1.135    0.119
       165 -11.3453     66.3310    116.1184   7.6471220791e+01   4.4816894725e+01     0.391065    0.2610911  58.24  0.001288998    1.638    0.390
       166 -11.2120     23.6709    115.9821   9.2770510402e+01   4.9923039689e+01    0.3153177    0.2303468 -54.50 0.0009440324    1.408    0.290
       167 -10.0230    171.2964    122.3183   4.8757363807e+01   2.3756958500e+01     0.140075    0.1055678  -1.67 0.0002499452    1.611    0.379
       168 -11.1944    107.9375    113.0480   6.1982644039e+01   3.8219413145e+01      0.43525    0.3234406   7.79  0.001930173    1.849    0.459
       169 -11.1799     58.4605    114.2251   7.9012170714e+01   4.6464245250e+01    0.2929571     0.208803  41.95 0.0005281668    1.355    0.262
       170 -12.3977     53.1818    110.8731   8.0402902075e+01   4.8078225614e+01    0.5445285    0.3047588  39.65   0.00169668    1.711    0.416
       171  -9.7238    210.5155    110.4752   3.9393956016e+01   1.8532957271e+01    0.1281738    0.1103537 -29.05 0.0002929086    1.013    0.012
       172 -10.7689    160.7959    108.7228   4.7664959877e+01   2.8290123092e+01    0.2939841    0.1882625 -48.94 0.0008562663    1.600    0.375
       173 -10.5646     92.0105    108.2047   6.5785241423e+01   4.2430540612e+01    0.2509724    0.2241886 -58.85 0.0002945078    1.139    0.122
       174 -12.1814    153.0384    107.3223   4.8965135437e+01   3.0151675517e+01    0.3875915    0.2747159  44.72 0.0008018663    1.448    0.309
       175 -10.5609     57.1185    106.3431   7.7990589681e+01   4.8734266900e+01    0.2589315    0.2316681 -75.13  0.001369561    1.107    0.097
       176  -9.9016    116.5018    103.9174   5.7189316945e+01   3.8538178490e+01    0.2311417    0.1518769 -48.24 0.0005876368    1.540    0.351
       177  -9.8260    105.6005    102.7974   6.0098476155e+01   4.1039574012e+01    0.2272091    0.1475228 -62.93 0.0009496502    1.791    0.442
       178 -10.5033     79.1367    101.1248   6.8483616585e+01   4.6532125646e+01    0.2765156    0.2148659 -69.76 0.0008874853    1.371    0.271
       179 -12.4045     58.7418     96.4024   7.5192393874e+01   5.1108136551e+01    0.7726742    0.5916386 -20.60  0.003644931    1.638    0.390
       180 -11.0500     10.1071    100.7166   9.6820100725e+01   5.5037747490e+01    0.2340058    0.1922333  71.02 0.0003702347    1.154    0.134
       181  -9.0552     43.6795    100.7239   8.2354469701e+01   5.2009790516e+01    0.1488587    0.1115233 -29.51 0.0006982766    1.576    0.366
       182 -10.7961     21.2850     98.5367   9.1694444761e+01   5.4856355608e+01    0.4551721    0.2557754 -55.18  0.001199849    1.722    0.419
       183 -10.7039    240.0978     95.1151   3.2301283669e+01   1.5748957049e+01    0.1972365    0.1373566 -41.13  0.000297861    1.229    0.187
       184 -11.6037     54.2189     92.5090   7.6172259565e+01   5.2793669494e+01    0.3515859    0.2519203  43.32 0.0008982774    1.388    0.280
       185 -11.3994     59.6694     90.5601   7.3410386549e+01   5.2482883560e+01    0.8078314    0.3592444 -69.80  0.002723014    2.908    0.656
       186 -12.2144     54.1402     86.2475   7.4694068357e+01   5.4437554473e+01    0.4755248    0.3860154  81.16  0.002323378    1.368    0.269
       187 -12.8866     50.1980     79.2148   7.4651161121e+01   5.6830060654e+01     0.914875    0.4806821  51.24  0.003586146    2.233    0.552
       188 -10.8896     55.3337    101.3043   7.7658886615e+01   5.0318846081e+01    0.4897892    0.2204602  36.92  0.001875727    2.108    0.526
       189 -10.7058    232.3470     89.2312   3.1924633560e+01   1.7802990649e+01    0.2052573    0.1889276  64.56 0.0003295608    1.336    0.252
       190 -10.1996     11.5195     86.9580   9.4748329508e+01   5.8683068460e+01    0.2662212    0.1294252 -85.51 0.0006869847    2.027    0.507
       191  -9.6100    148.4834     87.5503   4.4743129906e+01   3.4859685374e+01    0.1460535    0.1423611 -56.45 5.790303e-05    1.010    0.009
       192 -11.0584    125.7240     86.5797   4.9866259453e+01   4.0199640707e+01    0.3418219    0.2630852   4.90  0.001541085    1.841    0.457
       193 -12.0935    115.8407     85.5672   5.2247993111e+01   4.2636144388e+01    0.2898509    0.2697588  70.35 0.0002701678    1.077    0.072
       194 -10.4938    170.6278     84.8027   3.9655051691e+01   3.0438279289e+01    0.1974707    0.1214078 -46.16 0.0002320704    1.560    0.359
       195 -12.3113     46.4109     86.6722   7.8234475838e+01   5.5410441975e+01    0.5202497    0.2311423  43.39  0.001959539    2.312    0.568
       196 -10.0581     62.5078     83.0182   7.0234471290e+01   5.3950318102e+01    0.2226273    0.1488181 -56.63 0.0003468312    1.486    0.327
       197  -9.9257    181.9948     81.0423   3.6760926818e+01   2.8608738657e+01    0.1672904    0.1486635 -42.16 0.0003440824    1.028    0.028
       198 -10.5438     39.6014     81.1997   8.0137451604e+01   5.7717464506e+01    0.2146131    0.1264719 -54.00 0.0006460691    1.626    0.385
       199 -11.6242     22.4808     79.5807   8.8261494630e+01   5.9897540404e+01    0.5135815    0.1623664 -59.86  0.001840417    2.629    0.620
       200  -9.6960    153.2289     80.3623   4.1739491960e+01   3.5084912492e+01    0.1921174    0.1395251  66.73 0.0003338672    1.509    0.337
       201 -12.5721     29.0520     79.6569   8.4970617225e+01   5.9282060233e+01    0.3786132    0.3710694  57.92  0.001145682    1.051    0.048
       202 -13.2889     32.2017     73.1803   8.1963406558e+01   6.0676419001e+01    0.7595478    0.4386552 -79.45  0.001338745    1.940    0.484
       203 -12.4928     31.5239     64.8222   8.0249989613e+01   6.2924484514e+01    0.4059109     0.395157  56.12  0.002385512    1.067    0.063
       204 -10.9884    214.1361     78.7862   3.1726040966e+01   2.2488266476e+01    0.2377396    0.1893957 -19.15 0.0009137939    1.295    0.228
       205 -10.4103     88.5419     78.9648   5.8866892795e+01   5.0022828974e+01    0.3050514    0.2175895  61.14  0.001355725    1.573    0.364
       206 -10.1286    219.1388     78.5063   3.1063963934e+01   2.1593582793e+01    0.1600779    0.1265366  64.35 0.0004721906    1.496    0.332
       207 -10.0643    183.0372     77.4746   3.5674969181e+01   2.8947689273e+01    0.2001166    0.1367846  58.41 0.0005373874    1.587    0.370
       208 -10.6176    111.9245     76.6167   5.0617862116e+01   4.5382839375e+01    0.2979676    0.2348257 -41.51 0.0006812792    1.297    0.229
       209 -10.5866    116.4639     74.2514   4.8584359160e+01   4.4808848969e+01    0.3814879    0.3131371  33.00   0.00187095    1.356    0.262
       210 -11.0856     74.7150     75.7335   6.3038908851e+01   5.3542756480e+01    0.2800597    0.2618043  46.91 0.0005771284    1.057    0.054
       211 -11.6636     65.8661     74.0900   6.6171208795e+01   5.5575921308e+01    0.2394821    0.2304012  31.17 0.0002781744    1.054    0.051
       212  -9.8653    219.5263     72.4740   2.9631889654e+01   2.2343885944e+01    0.1275534    0.1049528 -43.05 0.0006632991    1.035    0.034
       213 -11.0120    125.0777    248.0995   7.9066254291e+01   9.2080244669e+00    0.1643874    0.1349466  20.16 0.0002842335    1.106    0.096
       214  -9.9603     94.2952     68.6641   5.3486502176e+01   5.1040895661e+01    0.1585085    0.1224681 -86.08 0.0007028728    1.647    0.393
       215 -11.0661    198.3273     65.9213   3.0573674543e+01   2.7437239035e+01     0.318404    0.2018991   2.76   0.00138738    2.867    0.651
       216 -11.9171    178.4224     64.2950   3.2871623921e+01   3.1976915340e+01    0.2547178    0.2449666  71.22 0.0003250611    1.131    0.116
       217  -9.4430    123.2819     62.7064   4.3013262157e+01   4.5371466691e+01    0.1523043    0.1162645 -75.28 0.0002203525    1.535    0.349
       218 -10.8787     45.6072     61.6986   7.1753927070e+01   6.1902621092e+01    0.3040431    0.2681471 -43.71   0.00164747    1.123    0.110
       219 -10.2176    114.1342     61.1206   4.4845535573e+01   4.7890917727e+01    0.2225251    0.2036476  26.58 0.0003403217    1.221    0.181
       220 -11.8964     25.2823     62.9018   8.3269530212e+01   6.4059399498e+01    0.6460764    0.3404116   0.29  0.002610032    2.545    0.607
       221 -12.1328    165.9457     58.3730   3.3123075415e+01   3.5736334170e+01    0.2585909    0.2306135 -65.98 0.0003560853    1.061    0.058
       222 -10.2164      4.2920     59.2365   9.5010792287e+01   6.6444843575e+01    0.2392173    0.1615949  -1.58  0.001255832    1.618    0.382
       223 -11.3103    194.1586     57.4619   2.8931197591e+01   2.9501681207e+01    0.2404019    0.2053533 -44.36  0.000290895    1.044    0.042
       224 -11.7923     52.2838     56.6156   6.6568218364e+01   6.2072693967e+01    0.7640846     0.323679  52.03  0.002464648    3.482    0.713
       225 -10.1929    153.5146     57.4673   3.4945383327e+01   3.8846725563e+01    0.1441244    0.1370353 -68.59 2.406662e-05    1.030    0.029
       226 -10.2020    108.6745     55.9775   4.4524882705e+01   5.0165861533e+01    0.2102963    0.1920829 -50.04 0.0004021486    1.111    0.100
       227  -9.7400    127.3126     54.9629   3.9427782846e+01   4.5727115614e+01    0.2607613   0.09300104 -52.44  0.000704604    4.328    0.769
       228  -9.9983     27.9823     54.9982   7.9546872979e+01   6.5802998240e+01    0.2308688    0.1618723  58.80 0.0007031547    1.709    0.415
       229 -10.1925    115.3638     53.6666   4.1881524347e+01   4.8928891733e+01    0.2389038    0.1745747 -74.36 0.0007941074    1.662    0.398
       230  -9.7268    233.6980     53.0164   2.3807195390e+01   2.2218303733e+01     0.164417    0.1259489 -41.23 0.0003896413    1.042    0.040
       231 -10.0733    124.4825     52.4513   3.9211858797e+01   4.6856387377e+01    0.1514458    0.1418599 -86.53 0.0002352108    1.024    0.024
       232 -10.2745     58.6258     68.6824   6.7659459770e+01   5.8142807693e+01    0.3792273    0.2416886   4.52 0.0009645679    2.577    0.612
       233 -10.0238    173.6605     50.3351   2.9662545471e+01   3.5098188528e+01    0.1528107   0.09496828 -62.93 0.0007051335    1.753    0.430
       234 -10.0845     38.0075     49.6320   7.1778901119e+01   6.5888388760e+01     0.195046    0.1780324  21.25 0.0008146759    1.103    0.093
       235 -10.0299     30.8716     50.1294   7.6247966995e+01   6.6681929491e+01    0.2171554    0.1907665  55.80 0.0009056369    1.256    0.204
       236 -10.3284     18.5262     48.8289   8.3743660253e+01   6.8247520208e+01    0.2665107    0.1195774 -61.75 0.0007068693    1.996    0.499
       237  -9.9478      9.7000     43.3127   8.8363025192e+01   7.0259482503e+01      0.13437   0.09743153  58.25  0.000302607    1.607    0.378
       238 -10.5326    133.5086     39.8941   3.2884691169e+01   4.6510786609e+01    0.2649572    0.1899644  49.83  0.000428032    1.461    0.316
       239 -10.7121     36.1005     39.6209   6.8969250456e+01   6.8460384600e+01     0.318058    0.2446297   7.19 0.0009601762    1.428    0.300
       240 -10.2209    110.2919     39.2519   3.7738581319e+01   5.2582727574e+01    0.2210703    0.1912526 -17.28 0.0008126552    1.325    0.245
       241 -10.1644    104.3100     39.5903   3.9434799867e+01   5.4052199029e+01    0.2850873    0.1444765  64.40 0.0006953485    2.060    0.515
       242 -10.9776     56.9688     36.9494   5.5900028631e+01   6.5449004997e+01     0.305218    0.2188146 -57.78 0.0003839122    1.623    0.384
       243 -10.8618     53.4927     38.9594   5.8627644100e+01   6.5717402205e+01    0.2186687    0.1416806 -44.00  0.001024033    1.571    0.363
       244 -10.9988    213.3049     32.2685   2.0644575390e+01   2.8643611734e+01    0.2218018    0.1702685 -54.67 0.0002656699    1.094    0.086
       245 -11.3583     31.8769     31.5616   6.8107976655e+01   7.0824045066e+01    0.4162374    0.2457794 -46.99  0.002003616    1.647    0.393
       246 -10.4322    247.9872     31.9870   1.8178065953e+01   2.2074200475e+01    0.1732084    0.1329774 -43.69 0.0003440949    1.035    0.034
       247 -11.0580    106.2485     31.4165   3.5569539813e+01   5.4788674048e+01    0.3239551    0.2594556  57.83 0.0008163308    1.189    0.159
       248 -11.9462     78.0627     30.9986   4.3899631767e+01   6.1892374968e+01    0.3301896    0.2757491  87.60 0.0006948347    1.378    0.274
       249  -9.3500    162.6859     31.2986   2.5469987939e+01   4.0270521510e+01    0.1483087   0.09351172 -62.98  0.000410993    1.607    0.378
       250  -9.9516    100.9452     26.5324   3.4813756244e+01   5.6842431496e+01    0.2186749    0.1374584  63.11 0.0003406631    1.493    0.330
       251 -11.1921     45.1740     24.7932   5.5986629900e+01   7.0000041813e+01    0.2603348    0.2313402 -53.90  0.000481895    1.262    0.208
       252 -11.3036     84.8175     24.3717   3.8383929676e+01   6.1247867347e+01    0.3418325     0.266753  66.98   0.00106764    1.251    0.201
       253 -10.9536    171.9124     21.1055   2.1336803770e+01   3.9213663014e+01    0.2935881    0.2616323 -78.16  0.001811075    1.066    0.062
       254  -9.9898     20.0437     23.4744   7.3088436205e+01   7.4059741563e+01    0.1933831    0.1079941  -6.66 0.0008097506    2.566    0.610
       255 -10.3953    134.8273     22.1613   2.6308430125e+01   4.8492817241e+01    0.2194365     0.181009 -67.20 0.0005257196    1.156    0.135
       256 -10.5336    100.5128     21.9926   3.2911479109e+01   5.7553224501e+01    0.2119855    0.1448988 -30.80 0.0004757798    1.557    0.358
       257  -9.6283     50.0204     22.0515   5.1664173566e+01   6.9548016637e+01    0.1666018    0.1543174  26.63 0.0003796252    1.014    0.014
       258  -9.9747    189.7941     20.3494   1.9488670551e+01   3.5090561170e+01    0.1691465    0.1113312  67.42 0.0003383226    1.601    0.375
       259  -9.6860    174.2992     24.2849   2.2031839826e+01   3.8278449559e+01    0.1821892    0.1555532  82.83 0.0004465674    1.169    0.145
       260 -10.1335     93.2837    248.9502   8.5757695761e+01   1.2686374973e+01    0.1459318    0.1247684  29.18 0.0003427548    1.141    0.124
       261  -9.9809    248.3226    248.6388   5.7521304973e+01  -3.5894173284e+00   0.07947167   0.06749936   2.46  0.000704238    1.778    0.438
       262 -10.4361    214.0172     10.5057   1.5292962076e+01   3.0836222530e+01    0.1820947   0.07370751 -67.53 0.0008105575    2.614    0.617
       263  -9.5182    144.3195     10.7012   2.0964742778e+01   4.7259839290e+01    0.1488473   0.09071225 -62.75 0.0002802983    1.619    0.382
       264  -9.5816    139.6241    248.1559   7.6150466339e+01   7.5392405629e+00    0.1384506   0.09557134 -26.06 0.0009381521    1.670    0.401
       265 -10.9145     83.5373    246.3743   8.7631094983e+01   1.4178321019e+01    0.4494404    0.1163582  35.58  0.001987207    2.529    0.605
       266  -9.5258    205.3345    244.6727   6.3678997913e+01   8.2879272862e-01    0.0906147   0.07454889  29.81  0.000705172    1.720    0.418
       267 -10.1546    179.8486    244.2521   6.8056443429e+01   3.5531749722e+00    0.1543403    0.1179468  19.05 0.0006037952    1.198    0.165
       268 -10.0873     83.7706    241.5422   8.7201733040e+01   1.4943123250e+01    0.1652626    0.1390552  34.70 0.0004135144    1.109    0.098
