#   1 NUMBER                 Running object number                                     
#   2 MAG_AUTO               Kron-like elliptical aperture magnitude                    [mag]
#   3 X_IMAGE                Object position along x                                    [pixel]
#   4 Y_IMAGE                Object position along y                                    [pixel]
#   5 X_WORLD                Barycenter position along world x axis                     [deg]
#   6 Y_WORLD                Barycenter position along world y axis                     [deg]
#   7 A_WORLD                Profile RMS along major axis (world units)                 [deg]
#   8 B_WORLD                Profile RMS along minor axis (world units)                 [deg]
#   9 THETA_WORLD            Position angle (CCW/world-x)                               [deg]
#  10 FWHM_WORLD             FWHM assuming a gaussian core                              [deg]
#  11 ELONGATION             A_IMAGE/B_IMAGE                                           
#  12 ELLIPTICITY            1 - B_IMAGE/A_IMAGE                                       
         1 -12.3076    198.3274     39.2973   4.5867351338e+01   3.1048460083e+01     1.006293    0.9697897  29.06  0.004522438    1.209    0.173
         2 -12.4327    208.7719     28.5612   4.1810506751e+01   2.9906294844e+01    0.8740276    0.7456836  35.05   0.00195542    1.463    0.317
         3 -10.0856     33.2174     15.3518   8.0967676315e+01   6.9330574453e+01    0.1965568    0.1460318  28.11  0.001179065    1.467    0.318
         4 -10.8926    230.4958      4.0110   3.4015500957e+01   2.7690756679e+01    0.5837426    0.3684513 -71.80  0.003441319    1.426    0.299
         5 -10.5017    237.5109      2.4938   3.3183093014e+01   2.6322619998e+01    0.4169991    0.4032716 -81.57  0.003088069    1.302    0.232
         6  -9.1488     48.8382    224.7838   1.1915106452e+02   2.1557759433e+01    0.2118565    0.1788212 -81.58 0.0004638999    1.262    0.208
         7 -11.7555     15.4378    192.3448   1.2343622644e+02   3.1941696507e+01     0.699785    0.2410822 -60.04 0.0008143316    2.846    0.649
         8 -12.1730     45.3215    200.9155   1.1786450318e+02   2.6962228582e+01    0.9594519    0.6564804  81.70  0.003358058    1.303    0.232
         9 -12.3167     55.8512    189.5473   1.1444117319e+02   2.8225242944e+01     2.682898     1.270216 -80.45   0.01222729    2.269    0.559
        10 -15.3539      6.2452    207.9239   1.2620110656e+02   2.9464327269e+01      8.77858     1.004038 -73.56   0.02335894    5.552    0.820
        11 -11.3614     83.3101    221.5774   1.1193700289e+02   1.7699486502e+01     1.319009    0.3564202  48.72  0.001466691    3.514    0.715
        12  -8.6352     92.6910    217.0006   1.0946815277e+02   1.7265422298e+01    0.1922084    0.1492717  75.10  0.000996319    1.263    0.208
        13  -8.6515     58.4254    220.9836   1.1694490252e+02   2.1146639305e+01    0.2682599    0.1784672  45.93  0.001654124    1.342    0.255
        14 -14.4822     35.9583    249.4708   1.2318862605e+02   1.8353028748e+01     9.053551     2.844813  26.83   0.02336178   12.260    0.918
        15  -7.8428     33.4244    205.1193   1.2068636803e+02   2.7385401066e+01     0.166232   0.09356645  86.11   0.00082464    1.635    0.389
        16  -9.0660    109.9960    201.5082   1.0369297108e+02   1.7790667028e+01    0.1961865    0.1734453 -72.97 0.0005310926    1.185    0.156
        17  -8.8372     66.8792    195.4813   1.1261519733e+02   2.5479177835e+01    0.2961511    0.1988335  81.66  0.001005259    1.505    0.336
        18  -9.1566     63.2025    201.8354   1.1411503417e+02   2.4564137746e+01    0.2002235    0.1589336 -89.11  0.000554739    1.150    0.130
        19 -12.9120     57.7900    240.9665   1.1870091451e+02   1.7331859720e+01     1.024339    0.4771596  62.86  0.003672445    2.090    0.521
        20  -8.9832    193.0570    195.0721   8.4533075615e+01   4.5819864218e+00    0.3335191    0.1815435 -61.94  0.001145558    4.406    0.773
        21  -8.5278    127.8859    194.4188   9.8569963878e+01   1.6290700498e+01    0.3046943    0.1661175 -70.83   0.00121652    2.788    0.641
        22  -8.7469     44.4868    219.5746   1.1959439975e+02   2.3124111488e+01    0.2495105    0.1993835  64.16  0.001220689    1.073    0.068
        23  -7.4961     71.2538    185.3284   1.1040643253e+02   2.7180705150e+01    0.1248038   0.09884591 -43.07 0.0002752714    1.553    0.356
        24  -8.8422     53.8805    221.4414   1.1789020611e+02   2.1619160447e+01    0.3880166    0.1649879  55.03   0.00181889    2.146    0.534
        25  -8.5315     99.6357    180.8972   1.0303445326e+02   2.3973346388e+01    0.2289688    0.1882808  30.04 0.0005573132    1.323    0.244
        26  -8.3074    150.7045    179.1258   9.0651827303e+01   1.5375702015e+01    0.3634096    0.2277581 -73.75  0.001437868    2.742    0.635
        27  -8.2633     40.1241    177.8157   1.1680902738e+02   3.2747256188e+01    0.2035739     0.141674  72.06 0.0005985426    1.329    0.247
        28 -10.4614     69.8409    175.0005   1.0940287822e+02   2.9771608788e+01    0.4541812    0.3029807 -35.34  0.002231412    2.117    0.528
        29 -10.2064     74.1171    170.1281   1.0767255274e+02   3.0333766754e+01    0.3148861    0.2425707 -49.24 0.0005982915    1.414    0.293
        30  -7.5284    142.6393    175.6995   9.1866943953e+01   1.7604906425e+01    0.1505559    0.1153368  -0.07 0.0007036104    1.718    0.418
        31 -10.1182    108.6986    172.6467   9.9480690439e+01   2.4366102823e+01    0.3748511    0.1619949  45.62   0.00145094    2.292    0.564
        32  -9.2450    103.6297    171.1001   1.0046949213e+02   2.5573649049e+01    0.2857434    0.2199604  28.33  0.001471195    1.436    0.303
        33 -11.7566     59.4415    134.0932   1.0591415102e+02   4.1092912471e+01     1.316391    0.4782316 -72.81  0.004048112    4.056    0.753
        34 -12.0345     71.1265    156.2648   1.0635666850e+02   3.4089865565e+01    0.5806789      0.48546 -31.80  0.001554353    1.459    0.314
        35 -12.7980     68.6456    144.4290   1.0509390336e+02   3.7334663654e+01     2.114692     1.032001  66.99  0.003141058    3.996    0.750
        36  -7.4538    157.5509    160.4913   8.5315714758e+01   1.7976985136e+01    0.1478521    0.1462035  31.92 0.0001062235    1.047    0.045
        37  -9.8603     31.6285    156.8427   1.1662738571e+02   3.8575755164e+01     0.344163    0.2709243 -20.92  0.002067381    1.792    0.442
        38 -10.7942     89.8822    154.2273   1.0105793917e+02   3.1812210181e+01    0.7449948    0.5063305   2.64  0.003206117    2.464    0.594
        39  -9.3504     53.5608    149.1039   1.0993986236e+02   3.8099582240e+01    0.3234479    0.2079962  80.70  0.001595087    1.766    0.434
        40  -9.4807    133.7461    144.7025   8.7655469713e+01   2.6210739209e+01    0.9080808    0.1897045 -52.08  0.002059168    5.918    0.831
        41  -9.9043    103.1693    139.5045   9.4603546126e+01   3.3169878572e+01    0.5631124    0.3191097 -31.20  0.002115504    2.609    0.617
        42 -10.6033     90.5108    139.4955   9.8101595249e+01   3.5301601670e+01    0.2931759    0.2517751 -40.95 -6.06083e-05    1.216    0.178
        43  -9.4963     32.2422    164.5409   1.1730491701e+02   3.6680931349e+01    0.3089258    0.1445578 -68.79  0.001148615    1.806    0.446
        44  -8.6868    105.7867    130.8714   9.1991640557e+01   3.4781944623e+01    0.3234966    0.2851028 -78.36  0.001338326    1.199    0.166
        45  -9.4509     32.3536    131.3538   1.1325241459e+02   4.4703218607e+01    0.2541658    0.2029767 -88.47  0.001130647    1.166    0.142
        46  -9.0893    112.2361    130.0911   9.0022751310e+01   3.3782207773e+01    0.3197552    0.2244072  18.97  0.001024661    1.836    0.455
        47  -9.6297     44.0437    129.8124   1.0965897061e+02   4.3927651120e+01    0.2514641    0.1767879 -68.20 0.0008316283    1.230    0.187
        48  -9.4157     66.6774    125.6506   1.0223183037e+02   4.2247160596e+01    0.3231558    0.1659533 -44.96  0.001374395    1.982    0.496
        49  -8.2683     40.2654    146.6309   1.1315464903e+02   4.0184114910e+01    0.1600808    0.1300098  11.92 0.0007574651    1.596    0.373
        50  -9.3649     99.2327    126.2645   9.2797871195e+01   3.7053445992e+01    0.2947837    0.2427332 -29.46 0.0007182987    1.334    0.250
        51  -9.9977    119.2907    123.1708   8.6426471934e+01   3.4054107314e+01    0.5369669    0.2854227 -26.39  0.001705658    3.425    0.708
        52 -11.2394     82.7645    161.3862   1.0414053303e+02   3.1175075578e+01     1.079357    0.5022818  60.45 0.0004697912    3.355    0.702
        53  -9.9369    115.5636    109.0897   8.3857271026e+01   3.8034483875e+01     0.468538    0.2250526 -34.56  0.001622015    2.593    0.614
        54  -8.2159    205.7610    110.3891   6.3205823516e+01   1.7790286287e+01    0.2007968    0.1398659  39.76 0.0004420867    1.577    0.366
        55  -9.9361     43.2447    109.0343   1.0626486740e+02   4.9116825045e+01    0.2616944    0.2435567  17.65  0.001648263    1.250    0.200
        56 -10.1731     32.7457    107.4469   1.0935331546e+02   5.0509918855e+01    0.5128412    0.1333963 -63.67  0.001815915    3.048    0.672
        57 -10.4580     50.7478    108.4133   1.0371989442e+02   4.8455410940e+01    0.3120171     0.269285  13.58  0.001766848    1.345    0.257
        58  -8.0460    108.2778    119.0357   8.8488457749e+01   3.7138935644e+01    0.2076214    0.1860257 -49.06 0.0002240164    1.073    0.068
        59 -10.2714     32.5382     98.6282   1.0778223143e+02   5.2650354053e+01     0.479245    0.2699942 -58.67  0.002471075    1.445    0.308
        60  -8.1896     75.2942     85.0155   8.9696926768e+01   5.0667542941e+01    0.1977287    0.1755874 -36.19 0.0004398126    1.023    0.023
        61  -8.3321     58.9444     67.4836   9.0271083866e+01   5.6814266305e+01    0.1900427    0.1337486  27.81 0.0007711374    1.529    0.346
        62  -9.8802     49.0361    216.2450   1.1842276281e+02   2.3270176314e+01    0.3588971    0.2620513  88.87  0.001291542    1.219    0.180
        63  -7.9556     77.4881    226.5238   1.1362946212e+02   1.7528510583e+01    0.1241513    0.1016706  62.97 7.662496e-05    1.005    0.005
        64 -11.8467    188.3076     46.8893   4.9355597037e+01   3.2463879140e+01    0.8027099    0.6523908  12.77   0.00273572    1.586    0.369
        65 -15.7132      7.1713    244.0244   1.2777974364e+02   2.2350664510e+01     19.09192     1.638618 -77.82   0.02800072   10.408    0.904
        66  -9.1749     59.6588    231.7467   1.1761678821e+02   1.8853993805e+01     0.233326    0.1825869 -79.16  0.001114934    1.309    0.236
        67  -9.9381    144.9483     49.4720   5.8026910545e+01   4.2837848077e+01     0.440169    0.3063109 -84.31  0.001414148    2.060    0.515
        68  -8.2090    147.1771     43.7842   5.5709607929e+01   4.3110477197e+01    0.2169422    0.1905129 -79.78 0.0006486059    1.260    0.206
        69  -9.7665     31.0664     36.6944   9.1251915681e+01   6.6095682556e+01     0.302433    0.1372192  34.99  0.001484913    2.584    0.613
        70 -10.0854     32.7495     21.0435   8.3877744110e+01   6.8538895701e+01     0.395073   0.07643082 -39.01  0.001320889    4.575    0.781
        71  -8.8042     44.4639    230.1985   1.2039615527e+02   2.1004002451e+01    0.2073656    0.1272879  55.96  0.001309786    1.324    0.245
        72 -10.8617    162.6509    225.0100   9.5901973067e+01   4.6107909363e+00    0.4328708    0.3198232  46.42   0.00252448    1.316    0.240
