#   1 NUMBER                 Running object number                                     
#   2 MAG_AUTO               Kron-like elliptical aperture magnitude                    [mag]
#   3 X_IMAGE                Object position along x                                    [pixel]
#   4 Y_IMAGE                Object position along y                                    [pixel]
#   5 X_WORLD                Barycenter position along world x axis                     [deg]
#   6 Y_WORLD                Barycenter position along world y axis                     [deg]
#   7 A_WORLD                Profile RMS along major axis (world units)                 [deg]
#   8 B_WORLD                Profile RMS along minor axis (world units)                 [deg]
#   9 THETA_WORLD            Position angle (CCW/world-x)                               [deg]
#  10 FWHM_WORLD             FWHM assuming a gaussian core                              [deg]
#  11 ELONGATION             A_IMAGE/B_IMAGE                                           
#  12 ELLIPTICITY            1 - B_IMAGE/A_IMAGE                                       
         1 -17.5028    147.6210    106.8104   6.8927832417e+01   3.1551183050e+01     2.940822     2.245545 -87.62   0.01304745    1.820    0.451
         2 -10.5703     20.3373     23.3102   8.4870833376e+01   6.9581130690e+01    0.1262598   0.07371292 -13.59 0.0007044323    1.684    0.406
         3 -11.0206    172.3594    249.8132   9.2325073294e+01  -1.4608110956e+00    0.1582811    0.1084657 -25.67 0.0004773776    1.663    0.399
         4 -19.3350     74.0617    202.3458   1.0718914889e+02   2.2738246127e+01      5.46667     5.212919  43.14   0.03031495    1.176    0.149
         5 -12.0812     16.0085    242.1638   1.2264843957e+02   2.1263022475e+01    0.2000238    0.1618715 -85.18 0.0009207577    1.290    0.225
         6 -11.8432      6.5592    203.7039   1.2226922739e+02   3.0126295102e+01    0.3646103    0.0994758 -79.52  0.001470824    3.304    0.697
         7 -12.0772     14.5035    202.1579   1.2051263865e+02   2.9743311211e+01    0.3387819    0.1591403 -88.33  0.001567399    1.958    0.489
         8 -11.5474     13.9220    238.2204   1.2281880168e+02   2.2244409324e+01    0.1973669    0.1340366 -88.91 0.0008122226    1.291    0.225
         9 -14.2583    139.2060    197.1910   9.1079697503e+01   1.3428882569e+01    0.5483689    0.4366935  -6.54  0.002023718    1.516    0.340
        10 -12.1565    156.0432    198.0515   8.7394616035e+01   1.0291366965e+01    0.2142989    0.1954987  20.41  0.000303406    1.017    0.017
        11 -13.8886    189.5021    194.0008   7.9401597612e+01   5.1991698793e+00    0.4343457    0.2817095  20.01  0.001677634    1.673    0.402
        12 -13.9274    191.3252    190.6017   7.8366300128e+01   5.5054712348e+00    0.4768919    0.3705103  78.44  0.002326706    2.252    0.556
        13 -14.2600    160.3267    192.6247   8.5438410933e+01   1.0613836531e+01    0.5231304    0.3262068  49.70  0.001722971    1.770    0.435
        14 -12.6515     20.6253    191.6199   1.1839296887e+02   3.1539634379e+01    0.2991311    0.1953083  75.86  0.001769926    1.365    0.268
        15 -11.2768    228.0026    192.0563   7.1523642161e+01  -7.9466175571e-01     0.159209    0.1323376 -10.87 0.0003653523    1.014    0.014
        16 -14.9438    151.1557    188.8492   8.6815628558e+01   1.3036531533e+01    0.6784291    0.5049951 -47.50  0.002846599    1.409    0.290
        17 -11.5624     36.7078    244.6690   1.1896421627e+02   1.8542430022e+01    0.4869171    0.3475096 -20.35  0.002764209    2.969    0.663
        18 -11.5593    201.5327    236.0781   8.4466544092e+01  -3.6918766898e+00    0.1754059    0.1173415 -34.80  0.001026633    1.583    0.368
        19 -12.4190     32.1535    232.0995   1.1899114103e+02   2.1549159617e+01    0.3247445    0.2056971 -62.45  0.002015392    1.754    0.430
        20 -12.8426     19.9343    179.5180   1.1753246271e+02   3.4420855627e+01    0.2998721    0.1847497  62.97 0.0006663174    1.552    0.356
        21 -12.2024     43.0000    246.9780   1.1793188609e+02   1.7368836796e+01    0.3561468    0.1846479  80.16  0.001969588    2.030    0.507
        22 -11.7864    127.7626    234.9902   9.9417840803e+01   7.8757527757e+00    0.2616176    0.2018747  13.16  0.001512819    1.484    0.326
        23 -14.6739    179.9866    178.2426   7.8293124924e+01   9.8850996777e+00    0.6292425    0.4178613 -69.34   0.00261149    2.647    0.622
        24 -13.8269    174.0213    175.2747   7.8983688755e+01   1.1585892822e+01    0.4223231    0.2618565 -31.81  0.001215222    1.722    0.419
        25 -12.4574     20.1284    233.1117   1.2137297375e+02   2.2630301524e+01    0.3120565    0.2020256 -61.96  0.002014173    1.775    0.437
        26 -12.6039     10.3796    229.6733   1.2301692901e+02   2.4298744597e+01    0.3260067    0.1618787  61.09  0.001184791    1.666    0.400
        27 -11.9152    185.0088    236.0506   8.7709259783e+01  -1.2308267789e+00    0.1532307    0.1276573  14.54 0.0003477522    1.007    0.007
        28 -13.2949    158.1724    172.4675   8.1982605818e+01   1.5169984391e+01    0.2825365      0.20889 -44.29 0.0006797572    1.369    0.269
        29 -10.5624      9.3470    172.2810   1.1942197843e+02   3.7048534536e+01    0.1181744   0.08417816 -47.80 0.0003322984    1.641    0.391
        30 -13.0539     27.6821    171.0547   1.1484917356e+02   3.5705266712e+01    0.2480472     0.196988 -79.56 0.0006008021    1.087    0.080
        31 -14.0667     32.5347    168.4244   1.1334750209e+02   3.5860125397e+01    0.4062371    0.2116127 -61.70  0.002015673    1.713    0.416
        32 -12.2056     44.3056    243.6748   1.1744931502e+02   1.7852746241e+01    0.4896921    0.1849314  54.05  0.002367947    2.326    0.570
        33 -12.0281    205.5061    165.9707   7.0479205538e+01   7.5326521552e+00    0.2205233    0.1317009 -37.75 0.0005602416    1.572    0.364
        34 -11.9664     16.3557    227.3319   1.2174996462e+02   2.4188025110e+01    0.3761489    0.1791915  81.70  0.002042847    1.988    0.497
        35 -11.1714    180.4835    244.4902   8.9923519690e+01  -1.8559648313e+00    0.1269491     0.103521  17.64 0.0001478411    1.014    0.014
        36 -13.6392    155.8167    158.8589   7.9655317737e+01   1.8548137867e+01     0.315296    0.2646098  23.18  0.001042339    1.235    0.190
        37 -12.4438    188.7238    221.9995   8.4642301629e+01   4.5483064944e-01    0.1818139    0.1578623  -5.96 0.0004209918    1.096    0.087
        38 -12.1508     19.6349    147.5380   1.1439426513e+02   4.2184519087e+01    0.2352834    0.1939812  88.19 0.0007045352    1.101    0.092
        39 -13.3402     17.1481    153.7258   1.1574322985e+02   4.0872338354e+01    0.5672728    0.3008223 -76.75  0.002658388    1.612    0.380
        40 -13.7367     27.8461    154.9539   1.1303358701e+02   3.9625415776e+01    0.3845789    0.2638889  46.47  0.001513051    1.528    0.346
        41 -13.2613     22.1596    153.2090   1.1435567081e+02   4.0572085965e+01    0.3722998    0.2757101  56.15  0.001229177    1.394    0.283
        42 -13.9659     24.4114    149.3544   1.1330015722e+02   4.1323848971e+01    0.4148573    0.2136887 -66.92  0.001359402    1.620    0.383
        43 -13.2687    180.4526    150.8221   7.2299363807e+01   1.5295015777e+01    0.2984004    0.2530757  83.49  0.001497029    1.557    0.358
        44 -14.5832    165.1758    148.7123   7.5210349945e+01   1.8840366647e+01    0.6186087    0.3198401  38.07  0.002435862    2.026    0.506
        45 -17.4089    108.3021    145.5742   8.8915066082e+01   3.0811083691e+01     2.251597     1.763242  82.81   0.01054865    1.602    0.376
        46 -10.3850      2.0389    221.4644   1.2415766860e+02   2.6753917506e+01    0.1408629     0.100015  41.57 0.0001255533    1.450    0.310
        47 -13.0668     34.8868    148.5267   1.1029568338e+02   4.0537885767e+01    0.3186059    0.2013482 -34.90  0.001583551    1.994    0.499
        48 -11.4862    139.1035    217.8270   9.4484523126e+01   9.2963099922e+00    0.1946186    0.1724735  53.60 0.0003778489    1.170    0.146
        49 -14.3889    133.4043    146.7518   8.2487046346e+01   2.5732921067e+01    0.5333349    0.4021347  -6.49  0.001943283    1.778    0.437
        50 -11.1853     12.3120    149.6732   1.1660196846e+02   4.2247509884e+01    0.1948137     0.105217  39.07 0.0007403488    1.979    0.495
        51 -11.0879      9.0204    149.2553   1.1743267522e+02   4.2596157970e+01    0.1661699    0.1475068 -87.82 0.0004333609    1.103    0.094
        52 -14.0750    154.8633    144.6544   7.6685301551e+01   2.1839418537e+01    0.3842615    0.2938719 -47.92  0.001826559    1.310    0.236
        53 -15.7353    131.0938    135.0160   8.0359326803e+01   2.8902324749e+01     1.202732    0.5949683 -52.65  0.004477402    2.127    0.530
        54 -14.8112    136.7575    130.7907   7.7862611464e+01   2.8698207147e+01    0.8040833     0.554288 -70.26  0.001895622    1.986    0.496
        55 -15.1267    141.8014    134.1743   7.7402756025e+01   2.6882627586e+01     1.012569    0.5941234 -29.64  0.003393719    2.145    0.534
        56 -17.4970    153.3904    126.0624   7.2550097227e+01   2.6196054969e+01     2.613248     1.922374  59.01  0.007684816    1.547    0.353
        57  99.0000     38.5348    247.4732   1.1880663741e+02   1.7793321302e+01    0.2579728    0.2139382 -28.38  0.001623473    1.998    0.500
        58 -15.5505    147.1912    202.9467   9.0249124683e+01   1.0860340051e+01     1.052784     0.701525  55.41  0.005064359    1.769    0.435
        59 -13.3175    143.0220    211.3085   9.2582435873e+01   9.9128858227e+00    0.3025684    0.2927436  28.03  0.001160238    1.073    0.068
        60 -14.2400     34.6920    132.7509   1.0808620170e+02   4.4505121335e+01    0.4830182    0.2972737 -71.65  0.002457232    1.464    0.317
        61 -11.3665    105.3101    249.0969   1.0581159634e+02   8.6911654928e+00    0.1680005    0.1537564  20.83 0.0006035779    1.246    0.197
        62 -14.1938     61.1153    128.9411   9.9309733516e+01   4.2436504516e+01    0.5321732    0.3338052  -1.74  0.002243805    2.537    0.606
        63 -14.2081     55.3808    128.2359   1.0095453230e+02   4.3347185931e+01    0.4870247    0.3474409 -20.42  0.001442749    1.791    0.442
        64 -12.9949     52.4824    124.4718   1.0114478408e+02   4.4643485914e+01    0.2341262    0.2130784  49.83 0.0007187451    1.205    0.170
        65 -13.4402     48.5428    123.1201   1.0213754879e+02   4.5444872785e+01    0.2835553    0.2531031 -62.52 0.0006702158    1.014    0.014
        66 -13.6533     46.1407    118.1790   1.0196447834e+02   4.6946277012e+01    0.3675322     0.298682 -15.87  0.001239921    1.418    0.295
        67 -12.3289    145.7784    208.6213   9.1525700007e+01   9.9746639804e+00    0.2953026     0.182334  39.32 0.0007476217    1.488    0.328
        68 -12.6797     20.2461    133.7326   1.1252721978e+02   4.5547094202e+01    0.2419785    0.1803439 -65.45  0.000343037    1.130    0.115
        69 -13.8541    103.6150    125.0731   8.5563263773e+01   3.6611336118e+01    0.4592743    0.3658187  83.94  0.002155718    1.612    0.380
        70 -13.5343    108.1667    122.1119   8.3516438927e+01   3.6456562043e+01    0.5054795    0.2798653  20.67  0.001755941    2.885    0.653
        71 -13.1016     67.6499    123.4519   9.6143507068e+01   4.2913020758e+01    0.3415565    0.1594497 -51.48  0.001285808    1.935    0.483
        72 -14.5649     89.5334    120.8250   8.8741027183e+01   4.0140893119e+01    0.5989641    0.4300621  52.76  0.002804896    1.579    0.367
        73 -13.6812     72.7278    121.0680   9.4021874391e+01   4.2766135032e+01    0.3983106    0.2647577 -39.57   0.00097206    1.542    0.351
        74 -12.7181     64.0025    121.9816   9.6984961276e+01   4.3784061144e+01     0.267408     0.221874  14.57 0.0004564422    1.368    0.269
        75 -13.5310     59.5363    121.6706   9.8342856400e+01   4.4457016247e+01    0.3090628    0.2209352  30.42    0.0015712    1.529    0.346
        76 -14.1467     31.0261    118.5292   1.0693045126e+02   4.8393322064e+01    0.4629886    0.3078669  40.56  0.001815715    1.704    0.413
        77 -12.4463     44.1007    144.8784   1.0716149648e+02   4.0481089770e+01    0.2068546    0.1724128  81.78 0.0002646331    1.199    0.166
        78 -13.0838    119.9089    120.3848   7.9756851528e+01   3.4544024217e+01    0.3182411    0.2274812 -39.03 0.0007292586    1.409    0.291
        79 -13.9288    101.4322    119.6287   8.4866756294e+01   3.8310011610e+01     0.519217     0.267806  41.35  0.002052596    1.995    0.499
        80 -13.6337    152.5153    211.4857   9.0508796877e+01   8.2746320986e+00    0.4089744    0.3197415  43.64  0.001764227    1.247    0.198
        81 -12.6137    190.5237    114.1932   6.1527259095e+01   2.0452741878e+01    0.4423529    0.1907953  36.93  0.001464793    3.291    0.696
        82 -12.9249     61.8931    118.1534   9.6842835388e+01   4.5016054583e+01    0.2169124    0.1929304  83.03 0.0003374155    1.247    0.198
        83 -13.1784     81.9383    113.3726   8.9296177393e+01   4.3201866228e+01    0.3122422    0.2137965 -45.17  0.001024699    1.386    0.278
        84 -11.7903     19.1915    114.1683   1.1004833475e+02   5.0451852081e+01    0.1717634    0.1409384  78.21 0.0003769505    1.329    0.247
        85 -13.9911     75.6067    110.9366   9.0729602278e+01   4.4792624352e+01    0.4273976    0.3212889 -55.74  0.001260706    1.274    0.215
        86 -11.0865     12.8340    113.1813   1.1195628940e+02   5.1145677810e+01    0.1761517    0.1251866 -49.29 0.0003179086    1.271    0.213
        87 -13.0799     54.2745    109.5911   9.7482535820e+01   4.8098229045e+01     0.425905    0.2183167 -37.25  0.001326775    2.190    0.543
        88 -14.0769     88.7424    109.6916   8.6217016312e+01   4.2931335873e+01    0.5363397    0.2552648 -41.30  0.001833529    2.162    0.538
        89 -13.3525     60.7006    108.2911   9.5023239833e+01   4.7584081341e+01     0.318063    0.2013956  36.87  0.001522426    1.710    0.415
        90 -13.6036     82.0127    144.7184   9.6157617739e+01   3.5473158299e+01    0.2937426    0.2654898  68.26 0.0004479018    1.148    0.129
        91 -13.4098     83.0310    140.9377   9.5113459915e+01   3.6256343541e+01    0.3309629    0.2579169 -47.24 0.0005107308    1.258    0.205
        92 -13.4186    118.2820    103.1241   7.5595868985e+01   3.8744252814e+01    0.3531785    0.2712069  41.13  0.001647682    1.321    0.243
        93 -13.1938     57.9005    100.2755   9.4061019316e+01   4.9871266718e+01    0.3901287    0.3079726 -62.37  0.001083991    1.269    0.212
        94 -14.3904     59.9215     95.8615   9.2239728078e+01   5.0636346880e+01    0.6617979    0.3776808 -54.98  0.002333827    1.640    0.390
        95 -13.5175     79.0185     99.7456   8.6730872344e+01   4.6881532566e+01    0.3934804    0.2755519  68.79  0.001722735    2.188    0.543
        96 -13.6300     71.9467     98.3438   8.8728530337e+01   4.8324060535e+01    0.3941085    0.2651494 -12.27  0.001350126    2.015    0.504
        97 -14.0990     83.7323    134.3146   9.3536973229e+01   3.7791674623e+01    0.3916168    0.3301578  35.87   0.00136935    1.247    0.198
        98 -13.9422    154.7586    207.7281   8.9379763386e+01   8.6159065744e+00    0.6609435    0.3235913 -61.22  0.002494609    3.312    0.698
        99 -11.1391     99.6605     99.1987   7.9975408546e+01   4.3340337313e+01    0.2171597    0.1350183 -38.38 0.0003214611    1.618    0.382
       100 -13.1419    136.6751    210.6197   9.3893168378e+01   1.1118156622e+01    0.5833194    0.2409578 -45.42  0.002333423    2.675    0.626
       101 -12.4265    164.8943    209.7688   8.7517135334e+01   6.5027579108e+00      0.35666    0.1751175 -34.99  0.001506717    2.403    0.584
       102 -14.1088    169.3508    205.8892   8.5874190819e+01   6.4680163730e+00    0.4768481     0.296727  47.07  0.002309951    1.723    0.420
       103 -13.5171     27.1461    138.6581   1.1117119983e+02   4.3735871328e+01    0.2931369    0.2055871  58.49  0.001353853    1.558    0.358
       104 -13.9357     52.3947     84.4033   9.1913172027e+01   5.4236045294e+01    0.5596049    0.3975431  36.21  0.002973316    1.566    0.361
       105 -10.7944    120.3012     81.2852   6.8614683716e+01   4.2802592923e+01     0.151388    0.1181732   8.92 0.0003002106    1.555    0.357
       106 -12.7031     75.4805     75.5357   8.0831597681e+01   5.2740717496e+01    0.2561603    0.2336535 -18.23 0.0006350247    1.012    0.012
       107 -12.0217     50.4754     75.9857   9.0243946021e+01   5.6325438685e+01     0.210511    0.1235178 -49.96 0.0004419284    1.558    0.358
       108 -12.5047    116.0163     73.7483   6.7439098288e+01   4.5164522994e+01    0.2742774    0.1928654 -19.63  0.001147201    1.667    0.400
       109 -11.9940    125.1702     73.1908   6.4792164501e+01   4.3223099824e+01    0.2289708    0.2053121  18.16  0.001043539    1.152    0.132
       110 -13.5706     99.3249     68.3189   7.0557649546e+01   4.9697851234e+01    0.4174456    0.2602175 -31.67  0.001905629    1.662    0.398
       111 -12.0385     74.1561     66.2462   7.8245660585e+01   5.4803147739e+01    0.2534104    0.1909641 -70.56 0.0008153665    2.048    0.512
       112 -11.3861    195.6671     67.7128   4.8874615518e+01   2.7432137441e+01    0.1375606       0.1101  26.73 0.0007015356    1.623    0.384
       113 -12.1179    109.5056     60.5224   6.4920175853e+01   4.8915996064e+01    0.3082864    0.1425545 -36.65  0.001224168    2.212    0.548
       114 -11.5895    138.8310     56.2004   5.6127416873e+01   4.2857095527e+01    0.1974146    0.1680935  23.29  0.000437958    1.283    0.221
       115 -11.6048     45.4807     60.4869   8.7388238242e+01   6.0151930656e+01    0.1341699    0.1143596 -22.07 5.305358e-05    1.006    0.006
       116 -10.9842     65.3020     52.4387   7.6618418243e+01   5.8806266637e+01    0.1751247    0.1269546  43.33 0.0009359462    1.545    0.353
       117 -11.8222     11.8812     36.3381   9.4471955419e+01   6.8100285735e+01    0.2039071    0.1491886 -51.01  0.001327844    1.405    0.288
       118 -11.5223     27.0010     35.9888   8.6797351881e+01   6.6800941810e+01    0.2096441    0.1216489 -19.83  0.001135213    1.713    0.416
       119 -11.3017    106.7653     32.0240   5.5564519605e+01   5.3659196268e+01    0.1744458    0.1139248 -26.90 0.0008842176    1.642    0.391
