#   1 NUMBER                 Running object number                                     
#   2 MAG_AUTO               Kron-like elliptical aperture magnitude                    [mag]
#   3 X_IMAGE                Object position along x                                    [pixel]
#   4 Y_IMAGE                Object position along y                                    [pixel]
#   5 X_WORLD                Barycenter position along world x axis                     [deg]
#   6 Y_WORLD                Barycenter position along world y axis                     [deg]
#   7 A_WORLD                Profile RMS along major axis (world units)                 [deg]
#   8 B_WORLD                Profile RMS along minor axis (world units)                 [deg]
#   9 THETA_WORLD            Position angle (CCW/world-x)                               [deg]
#  10 FWHM_WORLD             FWHM assuming a gaussian core                              [deg]
#  11 ELONGATION             A_IMAGE/B_IMAGE                                           
#  12 ELLIPTICITY            1 - B_IMAGE/A_IMAGE                                       
         1 -14.0260    222.2021      3.2391   3.9449222853e+01   2.8467216370e+01     2.537059      1.08701  59.68  0.007867793    2.378    0.579
         2 -13.9206    180.6518     46.8442   5.7179905153e+01   3.3860031095e+01     1.555727     1.149871  15.41 0.0008042209    1.711    0.416
         3 -14.0878    191.7590     37.4009   5.2538808313e+01   3.2272246172e+01     1.365891     1.115038 -29.95  0.003618207    1.199    0.166
         4 -14.7020    199.7747     27.9507   4.8625669663e+01   3.1393454313e+01     1.871435     1.429974  30.62  0.001334985    1.570    0.363
         5 -10.7369    189.6648     14.7717   4.5809547733e+01   3.5510079981e+01    0.2401206    0.2166308  32.62 0.0007175172    1.232    0.189
         6 -11.1004     53.6178    231.2576   1.2218578863e+02   2.1351067403e+01    0.1888948    0.1366475  72.55 0.0006009577    1.114    0.103
         7 -16.7595     71.3245    148.2417   1.1026942588e+02   3.5877823387e+01     14.63761     6.663565  79.21   0.03583627    6.503    0.846
         8 -13.0865    107.6248    203.3605   1.0953542749e+02   1.8970497228e+01    0.6609861    0.3384434  46.87  0.002399024    1.660    0.397
         9 -12.0947     70.3184    206.7715   1.1723939496e+02   2.3668975644e+01    0.8211243    0.4374597  24.47  0.002479045    3.140    0.682
        10 -11.1289     55.8885    212.4212   1.2045210330e+02   2.4441389769e+01    0.4214919    0.3178365  63.69  0.001110502    1.039    0.038
        11 -13.6740     55.1513    202.9423   1.1984745085e+02   2.6328813213e+01    0.5694571    0.4684048  50.56  0.002406734    1.273    0.214
        12 -11.8798     38.8923    212.2957   1.2357903581e+02   2.6452911518e+01    0.3088462     0.117699  49.33 0.0009654007    2.015    0.504
        13  -9.7569     43.9915    210.2975   1.2250998924e+02   2.6249329096e+01    0.2845315    0.1284601  52.97  0.001096475    1.759    0.431
        14  99.0000     42.1179    206.7835   1.2261759427e+02   2.7128840202e+01      0.29858    0.2324653  42.97  0.002177921    1.419    0.295
        15 -12.7712    195.3621    198.8532   9.1868833475e+01   5.0929954801e+00      1.20203    0.9854361 -61.71   0.00741523    1.789    0.441
        16 -12.3680     32.5514    206.6495   1.2438806986e+02   2.8212680439e+01    0.3885252    0.1276696  54.07  0.001698389    2.437    0.590
        17 -10.5916     44.8116    198.3481   1.2149417720e+02   2.8455591803e+01    0.4208085    0.1971699  52.95 0.0008766816    1.763    0.433
        18 -11.2780     96.8078    200.6045   1.1137445777e+02   2.1117790677e+01    0.3168392    0.2604519 -25.08  0.001090655    1.890    0.471
        19 -11.7115    130.6035    213.2362   1.0627045562e+02   1.3650410604e+01    0.2512687    0.2127827 -85.11 0.0003809186    1.354    0.262
        20  -9.9017     30.2870    223.4799   1.2575522831e+02   2.5354158754e+01    0.1695619   0.09467754  34.05 0.0009978248    2.016    0.504
        21  -9.7856     61.8853    220.1167   1.1993210748e+02   2.2294576689e+01    0.1573282    0.1141613  73.95 0.0006104998    1.145    0.126
        22  -9.3426     43.9850    219.9852   1.2315133394e+02   2.4464495346e+01    0.1571219    0.1015488 -57.58  0.001040095    2.068    0.517
        23 -12.3446     29.2218    196.8916   1.2440085649e+02   3.0458614261e+01    0.1955581    0.1430895  64.37 0.0005691263    1.098    0.090
        24  -9.1413     34.4938    197.0661   1.2340052562e+02   2.9862867519e+01    0.1305746   0.09053364  87.31 -7.466935e-05    1.201    0.168
        25 -11.0083    208.0529    196.0557   8.9093556687e+01   3.3454082914e+00    0.1973045    0.1670337  20.75 0.0007368357    1.040    0.039
        26 -10.0916     82.3244    195.1649   1.1370101846e+02   2.4266454273e+01     0.267056     0.161608  56.91  0.001525034    1.460    0.315
        27 -11.0432     96.9461    192.4650   1.1038213313e+02   2.2656254889e+01    0.3414993    0.2521923 -21.16  0.001248031    2.468    0.595
        28  -8.9542     49.5997    217.0099   1.2194307178e+02   2.4351377820e+01    0.3556294    0.2400628   9.74  0.001938907    3.442    0.709
        29 -13.3912     64.5543    189.6346   1.1677899522e+02   2.7782233868e+01    0.7082565    0.6623485 -63.79  0.003682338    1.403    0.287
        30  -9.4944     57.1577    192.6719   1.1857514703e+02   2.8107453230e+01    0.1474241    0.1039704  33.98 0.0003786153    1.644    0.392
        31  -9.3329     46.8136    191.2424   1.2053939678e+02   2.9642526635e+01    0.1927751   0.08008601  64.05 0.0009007117    2.506    0.601
        32 -12.1531    149.3257    187.1188   9.8798182062e+01   1.4998194212e+01    0.4329013    0.3142915  88.56  0.002252119    2.040    0.510
        33 -19.3802      6.4885    138.5634   1.2518493104e+02   4.5015058047e+01     17.83297     1.908666 -78.07   0.04029429   10.036    0.900
        34 -11.5713     99.3522    180.6831   1.0835784599e+02   2.4632513774e+01    0.2620381    0.2106048  57.17 0.0006003487    1.105    0.095
        35 -10.2245     32.3065    218.0630   1.2510665120e+02   2.6112864767e+01    0.2838858     0.167205  21.52  0.001638958    2.976    0.664
        36 -10.3772     59.0914    176.7320   1.1663453574e+02   3.1167040338e+01    0.2036861    0.1580426 -77.18 0.0004115883    1.227    0.185
        37 -10.4800     37.4480    176.2701   1.2123625737e+02   3.3809367470e+01    0.3222175    0.1490595  54.97  0.001715526    1.924    0.480
        38 -16.4628     59.0321    247.7846   1.2231668944e+02   1.7977038356e+01     7.038552     2.411716  30.74   0.02706749    5.703    0.825
        39 -12.0526    142.7761    172.8589   9.7762144090e+01   1.8790344977e+01    0.4976477    0.4600489 -37.00  0.002905888    1.195    0.163
        40 -11.4637     44.5568    172.4987   1.1937695108e+02   3.3824438468e+01    0.5880682    0.2108649  49.40  0.002432319    2.488    0.598
        41 -11.2016    132.9020    172.1296   9.9759640462e+01   2.0713877234e+01    0.2572241    0.1801306  38.61 0.0007388429    1.381    0.276
        42 -10.6793     62.7272    171.5735   1.1528073921e+02   3.1809762688e+01    0.2623006    0.2132038  -1.84  0.001559523    2.033    0.508
        43 -10.0160    200.9770    168.4944   8.5214698304e+01   8.6526222737e+00    0.2408915    0.2120639  29.65  0.001012284    1.097    0.089
        44  -9.5055    162.8312    168.1459   9.2681608873e+01   1.5931318837e+01    0.1987969    0.1825767  72.07  0.000498187    1.214    0.177
        45  -9.3308     58.6825    227.5795   1.2105195605e+02   2.1373571051e+01    0.1299175   0.07875146  55.09 0.0003637179    1.257    0.205
        46 -10.0918    192.5318    164.8338   8.6082175896e+01   1.0832645438e+01    0.2426458    0.2191523  47.64 0.0006367709    1.210    0.174
        47 -13.0682    106.4971    210.7775   1.1062404409e+02   1.7808018582e+01    0.5334918    0.4705519  37.37  0.003442346    1.270    0.212
        48 -10.1519    157.5831    161.1174   9.2429334728e+01   1.8238581418e+01    0.2444576    0.1830183  53.18 0.0004222265    1.354    0.261
        49 -12.7199     94.3015    154.1963   1.0558744936e+02   3.1084411901e+01    0.6626883    0.5213246 -18.94   0.00348544    1.942    0.485
        50 -10.3444    189.3968    154.8083   8.4614812219e+01   1.3126222984e+01    0.3969284    0.1751185  49.33  0.001575302    2.374    0.579
        51 -11.5468    133.7526    144.9482   9.4494843340e+01   2.6101822062e+01      1.14601    0.3072776 -55.09  0.002937126    5.559    0.820
        52 -10.6873    174.4684    148.9844   8.6376607208e+01   1.7155732940e+01    0.2790692     0.244044  59.29 0.0008027909    1.252    0.201
        53 -11.0166    144.3521    146.8115   9.2444814492e+01   2.3641515528e+01    0.3406201     0.252683 -79.72  0.001511034    1.800    0.445
        54 -12.2391    106.7654    140.1275   1.0004319410e+02   3.2153860319e+01     0.569812    0.5242941 -15.02  0.003248466    1.336    0.252
        55 -12.5005     94.0640    139.7310   1.0316079575e+02   3.4399335850e+01    0.3039253    0.2914231   4.13 0.0004356006    1.279    0.218
        56  -9.4042    102.4972    133.4435   9.9807657172e+01   3.4420260515e+01    0.1444491    0.1326026  88.87  5.80012e-05    1.030    0.029
        57 -10.9985    105.9367    130.7704   9.8379466252e+01   3.4426699996e+01    0.3813537    0.3118774 -68.98  0.001212489    1.199    0.166
        58 -11.0487    135.7622    128.0940   9.0341127377e+01   2.9295968998e+01    0.5727289    0.1822356 -49.35  0.001798959    3.232    0.691
        59 -10.1648    161.6088    128.4725   8.4461862376e+01   2.3779720236e+01    0.4323117    0.2980534  79.56  0.001781446    2.328    0.571
        60 -11.0602    101.4271    126.3840   9.8634929370e+01   3.6233983972e+01    0.2839405    0.2318095 -34.05 0.0007487385    1.432    0.302
        61 -11.3182    120.0702    123.4871   9.3161798231e+01   3.3439542479e+01    0.5519224    0.3324274 -25.84  0.002088816    2.748    0.636
        62 -11.2018    114.0297    130.2198   9.6196039862e+01   3.3076544269e+01    0.3432556    0.3016398 -14.59  0.001442549    1.408    0.290
        63 -10.2616    109.4826    119.1679   9.4913087886e+01   3.6437435824e+01    0.2361881    0.2033511  48.76 0.0002741752    1.198    0.165
        64 -10.2588    167.5455    112.4405   7.9145277587e+01   2.5628556251e+01     0.365218    0.2698193 -84.25  0.001402599    2.011    0.503
        65 -10.3276    134.4425    106.2446   8.5221645037e+01   3.4278201625e+01    0.4725316    0.1502688 -44.71   0.00145322    3.054    0.673
        66 -11.5309    118.6607    110.2608   9.0328942776e+01   3.6681784439e+01    0.5726478    0.3958056  55.28  0.002640325    1.571    0.363
        67 -10.1879    205.4944    110.1597   7.1039837974e+01   1.7448003880e+01    0.3085945     0.211054  40.25  0.000891968    1.540    0.351
        68  -9.8511     65.7599    100.0129   1.0308178427e+02   4.8137585796e+01    0.1997408     0.172526 -63.86 0.0005589842    1.018    0.018
        69 -11.8080     52.9397     90.9430   1.0514144735e+02   5.1979739655e+01    0.4646244    0.1912246 -56.95  0.001598808    2.008    0.502
        70 -11.5872     42.3225     91.4753   1.0875555367e+02   5.3057906840e+01    0.3473316    0.2823738 -29.45  0.001125316    1.451    0.311
        71  -8.6554     37.4496    224.9239   1.2459820360e+02   2.4318260658e+01    0.1878874    0.0893141  60.37  0.001164031    1.646    0.392
        72  -9.4005    182.9793     83.0145   6.7814005932e+01   2.7446580252e+01    0.1888669    0.1874215 -12.64  0.001012633    1.040    0.039
        73  -9.0431    155.4903     80.5421   7.2756119384e+01   3.4635852199e+01    0.1571337    0.1519402 -15.59 6.993626e-05    1.036    0.034
        74  -9.9031     66.1984     70.7738   9.5294416666e+01   5.4916074022e+01    0.2691232    0.1862843  51.00  0.001162597    1.753    0.430
        75 -12.3621    161.3316     54.3431   6.3101549301e+01   3.7737922590e+01     1.117568    0.4661857  67.07  0.000995953    3.152    0.683
        76 -11.0764     62.4024    236.2732   1.2100572449e+02   1.9436794874e+01    0.1856636    0.1285206  71.56 0.0005861156    1.194    0.162
        77 -10.3476     43.4327    236.4278   1.2423345388e+02   2.1659517225e+01    0.1248726   0.08781845  67.15 0.0006343505    1.043    0.041
        78  -9.6473     47.6253    229.2721   1.2309637184e+02   2.2399813615e+01    0.1337847    0.0791795  72.80 0.0009002696    1.417    0.294
        79 -10.8621     51.0447    225.8423   1.2228048769e+02   2.2597277412e+01    0.1983719    0.1140885  68.16  0.000602764    1.445    0.308
        80 -11.3366    158.7472     60.6222   6.5703259114e+01   3.7374936773e+01    0.3922009    0.2893618 -74.57  0.000702542    1.752    0.429
        81 -11.9837     49.6542    233.8275   1.2302912412e+02   2.1381226774e+01    0.2256316    0.1278353  65.65 0.0002807571    1.410    0.291
