#   1 NUMBER                 Running object number                                     
#   2 MAG_AUTO               Kron-like elliptical aperture magnitude                    [mag]
#   3 X_IMAGE                Object position along x                                    [pixel]
#   4 Y_IMAGE                Object position along y                                    [pixel]
#   5 X_WORLD                Barycenter position along world x axis                     [deg]
#   6 Y_WORLD                Barycenter position along world y axis                     [deg]
#   7 A_WORLD                Profile RMS along major axis (world units)                 [deg]
#   8 B_WORLD                Profile RMS along minor axis (world units)                 [deg]
#   9 THETA_WORLD            Position angle (CCW/world-x)                               [deg]
#  10 FWHM_WORLD             FWHM assuming a gaussian core                              [deg]
#  11 ELONGATION             A_IMAGE/B_IMAGE                                           
#  12 ELLIPTICITY            1 - B_IMAGE/A_IMAGE                                       
         1 -13.3677     43.4859    139.2742   5.6439523213e+01   4.1808585884e+01     4.102942     1.858509 -78.87   0.01488995    2.525    0.604
         2 -11.4542    190.9373     43.6612   3.5529647756e+02   3.3077130163e+01    0.7434602    0.6367576 -24.23  0.003890799    1.443    0.307
         3  -9.5944    205.3949      5.3964   3.4529040066e+02   3.4598621779e+01    0.3055967      0.12992 -62.40  0.001226905    1.982    0.496
         4 -10.8454    219.7469     16.6453   3.4696428870e+02   3.0671807042e+01     0.442639    0.3420972  36.29  0.002982737    2.184    0.542
         5 -10.5928    214.2690     17.0191   3.4735660324e+02   3.1659756109e+01    0.2708887    0.2449092 -52.30  0.001580339    1.308    0.236
         6 -11.6135    214.7998     11.1803   3.4606634757e+02   3.2185156049e+01    0.7233939    0.4113154  87.63  0.004587575    1.720    0.419
         7 -12.7224     21.9958      7.0962   2.5666628702e+01   7.6035875497e+01      1.49729    0.9727931  39.65  0.008577936    1.409    0.290
         8 -12.0485     67.6697      6.2039   2.8640690520e+00   6.6622819748e+01    0.9882308    0.3039997  56.58  0.003877938    2.548    0.607
         9  -8.5400    200.2858    233.6414   3.1320545838e+01   1.2626042020e+00    0.1736641    0.1208173 -41.08 0.0006147936    1.637    0.389
        10  -8.7583     75.3155    248.6623   5.9034296796e+01   1.2296078896e+01    0.4740531    0.1333918 -60.76  0.001979989    3.841    0.740
        11 -18.0493     16.2176    238.1287   7.2177990940e+01   2.0124379195e+01     2.995582      2.06874  21.45   0.01532675    1.376    0.273
        12  -8.4593    137.9468    218.5514   4.1401661245e+01   1.0604194125e+01    0.2088441    0.1771254 -69.11 0.0007110725    1.607    0.378
        13  -8.4637     59.7531    218.9981   6.0301901956e+01   1.9929686264e+01    0.1913995     0.151892  55.53 0.0004843885    1.224    0.183
        14  -9.0929     88.4685    210.9236   5.2156843626e+01   1.8306827905e+01    0.3530269    0.2277507 -81.43   0.00175902    2.074    0.518
        15  -8.5186    126.4091    209.2195   4.2699402399e+01   1.3810513309e+01    0.1661432    0.1300491 -67.56 0.0009456287    1.643    0.391
        16  -7.6638     65.5809    207.2463   5.7695918832e+01   2.1873203811e+01    0.1497986    0.0832766  47.83 0.0006921045    1.731    0.422
        17  -8.9161    124.0695    203.2437   4.2391717304e+01   1.5295622396e+01    0.3159513    0.1850766 -57.72  0.001412548    1.965    0.491
        18  -8.7225    184.3665    203.6823   2.9687800186e+01   7.4923902983e+00    0.1081216   0.09733549  63.49 0.0001767782    1.779    0.438
        19  -9.2531    249.4963    202.0133   1.8903866530e+01   8.2385546753e-01    0.1668871   0.07899053 -35.90  0.001050651    1.646    0.392
        20  -9.9313     63.2144    201.3509   5.7735744660e+01   2.3498838727e+01    0.3526611    0.1952451 -55.89  0.001669396    1.946    0.486
        21  -9.4859     67.8430    196.3370   5.5940723735e+01   2.4117810166e+01    0.5477411    0.2916368  43.53  0.001863469    1.741    0.426
        22 -10.9194     58.8050    191.2065   5.7904172200e+01   2.6420411164e+01    0.6092837    0.4069834 -38.41  0.001814004    1.806    0.446
        23 -10.2563     70.6827    187.3979   5.4115332397e+01   2.5892737562e+01    0.4688455    0.3321136   8.02  0.001155757    1.601    0.375
        24 -12.4559     67.4626    180.1239   5.4142972580e+01   2.8078440165e+01      1.88793      1.32333  82.69  0.009184051    1.679    0.404
        25  -8.0896     38.3581    200.0819   6.4426761786e+01   2.6515961346e+01    0.1691839    0.1158678  75.59 0.0001624752    1.515    0.340
        26 -10.2217    193.9039    197.0552   2.6873700798e+01   7.4224295581e+00    0.4506187    0.2196216 -58.84  0.001595633    5.587    0.821
        27  -9.0850    190.7589    190.7590   2.6398302427e+01   8.8276659022e+00    0.1693023    0.1106643 -47.29  0.000977328    1.646    0.392
        28  -8.4270      6.2650    193.0693   7.2883978839e+01   3.1063427737e+01      0.17717    0.1338246  51.46 0.0002585034    1.130    0.115
        29  -8.1712    155.4780    190.6985   3.3345892837e+01   1.3468182385e+01    0.1638826    0.1257168 -58.52 0.0009221327    1.608    0.378
        30  -8.8047     16.4992    191.0715   6.9929050694e+01   3.0737334904e+01    0.2611996    0.1456415  37.00  0.000800988    1.542    0.351
        31  -9.7319     21.1893    183.9493   6.8150499625e+01   3.2114420799e+01    0.4861473    0.2332471  24.33  0.002173119    1.950    0.487
        32  -8.8367     34.1669    197.9319   6.5424091335e+01   2.7449238524e+01    0.1845424    0.1754407  45.64 0.0005207825    1.100    0.091
        33  -8.2361    180.6502    177.2857   2.5950995065e+01   1.2446990260e+01    0.1144649    0.1029777  79.69  0.000690678    1.658    0.397
        34  -7.9730     37.9943    176.8810   6.2578747331e+01   3.2317873208e+01    0.2465327    0.1370023  53.81  0.001097239    1.771    0.435
        35  -9.0743     21.0526    172.9786   6.7438486648e+01   3.4944834214e+01    0.3991592    0.1548934  57.00  0.001482514    2.699    0.630
        36  -7.9898     43.7495    173.5867   6.0499243157e+01   3.2557298240e+01    0.1954919    0.1208617  38.50 0.0005167361    1.473    0.321
        37  -9.4732     14.4080    172.5699   6.9450588659e+01   3.5605386780e+01    0.3227526    0.2041284 -67.02  0.001180054    1.594    0.373
        38  -9.7961     87.6507    165.4783   4.6153697630e+01   2.8935745162e+01    0.3073024    0.2425015  54.07 0.0004922927    1.319    0.242
        39  -9.2427     79.2142    168.3892   4.9080487250e+01   2.9428670092e+01    0.2424522    0.2340631  48.23 0.0003545831    1.015    0.015
        40  -9.6127     82.9894    163.9179   4.7273638031e+01   3.0006644351e+01    0.5210785    0.2956817 -30.74  0.002018278    2.520    0.603
        41  -8.9502    124.7718    248.7635   4.8037462531e+01   6.9060253987e+00    0.1937155    0.1399762 -41.22  0.001256503    1.551    0.355
        42 -11.6760     53.3719    145.5840   5.3891232023e+01   3.8882628093e+01    0.8384297    0.6277793  79.69  0.002243349    1.448    0.309
        43 -11.4495     32.6580    128.5423   5.8956037412e+01   4.5970022140e+01    0.8204945    0.6258115 -80.03  0.001319797    1.282    0.220
        44  -8.4484     14.8535    163.2521   6.8697708203e+01   3.8025497329e+01    0.4776005   0.08167665  40.72   0.00142731    4.003    0.750
        45  -9.1624      1.5225    162.6219   7.2904079148e+01   3.9148360896e+01     0.368713    0.1600945 -86.62 0.0007646061    2.190    0.543
        46  -9.4680      5.6998    161.2872   7.1507249608e+01   3.9224651970e+01    0.2811084    0.2053251  25.96  0.000775412    1.376    0.273
        47  -9.9171     57.7760    160.1677   5.4500779652e+01   3.4421150679e+01    0.2519822    0.2303862  58.87 0.0005256866    1.048    0.046
        48  -8.4693     89.9249    155.8731   4.3874951141e+01   3.0975853080e+01    0.2146052     0.195583 -22.06 0.0003564624    1.177    0.150
        49  -8.7855     13.5077    156.1308   6.8634697253e+01   4.0041300786e+01    0.3071243    0.1394211  38.16  0.001179683    1.982    0.496
        50  -8.3565     26.2511    154.5591   6.4240611108e+01   3.9395281041e+01    0.1959941    0.1388235  -2.64 0.0009383272    1.707    0.414
        51 -10.9325     78.9220    150.2790   4.6257100273e+01   3.4076420334e+01    0.3655875     0.280508 -39.18 0.0007612324    1.425    0.298
        52  -8.5035     94.4829    151.0104   4.1652703093e+01   3.1466190081e+01    0.2229395    0.2036547  34.12 0.0005051026    1.077    0.071
        53 -11.6818     68.4103    144.1564   4.8593519372e+01   3.7227556574e+01    0.8786116    0.6468701  76.00  0.002914294    1.576    0.365
        54  -8.0363    124.7883    138.5742   3.0740857940e+01   2.9229203730e+01     0.201486    0.1367219  52.66 0.0004423804    1.652    0.395
        55  -9.5504     95.7304    135.9326   3.8326030509e+01   3.5007727211e+01    0.2432412    0.2308052   5.53 0.0003797066    1.112    0.101
        56  -9.4339     94.7768    146.1766   4.0655883282e+01   3.2618638406e+01    0.3493396    0.2440126  67.58  0.001532902    1.835    0.455
        57  -8.7338     82.9055    134.1391   4.1977167482e+01   3.7618114015e+01    0.2306975    0.1954282  64.04 0.0004589755    1.248    0.199
        58  -7.6531     76.6797    134.2891   4.4047666042e+01   3.8580447777e+01    0.1602587    0.1156038  64.19 0.0002387707    1.601    0.375
        59  -9.5701     65.0212    132.0219   4.7592266039e+01   4.0957114517e+01    0.2326389    0.2231032  66.31 0.0003245394    1.019    0.019
        60  -9.1953    133.4873    123.2684   2.5134335400e+01   3.1008665161e+01    0.3418826    0.2471168  84.34  0.001517924    2.043    0.510
        61  -7.8956    102.4317    124.0723   3.3720304304e+01   3.6724631697e+01    0.2098169    0.1266617 -30.95 0.0006882054    2.252    0.556
        62  -8.3640      4.5873    104.0000   6.7579185627e+01   5.5041940590e+01    0.2853456   0.08162625  12.09 0.0009155558    3.781    0.736
        63 -10.0099     26.9472    127.2652   6.0990864816e+01   4.6885340142e+01    0.3079132    0.2989787  69.82 0.0005226751    1.040    0.039
        64  -8.0432    137.0910     97.0080   1.7780214791e+01   3.5792427396e+01    0.1688308    0.1619086 -86.55 0.0003611772    1.042    0.040
        65 -10.1228     16.9914     88.8488   5.9676609134e+01   5.8385044793e+01    0.5638037    0.2769647 -40.72  0.002308959    2.145    0.534
        66  -7.7610     37.5953     88.2532   4.9567418416e+01   5.6463426419e+01     0.158314    0.1049314  53.92  0.000657271    1.713    0.416
        67  -8.0862    181.1170     76.2946   4.4216731738e+00   3.0306363961e+01    0.1748942    0.1555615 -79.36 0.0006003207    1.120    0.107
        68 -10.8877      8.5655     71.1827   6.0977055918e+01   6.3673756556e+01    0.3919522    0.2469684 -57.01  0.001955231    1.433    0.302
        69  -7.7403    247.2280     59.0438   3.5372401619e+02   2.0875418541e+01    0.1446362   0.07082924 -38.14 0.0004911415    1.562    0.360
        70  -9.7407    175.8301     57.5926   5.0064243451e-01   3.4293230359e+01    0.2970737    0.2371915 -86.56  0.000813227    1.232    0.188
        71  -9.5152    102.2243    247.9195   5.2875546680e+01   9.5195242625e+00    0.2544423    0.1675536 -78.47  0.001456013    2.281    0.562
        72 -10.8555    196.7288     38.3012   3.5346568684e+02   3.2592344949e+01    0.4095795    0.3334698 -30.53  0.001114263    1.405    0.288
        73  -8.0789     77.5470     36.7393   1.4248507930e+01   6.0418971085e+01    0.1790241    0.1337021 -52.53 0.0003910969    1.474    0.321
        74  -8.8162    208.4552     36.0398   3.5195069904e+02   3.0562114055e+01    0.1729154   0.09910497 -38.00 0.0004261571    1.510    0.338
        75  -7.6727     93.7243     22.7037   3.6414761753e+00   5.8516091644e+01      0.13279    0.1002718  36.06 0.0002032049    1.529    0.346
        76 -13.7245     10.4379    207.0049   7.2353129908e+01   2.7415636985e+01    0.8908729    0.4945776  24.78  0.004642345    1.650    0.394
        77  -9.9714    197.9718    220.2603   2.9777686897e+01   3.4061400968e+00    0.5089505    0.1618365 -48.18  0.002098424    4.019    0.751
        78  -9.9529     71.3385    241.0665   5.9331986410e+01   1.4151269687e+01    0.2686617    0.2022337 -52.40  0.001439918    1.577    0.366
        79  -9.4854    176.8305    221.3812   3.3820188015e+01   5.5338290735e+00    0.1690323   0.09674666  13.51 0.0006135831    1.720    0.419
        80  -9.8513    207.1659     18.5834   3.4813436149e+02   3.2856295040e+01    0.1763007    0.1267038 -37.60 0.0004033391    1.353    0.261
        81  -7.9063    139.9567    234.6619   4.3111331139e+01   7.5582230164e+00     0.164404    0.1327599  10.60 0.0005702473    1.024    0.023
