#   1 NUMBER                 Running object number                                     
#   2 MAG_AUTO               Kron-like elliptical aperture magnitude                    [mag]
#   3 X_IMAGE                Object position along x                                    [pixel]
#   4 Y_IMAGE                Object position along y                                    [pixel]
#   5 X_WORLD                Barycenter position along world x axis                     [deg]
#   6 Y_WORLD                Barycenter position along world y axis                     [deg]
#   7 A_WORLD                Profile RMS along major axis (world units)                 [deg]
#   8 B_WORLD                Profile RMS along minor axis (world units)                 [deg]
#   9 THETA_WORLD            Position angle (CCW/world-x)                               [deg]
#  10 FWHM_WORLD             FWHM assuming a gaussian core                              [deg]
#  11 ELONGATION             A_IMAGE/B_IMAGE                                           
#  12 ELLIPTICITY            1 - B_IMAGE/A_IMAGE                                       
         1 -13.3906    166.2406     46.6622   6.5669095253e+01   3.7055156429e+01     1.159868     1.060332  14.30  0.004017093    1.345    0.256
         2 -14.9784    123.4956     21.2186   6.4174835636e+01   5.1274658187e+01     3.765594     3.124105 -33.09    0.0210386    1.319    0.242
         3 -13.0640    182.0217     16.0555   5.5192987836e+01   3.6845995433e+01    0.9147308    0.8248332 -80.64  0.004090447    1.102    0.092
         4 -10.9951     66.9522      2.0047   6.8651154533e+01   6.7633864055e+01    0.6825153     0.195519  60.62    0.0024911    2.830    0.647
         5 -10.3768     13.5768    241.5738   1.4051568085e+02   2.2380110872e+01    0.2643842     0.100379  85.65  0.001322718    2.917    0.657
         6 -10.4138    127.0699    250.2215   1.1657683536e+02   7.8243357587e+00    0.1815441     0.154004   1.65  0.001297988    1.247    0.198
         7 -17.1157     12.7301     85.5062   1.2978386213e+02   5.9504563179e+01     6.387152     1.698021 -64.61     0.022832    2.898    0.655
         8 -19.0701     66.2979    227.4901   1.2788329522e+02   1.9458521000e+01     5.307819     3.645127  26.18   0.02666151    1.326    0.246
         9 -11.2257     30.4243    184.0694   1.3360441519e+02   3.2816426337e+01    0.3035252    0.2145976  24.45 0.0006536846    1.427    0.299
        10 -10.2936    133.4512    199.8298   1.0864805933e+02   1.5407486210e+01    0.4020475    0.2477535  13.47  0.001929576    1.899    0.473
        11  -9.8367    231.2762    181.9567   8.6332312778e+01   3.8147489068e+00    0.1612512    0.1231738 -15.02 0.0002467716    1.069    0.064
        12 -11.7067    189.0021    178.3750   9.3069870821e+01   1.0416670473e+01    0.6187355     0.359812 -49.29  0.002439463    2.169    0.539
        13 -10.3281    185.4874    170.4957   9.2277983512e+01   1.2261460715e+01    0.3406339    0.2185578 -51.93  0.001490581    2.016    0.504
        14  -9.5010     37.9999    173.3243   1.3060724898e+02   3.4580503677e+01    0.3143511    0.2505584  45.81  0.001374098    1.113    0.101
        15 -11.6724     47.8769    166.2450   1.2699593085e+02   3.5190799592e+01    0.4395575    0.3550444 -74.62 0.0007506057    1.274    0.215
        16 -10.5139     42.9547    166.9571   1.2854398692e+02   3.5585208854e+01    0.4578818    0.2537102 -57.89  0.002136903    1.910    0.476
        17 -11.2990     42.4828    178.3400   1.2977351786e+02   3.2886515528e+01    0.7657193    0.4676924 -30.98  0.003515269    2.477    0.596
        18 -10.5163     42.5134    173.5428   1.2931938935e+02   3.4031634746e+01    0.3221034    0.2713249  -1.66 0.0007910666    1.450    0.310
        19  -9.9125     36.0129    187.6156   1.3234237431e+02   3.1417301024e+01    0.2527031    0.2005833   3.53  0.001465989    1.554    0.357
        20  -9.2233     27.6422    180.6129   1.3412661050e+02   3.3902837534e+01    0.1671871    0.1400857 -34.11 0.0006714339    1.518    0.341
        21 -12.0238    149.9538    196.3697   1.0434965474e+02   1.3482074347e+01    0.5168145    0.4115513  49.62  0.003002577    1.462    0.316
        22  -9.2765      3.7833    176.0337   1.4045046454e+02   3.7032301032e+01    0.1940945   0.09949492  78.47 0.0009737329    1.810    0.448
        23 -11.2513    153.5975    193.7139   1.0310772719e+02   1.3383373762e+01    0.4237014    0.2595131  58.04  0.001775216    2.713    0.631
        24 -11.4856    180.6297    195.6499   9.7767856521e+01   8.9347945913e+00     0.402887    0.2090502 -37.13  0.002042686    1.977    0.494
        25 -11.0460    232.4234    176.7157   8.5218414296e+01   4.3701287044e+00      0.24158    0.1743442   7.43 0.0004482392    1.296    0.228
        26 -11.6463    142.5291    172.4643   1.0193591462e+02   1.9153288071e+01    0.3820982    0.3093276 -63.15  0.001005482    1.547    0.354
        27 -11.0202    138.0154    173.5346   1.0320737820e+02   1.9717202539e+01    0.4503686    0.3214535 -67.71  0.001128092    1.951    0.487
        28 -10.8913    159.4001    195.9411   1.0221231240e+02   1.2096354438e+01    0.2522661    0.2359197 -14.75 0.0006769458    1.199    0.166
        29 -10.0824    203.7043    175.3378   8.9774442540e+01   8.6424356740e+00    0.2250676    0.1427334 -43.18  0.001239764    1.733    0.423
        30 -10.6566    195.5596    174.1275   9.1039133435e+01   1.0074087593e+01    0.2921384    0.2302814 -38.89  0.001001864    1.375    0.273
        31 -12.3744     11.4922    206.9251   1.3973991142e+02   2.9474784581e+01    0.3577783    0.2128944  29.23  0.001416839    1.521    0.342
        32 -11.5969    231.2395    170.4577   8.4268024257e+01   5.3859115368e+00    0.4551049    0.2371948 -49.77   0.00216785    3.008    0.668
        33  -9.7270    207.5717    172.5471   8.8569139924e+01   8.4853341546e+00    0.2494896     0.188806 -52.11  0.001465746    1.810    0.448
        34 -10.2558    150.8715    240.3518   1.1048197894e+02   6.2260825707e+00    0.2653763    0.1846386  10.22 0.0009265709    1.322    0.243
        35 -10.5319    153.2065    171.9954   9.9375603843e+01   1.7408818803e+01     0.247254    0.1843179  30.44 0.0003869286    1.241    0.194
        36  -9.1383     31.4387    172.4059   1.3242961728e+02   3.5486591591e+01     0.264526    0.1225807  24.75 0.0007234861    2.100    0.524
        37 -10.4157    200.6002    169.4430   8.9229623740e+01   1.0026910888e+01    0.2254032    0.2040786  -9.14  0.001483463    1.136    0.120
        38 -10.0700     24.9423    166.4833   1.3386585508e+02   3.7561668291e+01      0.37193    0.2216328 -16.43   0.00166923    2.658    0.624
        39 -10.0366    192.1846    166.4016   9.0205518827e+01   1.1848342362e+01    0.2631149    0.2119159 -49.86  0.001334729    1.528    0.345
        40 -11.0034    120.6579    165.3176   1.0606262565e+02   2.4417230911e+01     0.455339    0.2744152  56.33  0.001306028    2.087    0.521
        41 -10.9302     58.4240    164.9639   1.2368129182e+02   3.4197043128e+01     0.318115    0.2846156 -88.07  0.001286691    1.139    0.122
        42 -15.3533     58.0272    142.9995   1.2079562896e+02   3.9761663597e+01     4.756756     3.038279  10.51   0.02099019    1.993    0.498
        43 -11.4158    154.0462    186.7440   1.0183080215e+02   1.4553442459e+01    0.3948671    0.3089736 -68.63  0.001618469    1.880    0.468
        44  -9.4742    111.0303    159.2910   1.0752798447e+02   2.7417707421e+01    0.3399263     0.173188  41.10   0.00119411    1.815    0.449
        45 -11.1527    189.1683    155.8051   8.8686920009e+01   1.4102732419e+01    0.4901343    0.4119779  10.37  0.002197251    1.136    0.120
        46 -12.6802    147.5505    180.5867   1.0222459980e+02   1.6747602275e+01    0.7345187    0.4185568  42.41  0.002475059    1.709    0.415
        47 -11.1176    133.7744    146.5796   9.8999850868e+01   2.6024336432e+01     1.224597    0.3251756 -54.28  0.002910033    6.380    0.843
        48  -8.3474    220.2777    152.3498   8.2562755445e+01   9.5797605998e+00    0.1284406   0.08622053  -6.66 0.0003588827    1.641    0.390
        49  -9.8309    143.4784    146.5161   9.6581902492e+01   2.4181896282e+01    0.2662837    0.1424675 -57.65  0.001034415    2.474    0.596
        50 -10.2976    116.2865    136.2064   1.0143005751e+02   3.1663263515e+01    0.4405257    0.2667413 -37.47  0.001654485    1.898    0.473
        51 -11.4464    106.0534    135.6251   1.0423785805e+02   3.3747803064e+01    0.2977856    0.2617294  32.96 0.0004560773    1.106    0.096
        52 -10.4756    135.7685    130.6369   9.4968008941e+01   2.9006631743e+01     0.713476     0.127906 -49.35  0.001509818    7.240    0.862
        53  -9.9490    160.2042    128.7091   8.8744464631e+01   2.4411680983e+01    0.3664399    0.2349865 -53.20  0.001097306    1.770    0.435
        54  -9.7569    120.5062    128.1983   9.8446783813e+01   3.2630354758e+01     0.289435    0.2357569  -1.57 0.0008442101    1.504    0.335
        55 -10.5083    164.8077    188.6637   9.9822675955e+01   1.2502182219e+01    0.2196325    0.2154774  19.82 0.0005437799    1.276    0.216
        56 -10.3267    109.0281    123.9217   1.0072807821e+02   3.5896268714e+01    0.2799443    0.2235127 -43.17 0.0004825968    1.313    0.238
        57 -10.0026    134.9005    122.2749   9.3204469511e+01   3.0951961514e+01    0.4555598    0.1502092 -49.33  0.001397876    3.352    0.702
        58  -8.7815    127.6645    124.7344   9.5685250648e+01   3.1932796309e+01    0.1534255    0.1206412   7.60 0.0002813554    1.587    0.370
        59 -10.5219    175.8504    228.1722   1.0381690990e+02   4.7186251764e+00     0.208581    0.1696586 -47.78 0.0009556137    1.730    0.422
        60 -10.6739     25.7826    118.2079   1.2879167110e+02   4.9902874354e+01    0.2392831    0.2286607 -22.90 0.0007725736    1.151    0.131
        61  -9.2379    114.0662    118.2462   9.7884907217e+01   3.6177125640e+01    0.2137693    0.1927077  51.29 0.0001965273    1.092    0.084
        62 -10.4269    243.4124    186.6497   8.5285493921e+01   1.6661888790e+00    0.2120362     0.171005 -50.97  0.001360115    2.033    0.508
        63  -9.6182    168.0663    114.2356   8.3635313925e+01   2.5506561927e+01    0.3098733    0.2281125  86.03  0.001425413    2.018    0.504
        64 -10.1214     18.0765    222.5932   1.3882715623e+02   2.5632186614e+01    0.1243224    0.1028772  18.29 0.0005433045    1.397    0.284
        65 -10.1448     95.6547    111.9802   1.0196631146e+02   4.1334199525e+01    0.3365261    0.2919595 -33.01 0.0007420972    1.252    0.201
        66  -9.0071    136.8199    187.0960   1.0583758682e+02   1.7273297788e+01    0.1846482    0.1502294   1.05 0.0003409643    1.285    0.222
        67 -11.4953     63.3144    108.7292   1.1258749340e+02   4.7841111722e+01    0.8406255    0.5672669 -13.28  0.003509084    2.186    0.543
        68  -9.8243    134.4189    106.1975   8.9241693309e+01   3.4411385032e+01    0.3930435    0.1483713 -45.90  0.001311037    2.721    0.632
        69  -9.2362    219.8428     97.8030   7.1155825088e+01   1.7837088322e+01    0.1760063      0.15789 -15.16  0.000395524    1.156    0.135
        70  -9.1626    145.8388     82.8309   8.0024023012e+01   3.6308088938e+01    0.2097327    0.1756226 -72.71 0.0004424168    1.307    0.235
        71  -9.5926    127.3111     83.5578   8.4660085231e+01   4.0595230809e+01    0.3152664    0.1503765  56.42  0.001146175    2.225    0.551
        72 -13.4819    154.3195     61.2080   7.1932160361e+01   3.7890754083e+01     1.240473     1.121073 -19.50 0.0009261114    1.249    0.199
        73 -10.6558     25.6728    185.9837   1.3502915349e+02   3.2838959870e+01    0.2034795    0.1660316  34.42 0.0002851264    1.186    0.157
        74 -11.9610    170.8437     38.7966   6.2759887895e+01   3.6954707328e+01    0.4011484    0.3782721 -76.57 0.0008643183    1.085    0.079
        75 -12.5925    121.1636     60.0552   7.8690534383e+01   4.6404828572e+01    0.6822643    0.4562393 -36.11   0.00312143    1.576    0.366
        76 -10.5211    101.5809     61.6516   8.4710322615e+01   5.0917086340e+01    0.7524727    0.2742691  55.76  0.002391102    2.995    0.666
        77  -8.5657    242.4237    247.4290   9.4967924819e+01  -5.2338846415e+00    0.1022995   0.07049769   1.39 6.595215e-05    1.034    0.033
        78  -8.9812    146.2018    246.9921   1.1225826343e+02   5.8612439451e+00    0.1514385     0.128111   7.83  0.000544448    1.162    0.139
