#   1 NUMBER                 Running object number                                     
#   2 MAG_AUTO               Kron-like elliptical aperture magnitude                    [mag]
#   3 X_IMAGE                Object position along x                                    [pixel]
#   4 Y_IMAGE                Object position along y                                    [pixel]
#   5 X_WORLD                Barycenter position along world x axis                     [deg]
#   6 Y_WORLD                Barycenter position along world y axis                     [deg]
#   7 A_WORLD                Profile RMS along major axis (world units)                 [deg]
#   8 B_WORLD                Profile RMS along minor axis (world units)                 [deg]
#   9 THETA_WORLD            Position angle (CCW/world-x)                               [deg]
#  10 FWHM_WORLD             FWHM assuming a gaussian core                              [deg]
#  11 ELONGATION             A_IMAGE/B_IMAGE                                           
#  12 ELLIPTICITY            1 - B_IMAGE/A_IMAGE                                       
         1 -13.6035    219.5609      6.9842   3.7450057883e+01   2.9508194333e+01     1.485938     1.041886  52.92  0.005584329    1.611    0.379
         2 -14.3233    193.6689     37.7670   4.8316177397e+01   3.2162225805e+01     2.838638     1.720002  22.97   0.01164064    2.781    0.640
         3 -10.5186    189.4991     14.5570   4.2437222245e+01   3.5947766427e+01    0.2404765    0.2209207 -84.15  0.000777009    1.030    0.030
         4  -9.9309     72.5383    245.4902   1.1807076563e+02   1.4944164367e+01    0.3233407    0.1426266  61.29  0.001422291    2.308    0.567
         5 -19.5249     15.6829    144.9435   1.2096875584e+02   4.2620022256e+01     19.06933     4.508924 -76.03   0.06547265    3.957    0.747
         6  -9.6799     56.4002    217.9560   1.1880082319e+02   2.2198973698e+01    0.2552717    0.1337873  78.03  0.001098223    2.067    0.516
         7 -10.2192     48.6641    218.1241   1.2031049593e+02   2.3108963195e+01    0.2463015     0.152632  62.01  0.001530507    1.358    0.264
         8 -10.7264    248.1310    233.1338   8.3697570424e+01  -9.4797104529e+00    0.1912858    0.1292827   6.73  0.001251183    1.236    0.191
         9 -10.3740     59.0413    230.1307   1.1930618391e+02   1.9497369213e+01    0.1722672    0.1346292  84.56 0.0003636937    1.160    0.138
        10  -9.9968    183.9199    211.2574   9.1842347228e+01   3.4888142254e+00     0.328768    0.1941649 -47.53  0.001666374    2.009    0.502
        11 -10.0834     56.7099    209.8710   1.1802811333e+02   2.3798908256e+01    0.2789703    0.1666184 -63.14   0.00101923    1.733    0.423
        12  -9.5303    174.2198    211.5934   9.3846921102e+01   5.0930953923e+00    0.1981439    0.1130574  30.43 0.0009594529    1.693    0.409
        13 -10.7522     50.3332    224.6998   1.2050893919e+02   2.1613960464e+01     0.203163    0.1271058  76.67 0.0006996057    1.429    0.300
        14  -9.7269     72.0820    250.2101   1.1852946505e+02   1.4180967187e+01    0.1424895    0.1077657  71.52 0.0002687156    1.138    0.122
        15 -10.7271    150.1879    209.0713   9.8384914802e+01   9.6766529268e+00     0.343548    0.2149419  33.64  0.001760475    1.504    0.335
        16 -10.0338    189.9797    208.7541   9.0206677276e+01   2.8613500784e+00    0.1817109    0.1010644  37.50 0.0006448877    1.611    0.379
        17 -13.0262     32.3863    206.5829   1.2257391806e+02   2.7302320614e+01    0.3371215    0.1616745  55.30  0.001412202    1.807    0.446
        18 -10.8916     66.0944    204.5676   1.1559842185e+02   2.3697779306e+01    0.2889983    0.1622744 -58.51  0.001015962    1.895    0.472
        19  -8.7914     70.4983    199.8727   1.1417635728e+02   2.4102537376e+01    0.1671769    0.1401554 -84.50 0.0006288373    1.139    0.122
        20  -8.6399    224.1666    206.4112   8.3242359502e+01  -2.4457455818e+00    0.1642604    0.1132844  41.72 0.0004996227    1.553    0.356
        21  -7.8487     76.5786    224.4838   1.1545384920e+02   1.8278405141e+01    0.1203573   0.09891135  66.11 0.0008050785    1.020    0.020
        22 -10.9155    193.4474    195.9900   8.7215738858e+01   4.3643795350e+00     1.114465    0.5244555 -58.18  0.003434886    5.613    0.822
        23  -7.7453     93.3672    205.2698   1.0992441734e+02   1.9705414310e+01    0.1194827    0.1024247  -0.15 0.0006480313    1.663    0.399
        24 -10.2805     96.8613    201.2969   1.0867319778e+02   1.9997331442e+01    0.4038959    0.2551385 -45.91   0.00209313    1.947    0.486
        25 -12.5329     55.8835    198.0961   1.1708813140e+02   2.6376163170e+01    0.6438332    0.2696371 -53.79  0.002944665    2.757    0.637
        26 -10.1509     61.0356    188.0096   1.1492788960e+02   2.7926631942e+01    0.2322439    0.1675282 -68.26 0.0003021136    1.338    0.253
        27 -12.2461     66.6638    184.7015   1.1329400695e+02   2.7930204766e+01    0.6905969    0.5900101 -73.96  0.003484906    1.168    0.144
        28 -10.1383    204.7280    199.5664   8.5655092728e+01   1.8139138753e+00    0.2621176    0.1168349  35.07  0.001134988    2.133    0.531
        29 -10.3035    150.6921    196.0164   9.6145727274e+01   1.2028113705e+01     0.256313    0.2323203 -69.09  0.001519874    1.255    0.203
        30  -9.2607     65.0000    223.8701   1.1764731700e+02   1.9939673556e+01    0.1625147   0.06264489 -69.19 0.0007601103    2.657    0.624
        31  -9.4940     81.9505    194.6913   1.1109588581e+02   2.3615486104e+01    0.2336384    0.1901232  79.10 0.0007828994    1.129    0.114
        32 -10.3178     95.1804    188.2988   1.0729999271e+02   2.3025749125e+01    0.4678264    0.3022552  81.67  0.002266978    1.909    0.476
        33 -10.9831     99.0736    181.1473   1.0536803862e+02   2.3988222028e+01    0.5230288    0.3007269 -50.82  0.001980603    1.851    0.460
        34  -8.6312    156.5074    189.9402   9.3828579934e+01   1.2145690422e+01    0.1939417    0.1399001 -46.33 0.0004696184    1.494    0.331
        35 -10.7217    149.3786    187.8972   9.5024852569e+01   1.3847355656e+01    0.3558985    0.1924621  41.68  0.001598356    1.717    0.418
        36  -9.2444    238.6716    185.3339   7.6587473494e+01  -1.6737047174e+00    0.1174748    0.1066449 -66.77 0.0007051867    1.721    0.419
        37 -10.6734    150.6521    179.2066   9.3160792162e+01   1.5354583876e+01    0.4480129      0.28896 -71.90  0.001519412    2.384    0.581
        38 -10.4319    139.7991    172.0615   9.4293741231e+01   1.8874202515e+01    0.4847792    0.3243122  66.93  0.002029419    2.005    0.501
        39 -11.1022    144.6403    179.7380   9.4613277318e+01   1.6366225505e+01    0.3468143    0.3171499 -67.36 0.0009148649    1.184    0.155
        40 -10.0453    142.4948    176.5131   9.4506629635e+01   1.7432979131e+01    0.2588767    0.2306642  17.97  0.000885965    1.192    0.161
        41 -10.3821    189.1252    177.3002   8.4475053468e+01   8.4301316700e+00    0.5831048    0.3769079 -58.41  0.002401827    2.183    0.542
        42  -9.7095     37.6831    176.4797   1.1891738684e+02   3.3262423078e+01    0.3280618    0.1426119  50.44  0.001587637    2.216    0.549
        43  -9.9610     58.1865    175.9671   1.1419634236e+02   3.1001790562e+01    0.2083245    0.1657798  59.20 0.0005105853    1.186    0.157
        44 -10.4866     44.1672    173.0486   1.1709882499e+02   3.3334409364e+01    0.4774125    0.2255088  29.77  0.001014374    2.466    0.595
        45  -8.3150     36.3340    223.8192   1.2304368139e+02   2.3411043459e+01    0.1971488    0.1117618  62.95 0.0007625626    1.454    0.312
        46  -9.7454     55.2990    222.8919   1.1942549613e+02   2.1360128354e+01    0.1662445    0.1169731  67.45 0.0009853018    1.168    0.144
        47  -9.0706    240.4668    169.4659   7.3050728754e+01   4.5608800326e-01    0.1351063    0.1146505  -8.30 1.629551e-05    1.008    0.008
        48 -11.5433     94.6647    151.8414   1.0160547933e+02   3.1457000727e+01     0.665541     0.487882 -36.23  0.003306844    1.627    0.385
        49 -10.5848    134.2784    147.6337   9.0680802773e+01   2.5291386562e+01     1.042722    0.2712923 -52.96  0.002745149    4.605    0.783
        50  -9.8511    133.0000    140.9958   8.9540096392e+01   2.7041176989e+01    0.5731869    0.2032405 -54.65  0.001747963    3.368    0.703
        51  -9.8103    187.4897    152.0560   7.9442261988e+01   1.3505601188e+01    0.2365907    0.2175177  77.10    0.0010717    1.316    0.240
        52  -8.4340    139.2347    150.9424   9.0176354610e+01   2.3577149293e+01    0.1934557    0.1263643 -50.27 0.0004132333    1.551    0.355
        53  -9.2354    112.9160    150.8990   9.6734049744e+01   2.8561948634e+01    0.2385741    0.1781771  81.95 0.0007487488    1.672    0.402
        54  -9.3701    174.5103    148.7002   8.1481856354e+01   1.6848521066e+01    0.3267587    0.2449143 -77.08  0.001029243    1.987    0.497
        55  -9.1538    109.1897    147.3092   9.6976578803e+01   3.0065196789e+01    0.2282349    0.2023902 -69.86 0.0003163152    1.111    0.100
        56  -9.3841     87.4823    144.1899   1.0208749884e+02   3.4430834999e+01    0.3240224    0.2158922  80.35  0.001454176    1.989    0.497
        57 -10.5546    106.7325    137.9534   9.5695978207e+01   3.2709714061e+01    0.5309238    0.3230198 -37.22  0.002260185    1.931    0.482
        58 -11.6633     94.7273    137.7461   9.8887872874e+01   3.4818646229e+01    0.2830397     0.257981 -45.00 0.0008630477    1.132    0.117
        59 -10.4761    105.8880    130.6670   9.4342544868e+01   3.4588543483e+01    0.3922981    0.3207857 -60.78  0.001202695    1.198    0.165
        60  -9.6255    136.0000    129.9595   8.6219410722e+01   2.8925746793e+01    0.4254652   0.08747065 -46.99  0.001035795    4.794    0.791
        61 -10.4017    114.5533    129.0819   9.1631516676e+01   3.3368477296e+01    0.4117459    0.3375848  34.40  0.001520764    1.288    0.224
        62  -8.9640    160.6438    127.3173   7.9554931112e+01   2.4249323107e+01    0.1609331    0.1264492 -88.89 0.0004871365    1.750    0.428
        63 -10.7125    119.9387    123.6854   8.8903919845e+01   3.3588210253e+01    0.5315796    0.2614058 -37.81   0.00194095    2.346    0.574
        64 -10.4226    101.8802    124.9249   9.4155864192e+01   3.6665276942e+01    0.3031874    0.2531075 -19.90  0.000731372    1.409    0.290
        65  -8.9832    135.0000    119.9649   8.4006725089e+01   3.1373023050e+01    0.2596738   0.08785881 -45.88 0.0007413795    2.895    0.655
        66  -9.3519    109.8304    118.2872   9.0358992022e+01   3.6780951543e+01    0.2368377    0.2001073 -62.13 0.0003091957    1.198    0.165
        67 -10.0090    231.1954    113.7075   6.2170533626e+01   1.1454729155e+01    0.2683807    0.2610711  -5.22 0.0007514755    1.097    0.089
        68  -9.1304    167.7100    112.6571   7.4174273115e+01   2.5713701532e+01    0.3197657    0.2292413 -76.99  0.001313005    2.095    0.523
        69 -11.0677    118.6869    110.6747   8.5963291185e+01   3.6814683608e+01    0.6356487    0.4219645  63.91  0.002650348    2.027    0.507
        70  -9.8599    134.2516    104.7527   8.0177826836e+01   3.4878195084e+01     0.478067    0.1299406 -46.27  0.001314878    3.709    0.730
        71  -9.4648    205.5084    110.0499   6.5745277973e+01   1.7618577396e+01    0.2800205    0.2307801  47.99 0.0007387481    1.284    0.221
        72  -9.5903     65.8960    100.0417   9.9140271252e+01   4.8241657629e+01    0.2347729    0.2109641  31.22  0.001135694    1.243    0.196
        73  -9.7660    168.1393    233.1027   9.8406291135e+01   2.6351122671e+00    0.2635929    0.1680735  46.52 0.0009886816    1.474    0.322
        74  -9.5367     61.4302    219.8876   1.1798864368e+02   2.1180670280e+01    0.1443165   0.09903436 -56.28 0.0005134113    1.761    0.432
        75  -8.5234    184.3453     77.2922   6.0985347424e+01   2.8453509342e+01     0.155778    0.1183343  21.30 0.0007028444    1.662    0.398
        76  -9.1330     67.1065     71.0270   9.0805736607e+01   5.4606917362e+01    0.2051181    0.1894884 -32.08 0.0006116477    1.076    0.071
        77 -11.3834    248.7639    244.3208   8.5438777682e+01  -1.0844495218e+01     0.292937    0.2086108 -17.72  0.002074406    1.361    0.265
        78 -12.6607    178.2891     51.8724   5.4763046774e+01   3.4041591818e+01    0.7689793    0.6625473  18.78 0.0007542707    1.342    0.255
        79  -7.8179     84.2385    245.7220   1.1596360556e+02   1.3331363091e+01    0.1108451   0.07079059  65.77 -0.0001541599    1.442    0.306
        80  -9.6726     80.8183     15.4614   6.4449537911e+01   6.1532556119e+01    0.2406691    0.1248754  54.79  0.001133904    2.119    0.528
