#   1 NUMBER                 Running object number                                     
#   2 MAG_AUTO               Kron-like elliptical aperture magnitude                    [mag]
#   3 X_IMAGE                Object position along x                                    [pixel]
#   4 Y_IMAGE                Object position along y                                    [pixel]
#   5 X_WORLD                Barycenter position along world x axis                     [deg]
#   6 Y_WORLD                Barycenter position along world y axis                     [deg]
#   7 A_WORLD                Profile RMS along major axis (world units)                 [deg]
#   8 B_WORLD                Profile RMS along minor axis (world units)                 [deg]
#   9 THETA_WORLD            Position angle (CCW/world-x)                               [deg]
#  10 FWHM_WORLD             FWHM assuming a gaussian core                              [deg]
#  11 ELONGATION             A_IMAGE/B_IMAGE                                           
#  12 ELLIPTICITY            1 - B_IMAGE/A_IMAGE                                       
         1 -13.9995     68.7782    144.4782   9.7633505918e+01   3.7354830214e+01     4.099712      2.16676  75.09  0.002822969    4.171    0.760
         2 -13.5922    204.3782     41.7452   3.9858401804e+01   2.9642162746e+01     1.534616     1.281243  14.47  0.005650185    1.717    0.418
         3 -13.4425    216.5313     30.6804   3.6144114623e+01   2.8447298156e+01    0.9191239    0.7842792  31.61     0.004031    1.660    0.398
         4 -12.0370    245.1642      7.7709   2.9418507618e+01   2.5382934589e+01    0.6514975    0.3848276 -26.65   0.00411023    1.977    0.494
         5 -12.0492    239.3806      6.2454   2.9440922947e+01   2.6616241616e+01    0.6137273    0.3536444 -37.14  0.003974578    1.587    0.370
         6 -10.1669      2.0671      3.8631   8.6997946057e+01   7.6009813277e+01    0.3219173    0.1111205 -41.29   0.00156406    2.497    0.600
         7  -9.3382     47.9896      2.4954   5.8593582850e+01   6.9599745701e+01    0.1827251    0.1507631   2.44 0.0005359026    1.178    0.151
         8  -9.0921     56.5601      1.6857   5.4763775258e+01   6.8008663888e+01    0.1487513    0.1152838 -28.69 0.0009206294    1.499    0.333
         9 -10.3616    184.2936    212.9887   8.0516905125e+01   4.3231320743e+00    0.1874344    0.1559165 -10.77 0.0008048178    1.084    0.077
        10 -15.6113     37.7180    195.8282   1.1303844713e+02   2.8337421255e+01     10.97379     4.141299  79.12   0.02806183    5.496    0.818
        11 -16.6864     15.7856    243.0748   1.2105156573e+02   2.0363813282e+01     6.849737     3.309754  20.87    0.0366681    2.401    0.584
        12  -9.4882    111.0291    203.3018   9.5439673891e+01   1.7101447960e+01    0.1983498    0.1648867  34.96 0.0004500297    1.103    0.093
        13 -10.7621    193.1166    195.0975   7.5620727115e+01   6.0677193335e+00     0.865885    0.4644329 -61.67    0.0028143    5.715    0.825
        14  -9.4450    122.2997    198.9496   9.2030121933e+01   1.6308839261e+01    0.2864119    0.2443154  84.88  0.001231742    1.484    0.326
        15  -8.4632     67.4836    197.4608   1.0562146969e+02   2.4491361833e+01    0.1366976    0.1221312  55.68 3.466969e-05    1.033    0.032
        16  -9.9610    147.3529    187.5790   8.4123053513e+01   1.4665279247e+01    0.4529627    0.2887897 -75.43  0.001795202    3.157    0.683
        17 -10.2539     80.9995    182.0151   1.0006432678e+02   2.6302232702e+01    0.3218355    0.3145207  51.16 0.0009806107    1.034    0.033
        18  -9.2930     99.3877    180.7067   9.4941012088e+01   2.3894825783e+01    0.2565477    0.2395727 -16.54  0.000675216    1.134    0.118
        19 -10.0810    186.8848    175.1823   7.3116467741e+01   1.0565121981e+01     0.339709    0.2929341 -44.66  0.001205261    1.298    0.230
        20  -8.5792     86.8449    176.8120   9.7702912296e+01   2.6702568016e+01    0.1970861     0.160389  58.54 0.0003613365    1.278    0.217
        21 -11.4567     64.6628    172.6277   1.0324920822e+02   3.0798819960e+01    0.4683065    0.3119364 -31.90  0.002151519    1.925    0.481
        22 -11.2603     69.2667    168.0396   1.0129190771e+02   3.1328647569e+01    0.3713236    0.2946731 -29.03 0.0007017417    1.480    0.324
        23 -12.9757     77.8922    158.3706   9.7268336956e+01   3.2535294792e+01     2.266174    0.8442504  51.78  0.001230056    4.206    0.762
        24  -9.5025    119.5072    245.5765   9.9046302519e+01   7.7347131569e+00    0.2226625    0.1240854 -53.31  0.001195834    2.125    0.529
        25 -10.3329    240.0735    169.3057   6.2425840974e+01   3.5237302293e+00    0.1677826    0.1435573  -7.76 0.0005518681    1.123    0.109
        26  -8.1796    110.7312    167.3628   8.9611606392e+01   2.5189604388e+01    0.1490685    0.1166008  77.42 0.0005973302    1.651    0.394
        27  -8.4345    102.9671    165.0242   9.1294723242e+01   2.7020619028e+01    0.1747704    0.1649161  31.33 0.0003057156    1.034    0.033
        28 -10.8176     34.3229    160.6404   1.1047394691e+02   3.7298418481e+01    0.4537144    0.2571473  40.14  0.001372623    1.728    0.421
        29 -13.5789     48.4349    187.5697   1.0948018489e+02   2.9123650771e+01     1.523237     1.119686  66.14  0.008142274    1.344    0.256
        30 -11.5365     85.8135    152.9076   9.3975258145e+01   3.2710310113e+01    0.6432706    0.4509736 -18.64  0.002183498    1.915    0.478
        31 -10.4542    133.6828    144.9904   7.8994270473e+01   2.6240877690e+01     1.209795    0.3012682 -54.24  0.002637949    6.835    0.854
        32  -9.0127    174.9046    149.1861   7.0249488700e+01   1.7588859697e+01    0.2112857    0.2026131 -83.67 0.0006479922    1.255    0.203
        33 -12.8147     66.1158    154.8070   1.0018895867e+02   3.5083516104e+01    0.5960973    0.4362384 -50.84   0.00112138    1.369    0.270
        34  -9.9241     32.4358    143.8678   1.0903841859e+02   4.1789290148e+01    0.3911508    0.2427106  61.16  0.001703958    1.795    0.443
        35 -10.3062    100.6678    138.7549   8.6757510736e+01   3.3753825502e+01     0.611491    0.3790357 -20.22  0.002308848    2.549    0.608
        36 -11.6150     87.6579    138.1794   9.0557328594e+01   3.6091292875e+01    0.3108888    0.2819306 -36.82  0.000425191    1.116    0.104
        37  -9.9684    105.9596    130.8239   8.3432756885e+01   3.4719240779e+01    0.3622476     0.338602 -40.42  0.001494199    1.061    0.057
        38  -9.6088    110.1992    129.5927   8.1910169257e+01   3.4226819507e+01    0.3373275    0.2643184   7.86 0.0008734247    1.525    0.344
        39  -9.9119     44.2390    130.2950   1.0319027585e+02   4.4107073272e+01    0.3541632    0.2065149 -84.57  0.001514746    2.058    0.514
        40 -10.0057    136.0000    129.9897   7.4955241963e+01   2.9125969421e+01    0.3611199    0.1861724 -56.58  0.001333596    2.362    0.577
        41  -9.2839    133.3369    128.6698   7.5327514884e+01   2.9948322778e+01    0.1618339    0.1533858  -9.30 0.0008475489    1.053    0.051
        42 -13.3715     15.8715    216.0730   1.1966742595e+02   2.5904801158e+01    0.9234499    0.5017398  25.59  0.003008342    1.888    0.470
        43 -10.0542     97.3888    125.3614   8.4742629355e+01   3.7582896172e+01    0.3003474    0.2590625  -9.40 0.0007581617    1.283    0.221
        44 -10.6271     44.4914    123.3517   1.0191751561e+02   4.5881797572e+01    0.4178009    0.2391106 -57.91  0.001132995    1.584    0.369
        45  -9.0555    106.9262    118.6005   8.0221141012e+01   3.7427480783e+01    0.2371179    0.2020891 -33.00  0.000368531    1.196    0.164
        46 -10.0617    231.2933    113.7773   5.2619695030e+01   1.3715138201e+01    0.2541559    0.2231466 -43.40 0.0007565057    1.078    0.072
        47  -9.7223     22.0139    114.2520   1.0847086017e+02   5.0376715765e+01    0.1771589     0.175158 -47.86 0.0003688751    1.105    0.095
        48  -8.8957    135.0000    112.9886   7.0990276020e+01   3.3021034920e+01    0.2622369   0.08663388 -44.53 0.0008093971    2.991    0.666
        49  -9.3188    205.3013    110.3683   5.5799206649e+01   1.9010617703e+01    0.2754925     0.205804  36.71 0.0009704838    1.549    0.355
        50  -9.6168     33.7633    109.3632   1.0329316650e+02   5.0606881653e+01    0.2982232    0.2069196  75.24 0.0009355214    1.800    0.444
        51  -9.4416     27.9246    107.3722   1.0514707228e+02   5.1653752355e+01    0.2668931    0.1689306  -8.65  0.001268898    1.957    0.489
        52 -12.3779    248.0886     98.2657   4.7257633671e+01   1.3265894099e+01    0.7449701    0.3307048 -42.68   0.00373538    1.818    0.450
        53  -8.9907     32.9718     96.4819   1.0108599261e+02   5.3945855365e+01    0.1978667    0.1006374  47.49 0.0008096406    2.489    0.598
        54  -9.4339     39.1406    101.9031   9.9773258288e+01   5.1958209688e+01    0.2133147    0.1872575  68.04  0.000606915    1.299    0.230
        55  -8.5348     18.3224     90.6352   1.0594540123e+02   5.6644303583e+01    0.1387906   0.09790648  65.79  0.000703953    1.788    0.441
        56  -8.7752    151.9753     83.9526   5.9129722787e+01   3.5023757250e+01    0.2366828    0.1766966 -76.00 0.0005975373    1.714    0.417
        57  -9.1959     72.5151     83.2773   8.2029292909e+01   5.1816931242e+01    0.3090807    0.2041093  58.69 0.0008033215    2.102    0.524
        58  -8.7920    160.2135     83.0602   5.7173552715e+01   3.3311123942e+01    0.1950556    0.1159198 -37.37 0.0005445993    1.666    0.400
        59  -8.2998    184.5317     76.9711   5.1176018721e+01   2.8895987675e+01    0.1788107    0.1234489  -6.22 0.0006026531    2.257    0.557
        60  -8.8745     92.1172     66.7871   6.9779684358e+01   5.1520891386e+01    0.2177346    0.1987921  66.72 0.0005852334    1.245    0.197
        61 -10.5037     13.2646     59.8182   1.0146447222e+02   6.4325698039e+01    0.2630102    0.2483201 -85.29 0.0009313871    1.288    0.223
        62 -12.6896    194.6855     48.5539   4.2615165940e+01   3.0855030128e+01    0.7083929    0.6616469   3.38  0.002352841    1.349    0.259
        63 -14.8858      9.4082    207.4561   1.2065772639e+02   2.8357648872e+01      1.82105     1.268033 -78.85  0.006056689    1.376    0.273
        64  -8.2743     71.7562     54.7738   7.2736210382e+01   5.7746017441e+01    0.2174945    0.1087149  51.13 0.0005719734    2.409    0.585
        65  -9.1619     48.2639     42.5883   7.7921811339e+01   6.3948181808e+01    0.3460809    0.1864185  51.97  0.001443998    2.892    0.654
        66 -10.8315     94.9702    242.2290   1.0403313556e+02   1.1564988347e+01    0.4319806    0.1728114 -58.05  0.001994752    2.849    0.649
        67 -10.3697      2.1374     25.2431   9.7014467499e+01   7.2274101608e+01    0.3791761   0.04959022 -56.03   0.00121654    5.077    0.803
        68  -8.9898    198.0862     23.7173   3.6229565028e+01   3.3167726091e+01    0.1934081    0.1606631 -11.65 0.0006710886    1.588    0.370
        69  -8.7542    189.4338     14.7706   3.4881468755e+01   3.6046242135e+01     0.150117    0.1201565 -16.94  0.000938806    1.586    0.369
        70  -9.3097     32.9719    210.1873   1.1535307485e+02   2.5551703505e+01    0.1997492     0.162984  84.74  0.001277986    1.156    0.135
        71  -9.9248    117.8696    237.2269   9.8398434599e+01   9.4402544720e+00    0.2315597    0.1719105 -60.64  0.001335054    1.647    0.393
        72  -8.6791    169.0152    235.7472   8.7233735031e+01   2.7139954928e+00     0.170305    0.1367532   7.38 0.0003901888    1.043    0.042
        73  -8.5775     88.8440    210.1637   1.0180212822e+02   1.8815391530e+01     0.170848    0.1527517 -20.92 0.0004400134    1.280    0.219
