#   1 NUMBER                 Running object number                                     
#   2 MAG_AUTO               Kron-like elliptical aperture magnitude                    [mag]
#   3 X_IMAGE                Object position along x                                    [pixel]
#   4 Y_IMAGE                Object position along y                                    [pixel]
#   5 X_WORLD                Barycenter position along world x axis                     [deg]
#   6 Y_WORLD                Barycenter position along world y axis                     [deg]
#   7 A_WORLD                Profile RMS along major axis (world units)                 [deg]
#   8 B_WORLD                Profile RMS along minor axis (world units)                 [deg]
#   9 THETA_WORLD            Position angle (CCW/world-x)                               [deg]
#  10 FWHM_WORLD             FWHM assuming a gaussian core                              [deg]
#  11 ELONGATION             A_IMAGE/B_IMAGE                                           
#  12 ELLIPTICITY            1 - B_IMAGE/A_IMAGE                                       
         1 -12.3907    199.3815     42.7863   4.2336641790e+01   3.0462765023e+01    0.9387208    0.8509299 -78.03  0.003394495    1.091    0.083
         2 -12.4094    209.2148     33.6256   3.9043508183e+01   2.9452193590e+01    0.7259457     0.680048  47.52  0.001449872    1.397    0.284
         3 -11.3910    237.2064      8.2644   3.1209278038e+01   2.6494772032e+01     0.662675     0.445724 -30.58  0.004104009    1.799    0.444
         4 -11.4094    231.6381      5.8725   3.1118941693e+01   2.7903873164e+01    0.6501296    0.4434815 -27.96  0.004109236    1.860    0.462
         5 -10.1820     32.6938     10.3975   7.2589781045e+01   6.9971207082e+01    0.3264467   0.09540191 -36.06   0.00140124    3.394    0.705
         6  -9.6248     22.1920     11.3982   7.8372048927e+01   7.1161534025e+01     0.210529   0.07565715 -36.63   0.00101802    2.606    0.616
         7  -9.1216     42.6664      8.6744   6.7193473334e+01   6.8731077731e+01    0.1248764   0.07651197  11.90 0.0007051268    1.713    0.416
         8 -10.9679    144.1149    226.1002   9.3396881163e+01   6.4478329026e+00    0.4696257    0.3348371  77.28  0.002380438    2.109    0.526
         9  -9.9193     78.6455    239.4570   1.0904715358e+02   1.3839021149e+01    0.4556424    0.2680914 -42.81  0.002298933    2.545    0.607
        10  -9.1767     72.2659    250.3595   1.1135661815e+02   1.2584803396e+01    0.2028619     0.134663  42.51 0.0004994356    1.285    0.222
        11  -9.1274     72.7451    245.4542   1.1082391081e+02   1.3467875983e+01    0.4677874    0.2058107  59.73  0.001904286    2.483    0.597
        12 -12.2656     43.8767    196.7003   1.1248983270e+02   2.7762451757e+01     1.442151    0.7851334  62.19  0.001461381    1.827    0.453
        13 -16.4493     11.5018    243.2560   1.2256247679e+02   2.1233243940e+01     4.887959     2.081869  24.46   0.02347032    3.464    0.711
        14  -8.9553     64.4528    205.2379   1.0859854750e+02   2.3151987200e+01     0.293319    0.2335668  82.17  0.001733405    1.154    0.133
        15  -9.7568    111.1158    203.6422   9.7464149084e+01   1.6459686602e+01    0.2292192    0.1864976 -85.04 0.0005939517    1.339    0.253
        16  -9.3876    122.5288    199.1060   9.4093625043e+01   1.5544167063e+01    0.3419918    0.2401814 -86.59  0.001330536    1.896    0.473
        17  -8.6529     59.4170    197.0599   1.0886682169e+02   2.5723857114e+01    0.1981199    0.1800794  37.05  0.001222307    1.260    0.207
        18  -9.1446     49.5132    250.6424   1.1584560348e+02   1.5475018839e+01    0.2027377   0.09500989  37.52  0.001077543    1.878    0.467
        19  -8.7398    191.7679    192.3592   7.7617910432e+01   4.8217320799e+00    0.2794422    0.1722207 -73.23 0.0009636047    4.420    0.774
        20 -11.8083     55.8311    185.4213   1.0838936974e+02   2.8968118761e+01    0.8071635    0.6473267  77.74  0.003693549    1.135    0.119
        21  -8.9853    194.6125    199.1825   7.8312337287e+01   3.0970832217e+00    0.1964635    0.1189624 -31.52 0.0009564228    1.713    0.416
        22 -15.7539      6.6035    203.9225   1.2134855417e+02   3.0013979784e+01     19.99506     1.087538 -76.27  0.008719956   12.786    0.922
        23  -8.9538     99.4966    180.9538   9.6776427243e+01   2.3589558097e+01    0.2566838    0.2092688  16.02 0.0006904894    1.492    0.330
        24  -8.8721     41.3066    178.9242   1.1125867121e+02   3.2322579036e+01      0.22033    0.2098505 -70.78 0.0003907769    1.219    0.179
        25  -8.8903     44.5139    176.5042   1.1017866219e+02   3.2541530098e+01    0.3166212    0.1912525  40.54  0.001624089    1.643    0.391
        26  -9.2262    186.8755    175.0300   7.5257646395e+01   9.0002749136e+00    0.3190946    0.2984936 -56.75  0.001508095    1.183    0.154
        27 -10.6140    103.9032    172.0769   9.4160643844e+01   2.4975894895e+01    0.5267621    0.2867561  41.75  0.002247006    1.783    0.439
        28  -8.3315     34.2284    171.4258   1.1222551905e+02   3.4948084246e+01    0.2410515    0.1698295  64.23  0.001322238    1.362    0.266
        29 -11.1340     81.9969    158.8015   9.7674901003e+01   3.1843848674e+01    0.7686688    0.5249764  69.70  0.001028863    1.719    0.418
        30 -10.5129     69.3866    171.5125   1.0308770644e+02   3.0546602507e+01    0.5008273     0.305373 -35.53  0.001969462    2.355    0.575
        31 -11.8257     70.4000    153.4005   9.9975592412e+01   3.4947033814e+01    0.5597934    0.4544349 -52.83 0.0009107771    1.240    0.193
        32 -12.7425     68.9625    144.4393   9.8835599389e+01   3.7423718737e+01     1.959574     1.021353  76.02   0.00621308    4.065    0.754
        33  -9.3845     32.6650    155.9317   1.1085529345e+02   3.8962478857e+01    0.3491362    0.1678209 -60.60  0.001619439    1.827    0.453
        34 -10.3952     89.1483    151.8975   9.4456082798e+01   3.2426760139e+01    0.6423029    0.4421539 -19.91  0.002129286    2.256    0.557
        35  -9.7978    133.3276    142.1523   8.0554047328e+01   2.6623765051e+01     0.780901     0.214852 -55.24  0.001897508    5.121    0.805
        36  -9.6657     53.2144    148.3459   1.0404413899e+02   3.8545945658e+01    0.4443121     0.247729  69.19  0.001837686    2.420    0.587
        37  -8.9333     38.9634    146.5807   1.0787359131e+02   4.0653157087e+01     0.261173     0.184554 -81.60 0.0007033659    1.317    0.241
        38 -10.2875     29.0427    144.0057   1.1036984559e+02   4.2314575859e+01    0.4007198    0.3328253  59.32  0.001981241    1.245    0.197
        39  -9.0764    102.7390    138.4114   8.7926577111e+01   3.3420001446e+01    0.5173443    0.3284723 -23.89  0.001990234    2.523    0.604
        40  -9.1971    105.9203    131.1266   8.5414477982e+01   3.4608421757e+01    0.4255124    0.3072547 -58.92  0.001434793    1.384    0.278
        41 -10.5686     90.2496    137.6022   9.1317878262e+01   3.5812516402e+01    0.2976487    0.2630874 -33.81 0.0005958856    1.234    0.190
        42 -10.5215     73.8123    166.8753   1.0121554967e+02   3.1062203471e+01    0.4457823    0.3590208 -78.24  0.001004626    1.187    0.158
        43 -10.3933     32.4658    129.6449   1.0733059552e+02   4.5590987655e+01    0.4868465     0.174479 -60.66  0.001968116    2.252    0.556
        44  -9.4003    111.8979    129.0658   8.3262321060e+01   3.3966377450e+01    0.3478854    0.2341388  29.02  0.001511505    1.718    0.418
        45  -9.2882    135.4308    128.1547   7.6767094612e+01   2.9420998772e+01    0.4012207    0.1513536 -50.38   0.00130654    2.698    0.629
        46  -8.3816     41.0139    128.2119   1.0445163557e+02   4.5069565169e+01    0.1674507    0.1136183  27.00 0.0003431558    1.668    0.401
        47  -9.3515     98.9838    124.8287   8.5957000595e+01   3.7415327279e+01    0.3023271    0.2510265  -6.35  0.000740885    1.503    0.335
        48  -9.5742    117.4506    123.5308   8.0408185659e+01   3.4183087301e+01    0.4835255    0.2528562  24.98  0.001594859    3.171    0.685
        49  -7.7850     89.3454    122.6796   8.8320405876e+01   3.9647888455e+01    0.1581772    0.1173709  76.36 0.0007049537    1.730    0.422
        50 -10.0442     54.4656    117.6864   9.8214172816e+01   4.6120668512e+01    0.3457707    0.1884535 -57.40  0.001564315    1.637    0.389
        51 -10.0981     34.2327    118.8082   1.0501897221e+02   4.8123078501e+01    0.2915125    0.2078739  51.98  0.001576554    1.584    0.369
        52  -8.3464    107.9947    118.2589   8.1770458617e+01   3.7285760574e+01    0.2050196     0.200099  33.64  0.000288027    1.063    0.059
        53  -8.4385    125.6580    115.6732   7.6230282957e+01   3.4309062012e+01    0.1603716     0.125845  -3.98  0.000705121    1.738    0.425
        54  -8.9589    231.3934    113.7863   5.4170400243e+01   1.2143687658e+01    0.2512189    0.2316604 -48.05 0.0008167463    1.065    0.061
        55  -8.6166    134.6216    110.8264   7.2643252000e+01   3.3472868970e+01    0.2296805    0.1434435 -56.21 0.0007153094    1.729    0.422
        56  -8.3590    205.7002    110.0458   5.7432109900e+01   1.7974986616e+01    0.2094948    0.1745433 -44.69 0.0007832441    1.105    0.095
        57 -10.3499    115.3734    108.9107   7.7297531613e+01   3.7968555147e+01     0.400889    0.3577353 -28.46  0.002063693    1.190    0.160
        58 -10.1777     33.1522    109.1520   1.0365487566e+02   5.0606651027e+01    0.3470949    0.1970836  87.86   0.00148502    2.545    0.607
        59  -8.3862     59.9437    218.3603   1.1097898696e+02   2.0811873163e+01    0.1804072    0.1351426  51.15 0.0002986142    1.178    0.151
        60 -10.3855     44.8903    105.3922   9.8880346401e+01   5.0285528957e+01    0.3749698    0.2404593  48.49  0.001857719    1.833    0.454
        61  -7.6454    138.5768    105.2919   7.0194599734e+01   3.3799285173e+01    0.1651918    0.1212104  85.74 0.0001946803    1.867    0.464
        62 -10.8701     31.8057     96.9714   1.0173819804e+02   5.3667783632e+01    0.5021068    0.2711288 -33.90  0.002339216    2.088    0.521
        63  -8.7228    125.8289     93.6149   7.0286407079e+01   3.9064699748e+01    0.2156929    0.1439335  57.82 0.0005555493    1.629    0.386
        64  -9.2773    114.4747     83.4343   7.0443093349e+01   4.3595927399e+01    0.3831055    0.2529888 -79.67  0.001475531    2.703    0.630
        65  -8.1248     40.1004    213.0545   1.1483663568e+02   2.4465289265e+01    0.2124229    0.1184004  65.81  0.001105396    1.696    0.410
        66  -9.3553    142.4746    215.5152   9.2148761212e+01   8.7566092954e+00    0.2513828    0.1260624  27.00  0.001034488    2.321    0.569
        67 -11.7647    187.8433     51.5597   4.6055113584e+01   3.1900233481e+01    0.6045639    0.5298189  11.87  0.001837348    1.560    0.359
        68  -9.5001    119.8770    246.1317   1.0119907971e+02   6.5271098914e+00    0.1967559    0.1511271  54.21 0.0006402928    1.225    0.183
        69  -9.5923    101.4758    244.4728   1.0482279414e+02   9.5806885026e+00    0.2971843     0.129168 -66.87  0.001330581    2.894    0.654
        70  -8.0765     67.0157     51.9761   7.5469222162e+01   5.8610258994e+01    0.1618195    0.1452656   7.75 0.0006234818    1.034    0.033
        71  -8.6123     46.3652    211.0284   1.1328263867e+02   2.4167820982e+01    0.1885229    0.1713897  48.95 0.0004151591    1.243    0.195
        72  -8.0562     50.0172    213.4731   1.1269967826e+02   2.3168498547e+01    0.1804107    0.1168998  38.13 0.0004745926    1.509    0.337
        73  -9.1160     49.5074     14.4952   6.7065386347e+01   6.6978016027e+01    0.1214414   0.09927168  12.60 -4.276192e-05    1.008    0.008
        74  -9.4168     94.6790    238.3472   1.0557173421e+02   1.1761891567e+01    0.2637686    0.1869428  70.80 0.0008258598    1.481    0.325
        75  -9.6040     93.7720    235.0276   1.0539730024e+02   1.2553165933e+01    0.2502131    0.2092689  73.71 0.0007165751    1.164    0.141
        76  -9.1561     41.4237    207.8425   1.1409303102e+02   2.5482128656e+01    0.3930365    0.1905757  68.00  0.001401388    2.230    0.552
        77  -7.5673    168.6589    233.7083   8.9403893860e+01   1.1912078944e+00    0.1312697   0.09309708   4.50 0.0004851637    1.651    0.394
