#   1 NUMBER                 Running object number                                     
#   2 MAG_AUTO               Kron-like elliptical aperture magnitude                    [mag]
#   3 X_IMAGE                Object position along x                                    [pixel]
#   4 Y_IMAGE                Object position along y                                    [pixel]
#   5 X_WORLD                Barycenter position along world x axis                     [deg]
#   6 Y_WORLD                Barycenter position along world y axis                     [deg]
#   7 A_WORLD                Profile RMS along major axis (world units)                 [deg]
#   8 B_WORLD                Profile RMS along minor axis (world units)                 [deg]
#   9 THETA_WORLD            Position angle (CCW/world-x)                               [deg]
#  10 FWHM_WORLD             FWHM assuming a gaussian core                              [deg]
#  11 ELONGATION             A_IMAGE/B_IMAGE                                           
#  12 ELLIPTICITY            1 - B_IMAGE/A_IMAGE                                       
         1 -11.1505    181.7182     30.8746   7.0541229601e+01   3.6094753088e+01    0.9976038    0.7538714  45.65  0.005147036    1.399    0.285
         2 -11.4869    186.1725     22.3747   6.7419227466e+01   3.5944019514e+01     1.027325    0.7204458  21.15  0.001693981    1.951    0.488
         3  -9.4698    233.4652     10.4737   5.9345942536e+01   2.5459750025e+01    0.3326088    0.2335465 -30.29  0.001199027    1.511    0.338
         4  -8.0874    205.8651      5.7230   6.0599585406e+01   3.2679211754e+01    0.1912643    0.1634828  67.21 0.0005558752    1.188    0.158
         5  -9.3671    138.9148     35.3482   7.9645581350e+01   4.6606568707e+01    0.2414859    0.2278791 -11.50 0.0002832061    1.113    0.101
         6 -10.3115    147.9841    245.7493   1.2577661786e+02   5.1962735252e+00     1.120443     0.291019  34.26  0.002929918    7.489    0.866
         7 -10.1288     96.7610    249.4113   1.3548551334e+02   1.2519873822e+01    0.4294659    0.2391322  46.28  0.002619519    1.382    0.277
         8  -9.7953     88.8795    244.5777   1.3646976585e+02   1.4456555057e+01    0.2506398      0.17266  80.61 0.0004636318    1.447    0.309
         9 -13.3002     68.7220    213.2407   1.3744020003e+02   2.2999623786e+01     3.725906      1.91205  82.01   0.01221106    2.300    0.565
        10  -8.1832    103.1041    237.9781   1.3324351239e+02   1.3482566764e+01    0.1788882    0.1404094  56.96 0.0004258594    1.019    0.019
        11 -13.0505     26.2953    242.8965   1.4718088908e+02   2.2678300544e+01    0.9219577     0.659604   6.73  0.005492148    3.723    0.731
        12  -7.1189    119.3070    236.6434   1.3006352845e+02   1.1204418195e+01    0.1264789     0.079036  66.53  0.000704152    1.724    0.420
        13  -7.4396    172.2895    233.3761   1.1963258740e+02   3.0275174297e+00    0.1222462   0.08836176   9.99 0.0007019894    1.730    0.422
        14  -7.7163    132.3139    233.3317   1.2720984993e+02   9.6653138248e+00    0.1156578   0.09265051  13.85 0.0007045256    1.680    0.405
        15  -9.5458    118.4203    231.0525   1.2960155940e+02   1.2286139229e+01    0.4429226     0.130936  48.96  0.001736699    2.978    0.664
        16 -10.1304     96.9946    228.1603   1.3340124276e+02   1.6120277043e+01    0.4371421    0.2866547  59.23  0.002668228    1.286    0.222
        17 -12.6958     16.7702    228.3723   1.4805035002e+02   2.6288443177e+01     1.315155    0.7236562  36.28  0.008736182    1.978    0.494
        18  -9.3583    110.4122    225.3534   1.3050109397e+02   1.4550511737e+01    0.4283236    0.2347781 -65.72  0.001898387    2.148    0.534
        19 -11.5264     19.2945    238.4216   1.4811352970e+02   2.4215523620e+01    0.2974083    0.2007269  78.58    0.0013554    1.142    0.124
        20  -8.7547      5.5261    217.2448   1.4944694212e+02   2.9462690469e+01     0.290289    0.1725482  36.20  0.002022677    1.885    0.469
        21  -7.0778    139.6873    214.3219   1.2328052947e+02   1.1653014923e+01    0.1322012   0.09184093  67.62 0.0007039007    1.654    0.395
        22  -7.1575    169.3005    213.6385   1.1727222182e+02   6.5685672261e+00    0.1276568   0.09808966  72.01 0.0007035859    1.720    0.419
        23 -11.5953     11.5467    207.2874   1.4789078118e+02   3.0805637558e+01    0.6260564    0.3464843  29.93  0.001619864    2.289    0.563
        24  -7.3581    111.5049    209.4740   1.2837683135e+02   1.7297863252e+01    0.1290242    0.1104181  55.61 -1.744818e-06    1.061    0.057
        25  -8.9514     25.5738    206.1507   1.4522641475e+02   2.9621713591e+01     0.412699    0.1940391 -88.32  0.002348949    1.902    0.474
        26 -10.0556    173.8973    204.3480   1.1486474614e+02   7.2627334953e+00    0.2114581    0.1998462  20.16 0.0002099369    1.109    0.098
        27 -11.0436     76.9848    197.6065   1.3416893493e+02   2.4990158736e+01    0.7023401    0.5820407 -89.55  0.003088653    1.142    0.124
        28  -9.0653    199.3766    200.9145   1.0929058009e+02   3.1956941259e+00    0.2650823     0.204564  37.76 0.0009178287    1.162    0.139
        29  -7.4029    101.5305    196.4878   1.2880102284e+02   2.1473372295e+01    0.1330571    0.1126503  64.85 5.170937e-05    1.005    0.005
        30  -6.8744    247.6637    190.2874   9.8598434430e+01  -3.5936373089e+00    0.1076311    0.1028932  85.40 0.0007017903    1.631    0.387
        31  -7.9596    190.0473    188.5850   1.0886966137e+02   6.8875589377e+00    0.2834266    0.1983137  12.81  0.001427192    1.734    0.423
        32  -7.3141    174.5812    189.5854   1.1217297146e+02   9.6511196442e+00    0.1371434    0.1221297  35.01  0.000115217    1.003    0.003
        33 -14.8442     37.4669    244.4158   1.4541060263e+02   2.1156437180e+01     2.965881     1.933128 -77.08   0.01526235    1.592    0.372
        34  -9.5992     86.9967    182.7489   1.3018819055e+02   2.6642306660e+01     0.390467    0.2708551 -76.36  0.002169463    1.441    0.306
        35  -9.4054     89.8588    176.6110   1.2870009420e+02   2.7532069265e+01    0.3663602    0.2475921 -49.21 0.0008249906    1.729    0.422
        36  -8.2644    214.5059    184.4618   1.0336808579e+02   2.9869425832e+00    0.1359583    0.1174716  14.94 0.0001772613    1.027    0.027
        37  -7.4399    200.0000    181.0340   1.0547325465e+02   6.2504347611e+00    0.2120251   0.07812624 -39.74 0.0007951778    2.892    0.654
        38  -8.7559     62.4558    180.9368   1.3546236884e+02   3.0544772547e+01    0.2468531    0.1472348  57.51  0.001066806    1.539    0.350
        39  -8.3899     29.8877    177.0000   1.4221511238e+02   3.5239952699e+01    0.2886901   0.06382835  31.23  0.001046651    4.892    0.796
        40  -9.6461     22.4517    170.6494   1.4329936102e+02   3.7362669926e+01    0.4311643     0.177497 -79.16  0.001627731    2.093    0.522
        41  -9.1392     95.8001    167.2354   1.2591665564e+02   2.8653700538e+01     0.293576    0.2342114  85.90 0.0005249266    1.236    0.191
        42 -10.8695     84.7918    162.7111   1.2786922193e+02   3.1423498910e+01    0.4534782    0.3678027 -89.98 0.0008343668    1.160    0.138
        43  -7.5174     49.4254    166.7243   1.3683614899e+02   3.5343997368e+01    0.1652753    0.1043486 -63.98 0.0004917635    1.508    0.337
        44  -9.0082    100.3205    159.5401   1.2357262392e+02   2.9628958692e+01    0.5467379    0.3228415 -37.38  0.001769249    2.452    0.592
        45  -7.9857     61.3420    161.3098   1.3335738734e+02   3.5085394258e+01    0.1240377    0.0993856 -37.04 0.0007044831    1.695    0.410
        46 -12.1656      7.2279    244.7015   1.5032043272e+02   2.4349666465e+01    0.4846295    0.1944938  59.15 0.0008437349    1.747    0.428
        47  -7.4016      2.4830    155.4995   1.4654900112e+02   4.2377317484e+01    0.1148008   0.08680875 -89.34 0.0008101339    1.039    0.038
        48  -7.3524    190.1733    153.6278   1.0179028691e+02   1.3018504713e+01    0.2055159    0.1302792  35.17            0    1.617    0.382
        49  -8.8659    120.1232    149.2414   1.1679518523e+02   2.8384189244e+01    0.2200292    0.2127759  79.44 0.0002724353    1.052    0.049
        50  -9.2698     54.0666    149.1944   1.3355302338e+02   3.8807169954e+01    0.3137038    0.1595528 -66.88  0.001531343    1.749    0.428
        51 -11.2582     68.1034    144.6464   1.2928133823e+02   3.8050084550e+01    0.8029704    0.5039202  73.38  0.003540612    1.855    0.461
        52  -8.3765     99.0299    144.0635   1.2112835042e+02   3.3392401589e+01    0.2102761    0.1952703  87.66 0.0002996999    1.011    0.011
        53  -7.5910    185.7357    140.9938   9.9875961136e+01   1.6335679275e+01    0.2000118    0.1908965 -20.83 0.0003187374    1.055    0.053
        54 -10.2009    231.5042    134.2555   8.9651455913e+01   7.7670768008e+00     0.255399    0.2359289  33.85 0.0002296053    1.133    0.118
        55  -7.7187     80.0252    136.0000   1.2465164452e+02   3.8364428483e+01    0.2161919   0.07926502  36.54 0.0007918185    2.869    0.651
        56  -9.0504    117.4768    133.7648   1.1424375477e+02   3.2384269459e+01      0.30652    0.2493529  67.02 0.0004361902    1.294    0.227
        57 -10.3776     67.6025    134.7052   1.2779121447e+02   4.0467407724e+01    0.3913861    0.2754436 -81.19  0.001554248    1.415    0.293
        58  -8.3564    133.9091    145.5751   1.1266034194e+02   2.6488948670e+01    0.3063202    0.1998573 -70.38  0.001238711    1.980    0.495
        59  -7.8754      2.6778    129.0034   1.4438782962e+02   4.8260839603e+01    0.1988961   0.03316386 -58.03  0.000704399    4.240    0.764
        60  -8.8171    110.5551    142.9098   1.1794015393e+02   3.1606375447e+01    0.4564962    0.2465387 -37.20  0.001776791    2.555    0.609
        61  -7.0637    160.2918    126.3460   1.0197107386e+02   2.4925907472e+01    0.1572029    0.1242871   0.69 0.0006588852    1.662    0.398
        62  -7.9235    235.2511    115.2708   8.4633882463e+01   1.0094726605e+01    0.3223345    0.1763261 -46.50 0.0009483353    1.892    0.471
        63  -7.5196     77.4934    117.4558   1.2173342268e+02   4.3135607465e+01    0.1412332    0.1291847 -76.12 0.0003988676    1.020    0.020
        64  -8.8106    249.7021    115.5031   8.2458747595e+01   7.0916829311e+00    0.2403241    0.2130366 -17.36 0.0005312616    1.069    0.064
        65  -7.3021    182.3796    113.7931   9.3961361608e+01   2.2312645720e+01    0.2083122    0.1472798 -27.45 0.0002385698    1.548    0.354
        66 -12.2015      3.5785    249.1074   1.5104923302e+02   2.3957754908e+01    0.6873415    0.2509016  48.54  0.004101566    1.901    0.474
        67 -12.1952     12.4963    241.3613   1.4934984739e+02   2.4400430251e+01    0.4199416    0.2627809  52.84    0.0016698    1.295    0.228
        68  -7.8999    196.3422    107.2403   8.9482227340e+01   2.0235985876e+01    0.2547537    0.2001555  42.78 0.0008069607    1.310    0.236
        69  -7.6001    203.2928     93.5407   8.4633294682e+01   2.1012014628e+01    0.2006955    0.1419939  43.25  0.000718712    1.504    0.335
        70  -6.8327    243.6832     80.3008   7.5048982131e+01   1.3805885472e+01    0.1436213   0.09943352 -62.93 0.0006685953    1.617    0.382
        71  -7.9562    149.9514     73.9797   8.9914668145e+01   3.7739146701e+01    0.2222078    0.2176816  36.28 0.0003025313    1.027    0.026
        72  -7.9331    187.2636     71.1887   8.1412640411e+01   2.8790209551e+01    0.2127782    0.2030603   8.12  0.000528396    1.146    0.127
        73  -9.7731    242.8452     59.3355   7.0113116035e+01   1.7082849546e+01     0.256272    0.2370515  71.97 0.0004598949    1.171    0.146
        74  -8.6633    247.0354     55.2589   6.8659941214e+01   1.6715795895e+01    0.2297331    0.1786948 -38.54 0.0005408324    1.188    0.158
        75  -7.0685    237.2739     49.3097   6.8328253099e+01   1.9763095146e+01    0.1269761    0.1074095  19.25 0.0002413283    1.551    0.355
        76  -9.8375    162.4799     52.8467   8.0607178444e+01   3.8090854390e+01    0.5888214    0.1758237  56.13   0.00185385    3.033    0.670
        77 -10.7074    168.9019     42.4249   7.6138138512e+01   3.7936487028e+01    0.5787147    0.4720316  13.14  0.002578221    1.485    0.327
        78  -7.7690    184.4038     44.8320   7.4261223664e+01   3.3554855001e+01    0.2380349    0.1903614  82.83 0.0005706074    1.261    0.207
        79  -7.2899    196.0313    247.0360   1.1723174068e+02  -2.6586746602e+00     0.139672    0.1100851  28.69   0.00041556    1.031    0.030
        80  -9.9825    120.9234    249.2781   1.3112166463e+02   8.9221505067e+00    0.5319317    0.2587013  44.31  0.001430585    1.575    0.365
        81  -9.1246    129.7155    249.9884   1.2960174353e+02   7.4522380987e+00    0.3217417    0.2162766  51.99  0.001474422    1.198    0.165
        82  -9.2774    133.9984    249.5021   1.2877027444e+02   6.8565091363e+00    0.4109627    0.1758423  35.93  0.002007416    2.184    0.542
