#   1 NUMBER                 Running object number                                     
#   2 MAG_AUTO               Kron-like elliptical aperture magnitude                    [mag]
#   3 X_IMAGE                Object position along x                                    [pixel]
#   4 Y_IMAGE                Object position along y                                    [pixel]
#   5 X_WORLD                Barycenter position along world x axis                     [deg]
#   6 Y_WORLD                Barycenter position along world y axis                     [deg]
#   7 A_WORLD                Profile RMS along major axis (world units)                 [deg]
#   8 B_WORLD                Profile RMS along minor axis (world units)                 [deg]
#   9 THETA_WORLD            Position angle (CCW/world-x)                               [deg]
#  10 FWHM_WORLD             FWHM assuming a gaussian core                              [deg]
#  11 ELONGATION             A_IMAGE/B_IMAGE                                           
#  12 ELLIPTICITY            1 - B_IMAGE/A_IMAGE                                       
         1 -10.0974     40.2058     18.9735   8.2393007882e+01   6.7753003291e+01    0.1975456    0.1558627  38.58  0.001277459    1.651    0.394
         2  -9.9828     31.9566     17.1365   8.5390393299e+01   6.9028166478e+01    0.1678027    0.1434981  56.51  0.001089013    2.099    0.524
         3 -10.0581     56.8012      9.6265   7.0763070620e+01   6.6576028123e+01    0.1646787     0.112429  48.41 0.0009555528    1.756    0.430
         4 -10.0366     71.0137      6.4889   6.4039050987e+01   6.4431073800e+01    0.1571266    0.1152122  79.96 0.0008099235    2.559    0.609
         5 -10.3186    162.1154    225.5474   9.9224050690e+01   4.8844907330e+00    0.3318738    0.1864918  15.24  0.001369383    3.213    0.689
         6 -10.0905     98.8090    226.2052   1.1184725388e+02   1.4969533231e+01    0.2767939    0.1561595  17.70  0.001083068    4.232    0.764
         7 -10.7694    126.1885    220.8709   1.0574170145e+02   1.1657963911e+01    0.1957061    0.1549033  63.64 0.0005385769    1.242    0.195
         8 -10.9354    180.1879    199.3845   9.1323352536e+01   6.1094189143e+00    0.2007594    0.1176384  47.80 0.0009558607    1.721    0.419
         9 -10.1087     89.4607    199.5343   1.1065507333e+02   2.1642008428e+01     0.132501    0.1103593  68.97 0.0002495359    1.052    0.049
        10 -10.0244    126.3836    197.3007   1.0234865555e+02   1.6121104901e+01    0.2065603    0.1670251  -4.89  0.001115818    1.729    0.422
        11 -11.6440    173.2716    196.0452   9.2144789545e+01   7.9474182673e+00     0.264401    0.1916189  46.25  0.001182443    1.338    0.252
        12  -9.9276     44.9944    194.5020   1.1952126277e+02   2.8666588194e+01    0.1833009   0.07013922  55.31 0.0008105456    2.568    0.611
        13  -9.7203     67.3421    195.6685   1.1493823961e+02   2.5611701345e+01    0.1387174   0.08107999  68.25 0.0007051143    1.750    0.429
        14 -10.7285    157.1805    188.0380   9.4108797628e+01   1.2400859566e+01    0.2654034     0.194562  39.99  0.001052272    1.260    0.207
        15 -10.6510    110.9541    187.1122   1.0420434870e+02   2.0854437142e+01    0.3561124    0.1481966  56.03  0.001255706    3.222    0.690
        16 -10.2754     12.3375    184.7502   1.2542012777e+02   3.4133774389e+01    0.1824377    0.1451763  68.29 0.0007627485    1.160    0.138
        17  -9.9280    212.4842    182.5027   8.1701820138e+01   3.0912323762e+00    0.1393275    0.1205393   5.93 0.0008102923    1.030    0.029
        18  -9.7578    148.3117    181.6514   9.4893301843e+01   1.5315548981e+01    0.1454673      0.11125  78.51 0.0007045799    1.716    0.417
        19 -10.5621     78.5775    176.7097   1.1011994298e+02   2.8230930015e+01    0.4916024    0.1302883  49.88  0.001493167    4.564    0.781
        20 -10.0419     61.0271    177.6838   1.1428454218e+02   3.0412376527e+01    0.2211632    0.0621585  51.70 0.0007048376    4.319    0.768
        21 -11.6162     97.0176    187.8400   1.0744871294e+02   2.2967149797e+01     0.522415    0.1960261  46.50    0.0020822    2.495    0.599
        22 -10.2501    106.7473    175.7588   1.0338901701e+02   2.4030779037e+01    0.2322566   0.09682991  48.76 0.0008902608    2.427    0.588
        23 -10.7268    123.7259    170.9828   9.8581928026e+01   2.2114999214e+01    0.3813857    0.1589855  49.22  0.001412921    2.513    0.602
        24  -9.6699    208.3264    170.3069   8.0006826864e+01   5.9107153069e+00    0.1469578    0.1040245   5.61 0.0004079535    1.652    0.395
        25 -10.2120    102.1695    167.4433   1.0311022244e+02   2.6667603758e+01     0.353951    0.1053992  46.34  0.001145415    3.420    0.708
        26 -10.4265    140.9756    166.3310   9.3667164029e+01   1.9890738965e+01    0.3860087    0.1676055  58.36  0.001122387    4.289    0.767
        27 -10.3515     81.3671    165.5177   1.0785066171e+02   3.0392677267e+01    0.2957473    0.1658367  65.09  0.001290052    2.209    0.547
        28 -10.2821     94.6364    161.4287   1.0394087872e+02   2.9289045260e+01    0.2749426    0.1273277  42.92  0.001139971    2.113    0.527
        29  -9.7625      9.9791    161.6718   1.2421687526e+02   3.9414307715e+01    0.1884162   0.04331903  49.35 0.0007038159    4.226    0.763
        30 -10.4392    107.4152    158.9814   1.0034705012e+02   2.7715117942e+01     0.576104    0.1957138  53.15  0.001604261    4.710    0.788
        31  -9.9618    219.1257    156.1412   7.4895610013e+01   6.2838958188e+00    0.1775307    0.1714682 -62.64 0.0004102089    1.283    0.220
        32 -10.2803    120.8184    156.5976   9.6585692991e+01   2.5855977890e+01    0.2201175    0.1310114  52.15 0.0008337258    1.765    0.434
        33 -10.3927     82.9816    155.5006   1.0586887517e+02   3.2503200592e+01     0.420911    0.1876639  59.48  0.001453182    3.458    0.711
        34 -10.6250     50.7245    156.0980   1.1404978842e+02   3.6692419143e+01    0.3408844    0.1224086  49.61  0.001342014    3.042    0.671
        35 -10.5557     69.2204    154.8667   1.0925067321e+02   3.4634119265e+01     0.320068    0.1663118  51.47  0.001453444    2.034    0.508
        36 -10.5274    134.9672    154.1368   9.2636504684e+01   2.3712665743e+01    0.3732911     0.187302  60.34  0.001252006    3.152    0.683
        37  -9.7929     99.3423    151.6737   1.0103412533e+02   3.0796785344e+01    0.1540142    0.1082612  75.55 0.0007051104    1.737    0.424
        38 -10.0068     29.7921    151.1896   1.1860635816e+02   4.0081604292e+01    0.2255872    0.1017144  67.36 0.0009556978    2.857    0.650
        39 -10.7680     40.7801    148.6556   1.1557857786e+02   3.9571519083e+01    0.4318184    0.1650635  51.90  0.001761857    3.031    0.670
        40 -11.3811    109.4123    146.6678   9.7486921543e+01   3.0223645698e+01    0.7227095    0.3203759  58.52  0.002219925    3.927    0.745
        41 -11.3200     57.4867    146.9337   1.1106568274e+02   3.8062719731e+01    0.5109431    0.2464294  64.11   0.00201064    3.006    0.667
        42 -11.4676    150.4823    146.1125   8.7185170186e+01   2.2340065194e+01    0.4871964    0.3105286  73.17   0.00182419    2.691    0.628
        43 -10.1031     13.8104    146.6312   1.2201613383e+02   4.2543394924e+01    0.1610813   0.09692156  46.74 0.0009511607    1.746    0.427
        44 -11.0130    126.9781    144.4461   9.2556098201e+01   2.7450254977e+01    0.4755482    0.2819919  63.88  0.001837976    2.397    0.583
        45 -10.7253     89.0639    144.8211   1.0242917569e+02   3.4105116851e+01    0.3564316    0.2026387  60.42  0.001492364    2.223    0.550
        46 -10.8465     24.1620    138.9190   1.1862584781e+02   4.3489152241e+01    0.4179301    0.1884392  63.49  0.001834688    2.848    0.649
        47 -10.4146     40.2429    136.5878   1.1411344351e+02   4.2515789990e+01    0.2343175    0.1157508  37.05  0.001140791    2.181    0.542
        48 -10.7331    114.0623    134.1810   9.3635134032e+01   3.2293249606e+01    0.3761607    0.1868639  59.59  0.001253574    3.178    0.685
        49 -11.4248     85.0925    132.8697   1.0120155839e+02   3.7605641806e+01    0.5987917    0.2892438  52.46  0.002342272    2.526    0.604
        50 -10.6681    144.6733    133.1265   8.5578536454e+01   2.6389482685e+01    0.3058096    0.2089612  65.55 0.0009362853    1.889    0.471
        51 -11.1140    133.9402    132.9284   8.8203029040e+01   2.8670345029e+01    0.4559604    0.2504665  54.40  0.001769623    2.112    0.526
        52 -10.7483    154.3842    130.5200   8.2604265833e+01   2.4872206607e+01    0.3256146    0.2265071  77.97  0.001303904    2.231    0.552
        53 -11.3458    101.1288    129.5000   9.6079950952e+01   3.5749585254e+01    0.6627762    0.3399327  54.87  0.002529185    2.478    0.597
        54 -10.6869     13.5883    130.1406   1.2037133436e+02   4.6411345685e+01    0.3254218    0.1563303  59.29  0.001603081    2.438    0.590
        55 -10.1825    170.3297    130.6797   7.8960876205e+01   2.1337036365e+01    0.1577518    0.1257801 -84.68 0.0004132726    1.690    0.408
        56 -10.8737     74.6726    130.2387   1.0358421017e+02   3.9808795723e+01    0.3425952    0.1692353  50.39  0.001414214    2.355    0.575
        57 -10.9031    119.4809    126.5601   9.0446479721e+01   3.3026031044e+01    0.5735496    0.2894005  60.91  0.001864012    3.338    0.700
        58 -11.3157     61.0819    125.5666   1.0655691306e+02   4.2789905658e+01    0.6250185    0.3150114  65.09  0.002284613    3.476    0.712
        59 -11.4011     45.0279    123.9613   1.1087458839e+02   4.5062748195e+01    0.7229018    0.3780019  71.14  0.002936852    3.031    0.670
        60 -10.8574    181.8014    126.0068   7.5294345798e+01   1.9727120195e+01    0.3856047    0.1957176  57.85  0.001395864    2.489    0.598
        61 -11.6012     29.4017    123.2763   1.1520346958e+02   4.6758854433e+01    0.7544478    0.3356785  70.96  0.002676088    4.296    0.767
        62 -11.5416    143.6574    120.1752   8.2627888990e+01   2.9449895256e+01    0.5982886    0.3175185  53.41    0.0022708    2.117    0.528
        63 -10.4120     72.1878    121.0059   1.0246083397e+02   4.2403486722e+01    0.3363207    0.1745598  52.28  0.001400037    2.378    0.579
        64 -10.8211    132.9897    120.0916   8.5312688927e+01   3.1752534689e+01    0.4872674    0.2512566  57.88  0.001716338    2.617    0.618
        65 -10.6768      3.8206    118.0927   1.2165269883e+02   4.9887706975e+01    0.3802322    0.1792998  73.66  0.001808249    2.622    0.619
        66 -11.1556    110.9867    115.9840   9.0181767739e+01   3.7118492026e+01    0.5119577    0.3425604  73.46  0.002073027    2.300    0.565
        67 -11.2500     81.0201    114.3969   9.8434720523e+01   4.2688159904e+01    0.6226683    0.3661021  66.45  0.002436608    2.781    0.640
        68 -11.6905     95.4153    114.0661   9.4133361785e+01   4.0407214722e+01    0.6549023    0.2971432  42.98  0.002533663    2.333    0.571
        69 -10.6608    124.1376    113.8173   8.6035062480e+01   3.5003168338e+01    0.4333089    0.1994792  48.29  0.001572883    2.323    0.570
        70 -10.1184    176.6399    113.3028   7.3156602129e+01   2.3427689877e+01    0.1607555    0.1257116 -82.49 0.0007037884    1.722    0.419
        71 -11.0673     68.0774    112.0884   1.0180461093e+02   4.5130197457e+01     0.430353    0.2539813  59.13  0.001880616    2.309    0.567
        72 -10.8674     15.0216    111.4915   1.1767679310e+02   5.0705740947e+01    0.3525454    0.1878761  60.68  0.001784199    2.361    0.577
        73 -10.1204    134.8779    110.5898   8.2350732738e+01   3.3453851939e+01    0.3723581    0.1460981  53.38   0.00113811    3.244    0.692
        74 -11.8500     46.8820    103.5560   1.0658732647e+02   4.9781403794e+01    0.8371301    0.4223997  64.49  0.003026456    4.022    0.751
        75 -11.7441     23.7938    103.3087   1.1380602235e+02   5.1990233808e+01    0.7456138    0.3578552  70.66   0.00286142    3.949    0.747
        76 -11.0018    142.3192    106.2209   7.9266237846e+01   3.2760200576e+01    0.5088948    0.2132394  53.62  0.001660173    2.830    0.647
        77 -10.3963    151.4077    104.5736   7.6571804822e+01   3.1045097114e+01    0.3851631    0.2361408  79.64  0.001230453    3.511    0.715
        78 -10.6294      7.3316    103.6488   1.1888914033e+02   5.3043247459e+01    0.2559555    0.1668042  72.28  0.001434218    1.730    0.422
        79 -11.3192    130.7114    103.2085   8.1430579378e+01   3.5963159848e+01    0.5717344    0.2181206  50.76  0.001827429    2.977    0.664
        80 -11.6973    112.0420    100.8644   8.5911554009e+01   4.0354986896e+01    0.9296365    0.4454302  59.41  0.002893342    3.732    0.732
        81 -10.4168     83.6350    101.3537   9.4498755657e+01   4.5359228324e+01    0.3712817    0.2146663  59.89  0.001471469    2.631    0.620
        82 -10.8638     97.0075     98.2071   8.9586022670e+01   4.3800495112e+01     0.546625    0.2308636  44.16  0.002015095    2.553    0.608
        83 -11.4796     65.5212     97.3605   9.9225409582e+01   4.8979200979e+01    0.6472395    0.3490458  56.22  0.002624903    2.828    0.646
        84 -10.9638    141.0937     93.6837   7.6033108021e+01   3.5659431516e+01    0.4584975     0.282521  58.36  0.001868205    1.872    0.466
        85 -11.2366    127.6286     92.5164   7.9201030868e+01   3.8914043161e+01    0.6884567     0.291103  50.86   0.00237001    2.605    0.616
        86 -10.9479      7.3660     92.7665   1.1732468659e+02   5.5564802886e+01    0.4996704    0.1874695  35.58  0.002389088    3.138    0.681
        87 -11.5744     35.8893     90.8002   1.0754115065e+02   5.3900014141e+01    0.4595897     0.302454  79.92  0.002326515    2.148    0.535
        88 -11.2291     89.2450     88.3897   8.9224623499e+01   4.7371345809e+01    0.7360589    0.3264928  52.57  0.002517618    3.378    0.704
        89 -11.4596     50.6235     86.2451   1.0146376298e+02   5.3424162719e+01    0.6409472     0.341866  56.77  0.002615134    3.211    0.689
        90  -9.7021     20.6496     88.3089   1.1219479056e+02   5.5738374766e+01     0.122631   0.08866506  73.76 0.0007044018    1.713    0.416
        91 -11.3127    107.7253     85.2962   8.2657390395e+01   4.4598380232e+01    0.7235301    0.3271803  52.49  0.002558932    2.789    0.641
        92 -10.4294    143.2258     84.4307   7.2757838429e+01   3.7017286730e+01    0.4002894    0.1565546  52.87  0.001312759    2.740    0.635
        93 -11.2437     25.9992     81.7353   1.0903311164e+02   5.6844006172e+01    0.4609803    0.2573856  51.35  0.002300244    2.527    0.604
        94 -10.6350     75.7247     81.5955   9.1643576238e+01   5.1085949352e+01    0.3336288    0.2354804  68.06  0.001538427    2.209    0.547
        95 -10.9189     11.1457     81.7771   1.1424337455e+02   5.7863403227e+01    0.4482006     0.131986  37.12   0.00183998    4.158    0.760
        96  -9.9680    151.9570     81.5057   6.9776147623e+01   3.5505381973e+01    0.2452434    0.1549643  52.01  0.001036869    1.603    0.376
        97  -9.9896    120.8428     81.5686   7.7749806785e+01   4.2642144831e+01     0.359226    0.1480656  55.15   0.00114083    3.230    0.690
        98  -9.5138    159.3369     77.3279   6.6838455816e+01   3.4486791720e+01    0.1635118    0.1222214  15.69 0.0007051849    1.727    0.421
        99 -10.8213    130.7993     76.9480   7.3611418736e+01   4.1341601722e+01    0.6096799    0.2709596  54.23  0.002152837    2.524    0.604
       100 -10.1095    142.7495     76.4458   7.0427560969e+01   3.8656047489e+01     0.393838    0.1475468  48.81  0.001309436    2.643    0.622
       101 -11.0020     84.5115     74.4643   8.6548974064e+01   5.1181146365e+01    0.4952565    0.3126647  60.37  0.002114846    2.448    0.592
       102 -10.2402    107.7440     72.9774   7.8775048939e+01   4.7111635208e+01    0.3697186    0.1875648  54.85  0.001397372    2.497    0.600
       103 -10.5112     96.6552     72.7950   8.2101084623e+01   4.9333010965e+01    0.3698136    0.2691909  66.90  0.001707801    1.973    0.493
       104 -10.2091     43.4447     73.3472   1.0069077573e+02   5.7120331073e+01    0.2113692    0.1567787  52.57  0.001182983    1.786    0.440
       105 -10.0195      7.5994     73.1196   1.1388952789e+02   6.0014429568e+01    0.2827547    0.1181721  43.09  0.001311377    3.398    0.706
       106 -10.9348     52.6002     71.0357   9.6668586055e+01   5.6584022749e+01    0.4443102    0.3231071  74.31  0.002227499    2.285    0.562
       107 -11.0760     17.9633     70.8799   1.0959294651e+02   5.9879359836e+01    0.3400854    0.1958981  39.54  0.001886811    2.222    0.550
       108 -10.6216    148.7529     69.2081   6.6733180418e+01   3.8527019525e+01    0.3951555    0.1889052  59.24  0.001435928    2.345    0.573
       109 -10.0816    123.2685     67.2962   7.2493748497e+01   4.4857819904e+01    0.3030238    0.1938014  72.75  0.001178315    2.516    0.603
       110 -10.6759     39.1651     65.6298   1.0016641104e+02   5.9242112518e+01    0.4236042    0.2299622  44.74  0.002054151    2.518    0.603
       111  -9.7286     10.8313     66.2506   1.1127636149e+02   6.1350504639e+01    0.1874268    0.1124106  66.75 0.0009471767    2.771    0.639
       112 -10.2397    112.1761     65.0833   7.4848396416e+01   4.7693093420e+01    0.3770705    0.2081752  63.00  0.001394414    2.793    0.642
       113 -10.1692    101.8410     61.9285   7.6833003099e+01   5.0418237599e+01    0.3808307    0.2459164  77.21  0.001378823    3.493    0.714
       114 -11.1017     75.9728     60.9140   8.4974403456e+01   5.5343748609e+01    0.5808042    0.2393593  45.11  0.002252189    2.862    0.651
       115 -10.6069     27.0780     60.4081   1.0345107453e+02   6.1469728546e+01     0.359982     0.174192  40.90  0.001740041    2.797    0.642
       116 -10.1539    132.8220     59.2935   6.7333030585e+01   4.4063084122e+01    0.3018142    0.1393415  59.64  0.001074833    2.563    0.610
       117 -11.3638      9.4153     58.3768   1.1004479178e+02   6.3134896488e+01    0.3551941    0.2259068  42.74   0.00213086    2.149    0.535
       118 -10.5293    121.4115     57.3800   6.9631070283e+01   4.7027128899e+01    0.4485306    0.2319911  59.22  0.001738646    2.332    0.571
       119  -9.9850    141.1666     57.3761   6.4677959221e+01   4.2382264823e+01    0.2195021    0.1446767  66.37 0.0009520667    1.749    0.428
       120 -10.7105     55.4894     55.7243   9.0727705944e+01   5.9388584277e+01    0.3452413    0.2657957 -87.64  0.001777135    2.297    0.565
       121 -10.6957     45.7068     56.6982   9.4882731373e+01   6.0400850216e+01    0.3190412    0.2121367  52.35  0.001648127    2.282    0.562
       122 -10.7087     64.1187     55.7977   8.7477415984e+01   5.8173364407e+01    0.3800469    0.2364259  48.56  0.001857052    2.120    0.528
       123  -9.9207    107.6662     54.8216   7.2579069713e+01   5.0478621983e+01    0.3063352    0.1803793  70.74  0.001090003    3.375    0.704
       124 -11.1134     32.9047     52.6297   9.8773363795e+01   6.2568103706e+01    0.4361567    0.2520378  45.37  0.002233973    2.525    0.604
       125 -10.5083     21.6531     53.5008   1.0373136097e+02   6.3351069164e+01    0.2650445    0.1874455  42.36  0.001617783    1.908    0.476
       126 -10.7619     94.3125     51.9387   7.5601360923e+01   5.3697062798e+01    0.4715282     0.261934  55.44  0.001999155    2.308    0.567
       127 -10.3839     83.7606     47.8966   7.7548353684e+01   5.6384721293e+01    0.3780272    0.2229549  59.67  0.001589721    2.730    0.634
       128 -10.0091    124.2990     47.1487   6.5280307967e+01   4.8016495195e+01    0.2824318    0.1793158  64.47  0.001247028    1.858    0.462
       129 -10.8854     18.6962     45.6539   1.0267006506e+02   6.5171370441e+01    0.3892002    0.1794747  27.36  0.002050454    2.521    0.603
       130 -10.6136     46.4821     45.4408   9.0674424305e+01   6.2506933792e+01    0.2949992    0.1508652  37.69  0.001452722    2.281    0.562
       131 -10.7014     71.2774     42.8107   7.9974790518e+01   5.9418546136e+01     0.414724    0.2672982  61.27  0.001865402    2.789    0.641
       132 -10.4610     59.5397     43.9143   8.4848252604e+01   6.1046800889e+01    0.2909027    0.2231624  61.61  0.001566078    2.124    0.529
       133 -10.9656      6.2982     43.0607   1.0741606084e+02   6.6488022619e+01    0.3179125    0.2424469  75.19  0.001820146    2.043    0.511
       134 -10.1274    107.5812     42.7232   6.8152807087e+01   5.2452306367e+01    0.2446735    0.1835778  73.22  0.001148502    1.835    0.455
       135 -10.3537     37.7740     41.3700   9.2853514650e+01   6.4268427036e+01    0.2672409    0.1813702  48.48  0.001474454    2.246    0.555
       136 -10.1461     97.2767     39.5791   6.9975984479e+01   5.5102485294e+01    0.2669398    0.1365036  53.45  0.001135634    2.163    0.538
       137  -9.8616     82.4612     37.9849   7.4101677562e+01   5.8241487880e+01    0.2762648    0.1776416  62.41  0.001259261    2.455    0.593
       138 -10.9301     27.6401     36.5313   9.5564564101e+01   6.6188409547e+01    0.2607104    0.1946403  39.93  0.001643478    1.828    0.453
       139 -10.0889    113.2302     36.0971   6.4093842454e+01   5.2164692240e+01    0.2674341    0.1951751 -89.71  0.001237542    2.171    0.539
       140 -10.5678     62.4265     33.6651   7.9588778778e+01   6.2342045480e+01    0.3672683    0.2167578  55.48  0.001668481    2.884    0.653
       141 -10.7009     51.1716     33.6720   8.4116996971e+01   6.3988147339e+01    0.3223579    0.2183939  51.62  0.001715504    2.285    0.562
       142  -9.6681    120.9543     34.0000   6.1333544943e+01   5.0676778175e+01    0.2428209   0.07786281  55.96 0.0008101705    2.996    0.666
       143 -10.4891     74.2428     32.3095   7.4615498984e+01   6.0589638854e+01    0.3711218    0.1789285  52.97  0.001554521    2.837    0.648
       144 -10.7392     13.8222     31.2632   1.0014157097e+02   6.8304038794e+01    0.2777776    0.2242906  77.94  0.001781002    2.212    0.548
       145  -9.8796    103.0139     30.1908   6.4585233447e+01   5.5218765960e+01    0.2148149     0.166786  87.32  0.001082758    1.948    0.487
       146 -10.4005     83.1417     28.7988   7.0073159043e+01   5.9460964122e+01    0.3648156     0.250246  74.81  0.001646804    2.858    0.650
       147 -10.5692      4.9365     28.4757   1.0353081458e+02   6.9398092447e+01    0.2420854    0.1873107  51.07  0.001637621    2.079    0.519
       148 -10.3951     93.3924     27.7308   6.6388039845e+01   5.7571180627e+01    0.2795331    0.2135098  84.12  0.001409962    2.139    0.532
       149  -9.7981     40.3119     25.6614   8.5383946634e+01   6.6706000655e+01    0.1079074   0.09887666 -61.50 0.0007045756    1.692    0.409
       150 -10.5552     64.9653     21.5964   7.3321005701e+01   6.3710183414e+01    0.3196278    0.2241696  54.41  0.001762969    1.946    0.486
       151 -10.9242     50.7850     22.1015   7.9213572453e+01   6.5853323612e+01    0.3984673    0.1789063  42.55  0.001887341    2.546    0.607
       152 -10.0402     20.7777     22.2065   9.3168972093e+01   6.9353660715e+01    0.1622159    0.1306926  76.94 0.0009514871    2.771    0.639
       153 -10.5561     75.5259     20.2642   6.8917057373e+01   6.2020675636e+01     0.358611     0.174196  52.82  0.001624104    2.391    0.582
       154  -9.6077    246.3115    247.3132   8.7196063883e+01  -1.0955981204e+01    0.1175196   0.06846446   8.88 0.0003988461    1.632    0.387
       155  -9.7698    237.6826    239.6792   8.7436541275e+01  -8.9192704783e+00    0.1219487   0.07287453   8.63 0.0007042116    1.663    0.399
       156 -10.0444     98.9465     16.1719   5.9975609706e+01   5.7780476708e+01     0.203725    0.1570328 -88.59  0.001069998    1.964    0.491
       157 -10.0023     89.7368     18.4197   6.3549123737e+01   5.9470952335e+01    0.2499651     0.126298  55.43  0.001139467    2.087    0.521
       158  -9.4618     84.6699     11.3192   6.1940792722e+01   6.1282408074e+01    0.1202065     0.103344 -63.75 0.0007047924    1.689    0.408
       159  -9.6286     48.3127     10.6487   7.4753470239e+01   6.7776391333e+01    0.1080796   0.09629474 -47.41 0.0005051919    1.725    0.420
       160  -9.9265     74.1912    229.3914   1.1691484786e+02   1.7896346250e+01    0.1784369   0.08482764  49.68 0.0009511012    1.727    0.421
