#   1 NUMBER                 Running object number                                     
#   2 MAG_AUTO               Kron-like elliptical aperture magnitude                    [mag]
#   3 X_IMAGE                Object position along x                                    [pixel]
#   4 Y_IMAGE                Object position along y                                    [pixel]
#   5 X_WORLD                Barycenter position along world x axis                     [deg]
#   6 Y_WORLD                Barycenter position along world y axis                     [deg]
#   7 A_WORLD                Profile RMS along major axis (world units)                 [deg]
#   8 B_WORLD                Profile RMS along minor axis (world units)                 [deg]
#   9 THETA_WORLD            Position angle (CCW/world-x)                               [deg]
#  10 FWHM_WORLD             FWHM assuming a gaussian core                              [deg]
#  11 ELONGATION             A_IMAGE/B_IMAGE                                           
#  12 ELLIPTICITY            1 - B_IMAGE/A_IMAGE                                       
         1 -14.7477      6.9264    152.3057   1.4675859340e+02   4.2685895240e+01     7.265509     3.213532  77.16   0.03743636    2.285    0.562
         2 -13.3206    195.4322     29.2438   6.9158514757e+01   3.2262977614e+01     1.458835     1.407414  57.99   0.00761802    1.108    0.097
         3 -13.4251    210.2768      8.9418   6.1899671698e+01   3.0655941853e+01     1.348713    0.9496112  45.23  0.007231571    1.623    0.384
         4 -12.1088      2.6537     21.1851   1.2680707407e+02   7.0981078694e+01     1.165929          nan -49.32  0.003910835    5.022    0.801
         5 -11.9949      2.4942      5.3046   1.2063984424e+02   7.3742593502e+01    0.6175812    0.3433608 -33.15  0.004120955    1.348    0.258
         6 -10.6890    198.3389    245.4502   1.1791075409e+02  -2.4299166975e+00    0.1914769    0.1553526 -31.60  0.001222731    1.573    0.364
         7 -10.8675    248.8583    249.2115   1.0971879566e+02  -1.0447455970e+01    0.2807848    0.2011797  12.36  0.002052697    1.091    0.084
         8 -10.2344    138.9897    249.9979   1.2932120904e+02   6.5421850959e+00     0.188107     0.165703  82.39  0.001387888    1.363    0.266
         9 -10.6892    126.0816    250.0000   1.3167321079e+02   8.5722383435e+00    0.3998289   0.06005092  42.07  0.001271919    4.715    0.788
        10 -11.6785     99.9184    248.9594   1.3629583174e+02   1.2694438051e+01    0.4315248     0.283501  36.59  0.002794346    1.510    0.338
        11 -10.0047     29.9970    250.5122   1.4830901355e+02   2.1459913984e+01    0.2110417   0.09389763  52.00 0.0006902614    1.584    0.369
        12 -11.0703     35.1407    245.9051   1.4724230914e+02   2.1653614933e+01    0.4972239    0.2933381 -72.94  0.003578454    1.819    0.450
        13  -9.6739      2.3132    249.9185   1.5257351208e+02   2.4397477204e+01    0.1727518    0.1156129  49.64  0.001031489    1.383    0.277
        14  -9.7490     22.4659    244.9292   1.4924777336e+02   2.3202927297e+01    0.2163964   0.09421009  59.45 0.0006617408    1.671    0.402
        15  -9.6793    161.6018    248.8058   1.2504357098e+02   3.0771932404e+00    0.1386497    0.1154903 -74.29 0.0006738802    1.704    0.413
        16 -10.0891    173.7979    222.5389   1.1912767834e+02   4.7650175915e+00    0.3752695    0.2665462  65.97  0.002074774    1.935    0.483
        17 -12.4739      9.2196    207.1398   1.4966711823e+02   3.1301921810e+01    0.6775461    0.4907585  32.60  0.003530374    1.757    0.431
        18 -11.4552     61.6565    199.4314   1.3901869107e+02   2.7020886814e+01    0.2697928    0.2419747 -44.80 0.0006426146    1.587    0.370
        19  -9.6295    191.9999    193.0275   1.1060962109e+02   5.9977572725e+00     0.432313    0.2259862 -61.50  0.001378705    5.549    0.820
        20 -10.4568     17.4656    198.6121   1.4768422533e+02   3.2173008755e+01    0.2868454    0.1317921  54.61 0.0004986036    1.782    0.439
        21 -11.7275     67.7872    191.1558   1.3690290842e+02   2.7893944681e+01    0.2633711    0.2216842 -68.05 0.0004503258    1.324    0.245
        22  -8.6903     92.6777    215.2930   1.3434056215e+02   1.9568490173e+01     0.129528   0.07780371  64.26 0.0002652265    1.613    0.380
        23 -12.5832     35.1311    233.8021   1.4657431986e+02   2.3739024619e+01    0.2641669    0.2244908  77.03 0.0007782492    1.300    0.231
        24  -8.8318    152.4934    213.0478   1.2192902727e+02   1.0021031300e+01    0.1618858    0.1334605 -53.13 0.0003799671    1.471    0.320
        25 -10.7256     77.8046    178.2060   1.3318792620e+02   2.9220308083e+01    0.2289193    0.1968486  86.57 0.0002960522    1.075    0.070
        26 -12.9920     64.6117    176.3744   1.3596090094e+02   3.1441589970e+01    0.4529502    0.2722345 -47.07  0.001760037    2.163    0.538
        27  -8.7918    100.1292    176.8560   1.2787914241e+02   2.6059319734e+01    0.2103741    0.1578619  69.54 0.0005859482    1.324    0.245
        28 -11.6114     85.8287    168.9040   1.3006802936e+02   3.0043736360e+01    0.6900307    0.5503446  18.49  0.003886752    1.667    0.400
        29 -14.4167     40.5788    226.3959   1.4517282681e+02   2.4443262227e+01     2.860633     1.442078  33.07  0.006006022    2.290    0.563
        30 -11.8384     86.4961    152.0089   1.2730850348e+02   3.3709692320e+01    0.2742263    0.2477507 -44.02 0.0007918689    1.283    0.220
        31  -9.7635     97.8760    152.8221   1.2456853848e+02   3.1686252740e+01    0.2811022    0.2609059 -66.04 0.0007742902    1.126    0.112
        32  -9.1351    134.1815    147.7542   1.1453097966e+02   2.6067059800e+01    0.3291277    0.1147918 -54.91  0.001016385    3.594    0.722
        33  -8.8767    100.9012    148.4950   1.2302877771e+02   3.2146194605e+01     0.202338    0.1370688  39.22 0.0004066443    1.481    0.325
        34 -12.1252     67.2157    143.6609   1.3094125614e+02   3.8424331989e+01    0.6886093    0.4221687  62.66  0.003429699    1.812    0.448
        35  -8.3102    192.2608    144.3009   1.0054705379e+02   1.4282769251e+01    0.1470116    0.1133888   6.72 0.0002323398    1.513    0.339
        36  -9.5829    109.5383    137.8629   1.1872866481e+02   3.3009502929e+01    0.3708524    0.2506011 -25.78  0.001598997    2.199    0.545
        37 -10.2929     96.8006    134.8727   1.2150779642e+02   3.5946111008e+01    0.2416347    0.2252086 -16.04 0.0004129231    1.261    0.207
        38 -11.0391     57.2251    131.2839   1.3167580434e+02   4.2580406053e+01    0.5812762    0.2535449 -80.59  0.002080546    3.536    0.717
        39  -8.2461     90.9767    131.4846   1.2241506766e+02   3.7699701034e+01    0.1970271    0.1363886  44.54 0.0005043171    1.452    0.311
        40  -8.5014     80.0030    132.2012   1.2556361310e+02   3.9260322986e+01    0.2366418    0.1424651  63.36  0.001055189    2.073    0.518
        41  -8.9249    106.7366    124.0759   1.1651782615e+02   3.6645584358e+01    0.1912788    0.1827876 -56.44 0.0002807067    1.056    0.053
        42 -12.7035    124.5056    232.0083   1.2997300163e+02   1.1639680425e+01     1.174878    0.2291793  40.05  0.003796342    4.339    0.770
        43  -9.4166    167.6757    112.8956   9.8224620908e+01   2.5869393401e+01    0.2894457    0.2295888  64.03 0.0009827572    1.381    0.276
        44  -8.6984    203.4660    111.5332   9.0373242590e+01   1.7595165939e+01    0.1533607     0.143476  10.76  0.000139594    1.066    0.062
        45 -10.5559    241.0010     91.5966   7.9066998179e+01   1.2234143001e+01    0.2238588    0.1639663 -32.58  0.001160115    1.274    0.215
        46  -9.1536    157.4953     76.4798   9.0280157076e+01   3.5232693635e+01    0.1565846    0.1523199  49.01 7.530238e-05    1.015    0.015
        47  -8.9331     43.9740     68.0263   1.2279556443e+02   5.8489844680e+01    0.1849419    0.1511502  73.15 0.0005376858    1.654    0.396
        48  -8.4925     36.9459     64.4660   1.2452107353e+02   5.9951066766e+01    0.1653502    0.1226734  25.18 0.0008298302    1.543    0.352
        49 -11.3368      1.9189     61.3504   1.3741844379e+02   6.3015290518e+01    0.5652122   0.09889448 -69.60  0.001776616    5.396    0.815
        50 -10.4568     15.8193     55.8190   1.3071531999e+02   6.3439410736e+01    0.2292582    0.1815856  39.34 0.0009452417    1.612    0.379
        51 -11.2086      2.6136     38.2204   1.3197168545e+02   6.7738464680e+01    0.3460742    0.1375056 -64.46  0.001773531    2.198    0.545
        52  -9.3821     81.5156    249.5018   1.3960137010e+02   1.5226496817e+01    0.1135932    0.0833465  57.82 0.0001522817    1.015    0.014
        53 -10.3573    238.7985    247.6570   1.1116472125e+02  -8.8628495807e+00    0.1637984    0.1145409  15.19 0.0008744589    1.134    0.118
        54  -9.4852    217.6874    248.3201   1.1489712913e+02  -5.7893078763e+00    0.1042377    0.0841492  50.51 0.0006802519    1.650    0.394
