#   1 NUMBER                 Running object number                                     
#   2 MAG_AUTO               Kron-like elliptical aperture magnitude                    [mag]
#   3 X_IMAGE                Object position along x                                    [pixel]
#   4 Y_IMAGE                Object position along y                                    [pixel]
#   5 X_WORLD                Barycenter position along world x axis                     [deg]
#   6 Y_WORLD                Barycenter position along world y axis                     [deg]
#   7 A_WORLD                Profile RMS along major axis (world units)                 [deg]
#   8 B_WORLD                Profile RMS along minor axis (world units)                 [deg]
#   9 THETA_WORLD            Position angle (CCW/world-x)                               [deg]
#  10 FWHM_WORLD             FWHM assuming a gaussian core                              [deg]
#  11 ELONGATION             A_IMAGE/B_IMAGE                                           
#  12 ELLIPTICITY            1 - B_IMAGE/A_IMAGE                                       
         1 -12.6261      4.3167     36.6356   1.1376624766e+02   6.6819951791e+01    0.8429043    0.4253947 -67.33   0.00489075    1.826    0.452
         2 -11.7710    146.4306     24.0596   6.1635741220e+01   4.5908019985e+01    0.8830887    0.4399771  59.42  0.003676611    1.912    0.477
         3 -12.8846    143.5906      4.9674   5.5207109047e+01   4.8666826976e+01     1.255958    0.4730615  70.10  0.004496128    2.923    0.658
         4 -12.5934    122.0658      3.8242   5.8925925753e+01   5.4048542841e+01    0.8881316    0.4478084  72.47  0.003706505    2.490    0.598
         5 -13.3135    128.3836     24.1278   6.5539335684e+01   5.0335040791e+01     1.671496      1.04758  67.94  0.007656736    1.865    0.464
         6 -13.2259    133.8634     11.7574   5.9601855895e+01   5.0425432083e+01     1.345899    0.8882139 -73.94  0.006047288    2.295    0.564
         7 -13.0184     21.9495     17.2188   9.9423400659e+01   6.9238854269e+01    0.8897782    0.4711674 -49.49  0.005236228    1.667    0.400
         8 -12.8862      5.7045      3.5230   1.0157920978e+02   7.2770770025e+01    0.8717011    0.5184812   1.04  0.005909829    1.846    0.458
         9 -12.1187      2.1699     16.8194   1.0867145646e+02   7.0692229876e+01    0.6972506    0.1833018 -54.97  0.003268211    2.669    0.625
        10 -12.7857      9.3479     15.2274   1.0461169695e+02   7.0543534561e+01    0.5577797    0.5173692  17.06  0.003725646    1.480    0.325
        11 -13.0249    249.2686     11.2262   4.4187396568e+01   2.1005667626e+01     1.658522    0.2701644 -27.74  0.004808021    5.153    0.806
        12 -11.9652    207.8331     19.5857   5.0575296598e+01   3.0363729518e+01    0.3784857    0.2733199  28.74  0.001151328    1.709    0.415
        13 -11.2559     54.0232     12.8523   8.3477404534e+01   6.6255709633e+01    0.5524483    0.2172514 -37.56  0.002564739    2.302    0.566
        14 -12.5283    215.4789     10.2307   4.7098198079e+01   2.9422028795e+01    0.6375047    0.5547182 -70.08   0.00372616    1.082    0.076
        15 -12.8553     38.8541     17.1011   9.1765079067e+01   6.7565317789e+01     1.409609    0.6435395  40.07  0.007178244    2.795    0.642
        16 -11.7705    162.2380      6.9635   5.2848971933e+01   4.3684767771e+01    0.5148526    0.3126586  54.62  0.002458672    1.491    0.330
        17 -11.2328     83.3014      5.0440   6.9392885833e+01   6.2300863889e+01    0.3917875    0.2083092  47.86  0.001982446    1.823    0.452
        18 -13.1695     40.8250      2.8917   8.4060777334e+01   6.9418161220e+01     1.794948    0.3622977  41.86    0.0060989    6.093    0.836
        19 -11.7774     41.0256     78.9684   1.1071606931e+02   5.5203501090e+01    0.7216976    0.3922569 -47.23  0.003855437    1.608    0.378
        20 -14.8757     39.7852    154.6019   1.2269060294e+02   3.8421306685e+01     5.769839     2.111341 -57.77   0.02726804    2.595    0.615
        21 -14.9832    105.1158    234.0158   1.1820739360e+02   1.4550040682e+01     2.827909     1.690921  47.97   0.01822883    1.337    0.252
        22 -13.1910     41.9756    219.1527   1.2764426051e+02   2.5450199420e+01    0.8034303    0.4931711  48.98  0.004613143    1.450    0.311
        23 -13.7626     88.7393    219.5811   1.1966343011e+02   1.9336739998e+01     1.261749    0.7927343  37.29  0.007807089    1.762    0.432
        24 -14.6355     81.0523    184.8763   1.1746443839e+02   2.6912250457e+01      2.11803     1.086547  55.50   0.01117769    1.794    0.443
        25 -15.7562     80.1110    163.1350   1.1493840811e+02   3.1535566834e+01     3.510432     2.606052  77.47   0.02112274    1.259    0.206
        26 -15.5855     11.2621    132.9078   1.2685086527e+02   4.5725946089e+01      2.18925     1.716221 -48.95    0.0107043    1.573    0.364
        27 -15.6408     76.3268    204.3530   1.2043709726e+02   2.3818273235e+01     2.310725     1.267334  48.98   0.01301338    1.555    0.357
        28 -14.7934     32.3402    246.1348   1.3069419788e+02   2.2004508889e+01    0.9116573     0.813241 -81.61  0.008304964    1.700    0.412
        29 -15.7363     66.9044    243.4571   1.2526388707e+02   1.8322373253e+01     2.089057    0.8122783  36.49   0.01063641    3.132    0.681
        30 -14.8983     65.8903    228.2980   1.2432649808e+02   2.0944928878e+01     1.238567    0.8796586  31.31  0.008449152    2.018    0.504
        31 -16.4555      8.8237    242.3497   1.3392783328e+02   2.5050939131e+01     1.230719     1.050953 -82.77   0.01127572    1.681    0.405
        32 -14.7282      3.1226    225.7245   1.3409610508e+02   2.8335041381e+01    0.7521173    0.3088095 -83.19  0.004715619    1.998    0.499
        33 -11.6507    113.9333     76.7168   8.7805166327e+01   4.4756088639e+01    0.4734206    0.4088692  28.20  0.002525783    1.238    0.192
        34 -10.9585     82.7413     75.8175   9.6681362741e+01   5.0565285566e+01    0.4417032    0.3477844  66.49  0.002374724    1.634    0.388
        35 -10.4481     26.9131     72.8342   1.1397316921e+02   5.7802262637e+01    0.3108383    0.2022897 -42.65  0.001512637    1.438    0.305
        36 -11.5109      2.8256     70.2408   1.2136710552e+02   5.9931162457e+01    0.5017502    0.2288494 -67.19  0.002411298    1.598    0.374
        37 -10.8072     14.9991     64.1835   1.1618061482e+02   6.0526548216e+01    0.4157034    0.2223914 -62.89   0.00227188    1.426    0.299
        38 -11.0694     63.0914     60.1875   9.8385869144e+01   5.6683492454e+01     0.465254    0.2609383 -40.23  0.002328653    1.601    0.375
        39 -11.1212      2.9302     54.9460   1.1854219572e+02   6.3163433798e+01    0.3516499     0.277923 -80.68  0.002378207    1.300    0.231
        40 -13.0746    129.3970     44.1199   7.2739682425e+01   4.7277276305e+01     1.377643    0.8164476  38.14  0.005947728    1.783    0.439
        41 -10.1726     17.3803     46.5134   1.1115926632e+02   6.4056677464e+01    0.2841749    0.1783701  57.78  0.001610884    2.620    0.618
        42 -11.7036    116.7691     40.0160   7.4491695962e+01   5.0775902043e+01    0.8349153    0.5183983  -7.00  0.003567527    2.141    0.533
        43 -14.3646    166.6363    210.1149   1.0425476110e+02   8.2378202645e+00     1.272819    0.9810084  20.98  0.007793474    1.486    0.327
        44 -10.3578     23.6324     39.5442   1.0667419504e+02   6.4988279521e+01    0.2349896    0.1558552 -45.19  0.001514684    1.154    0.134
        45 -10.5167    191.9511     34.0491   5.7007212200e+01   3.2769409854e+01    0.2482295    0.1734127  30.69  0.001136967    1.704    0.413
        46 -11.2384     15.0371     32.1154   1.0792976224e+02   6.7058218805e+01    0.3463258    0.2477956 -13.74  0.002405851    1.499    0.333
        47 -10.9258     31.4616     29.5195   1.0001484258e+02   6.6207356050e+01    0.3826022    0.2502351 -30.47  0.002402356    1.310    0.236
        48 -11.4775    133.7705    206.6288   1.0991691986e+02   1.4517417535e+01    0.5258133     0.389973  87.09  0.002425353    1.581    0.368
        49 -12.5241    142.6324    214.5581   1.0931668935e+02   1.1703381210e+01    0.7310453    0.5287764  78.98  0.003003274    1.672    0.402
        50 -13.9732    144.2879    228.8004   1.1082691444e+02   9.2198981280e+00     1.314131    0.9588794  29.27  0.007259484    1.555    0.357
        51 -10.2155    110.0444    203.5656   1.1402697825e+02   1.8957989154e+01    0.3397883    0.1790804 -57.43  0.001823148    2.109    0.526
        52 -13.8987    150.4619    203.6232   1.0633129864e+02   1.2131670214e+01     1.533253    0.8591318 -59.31  0.006478271    2.268    0.559
        53 -11.3985     42.5641    174.1227   1.2403568982e+02   3.4007966212e+01    0.5678142    0.2480343  54.90  0.002974896    2.124    0.529
        54 -16.4775      9.3295    171.0291   1.3023532723e+02   3.7912500456e+01     7.557834     1.179407 -73.15   0.02914422    4.406    0.773
        55 -12.5546     98.3819    128.4326   1.0491438248e+02   3.6341217133e+01    0.8438455    0.5484252  56.77  0.004164086    1.655    0.396
        56 -11.5398    127.8007    127.0754   9.7379215177e+01   3.1276355353e+01    0.7267419    0.3730038 -45.80  0.003018983    1.969    0.492
        57 -15.4943     52.9055    204.1023   1.2466869580e+02   2.6899175895e+01     1.976362    0.9323874  63.04  0.008693919    1.908    0.476
        58 -11.1666    107.0627    119.4635   1.0084237300e+02   3.6847794934e+01    0.4871813    0.2992738 -77.37  0.001978228    2.339    0.573
        59 -10.7119     72.5715    103.2058   1.0655306890e+02   4.6016875033e+01    0.3535193    0.2566405 -89.72  0.001869897    1.633    0.388
        60 -10.9270     67.4801    102.5250   1.0784631365e+02   4.6862066382e+01    0.3336177    0.2871155 -19.23  0.001832944    1.438    0.305
        61 -11.7659    123.1868    101.0208   9.2218723315e+01   3.7813504404e+01    0.4458632    0.2947799  85.51   0.00172985    2.675    0.626
        62 -11.2239    115.5808    101.0913   9.4225432438e+01   3.9307623101e+01    0.2795034    0.2387004 -19.27  0.001457135    1.352    0.261
        63 -10.5704     38.9292     92.8468   1.1419618840e+02   5.2310610924e+01    0.2914383    0.2544938 -71.02  0.001278179    1.079    0.074
        64 -11.4371      7.3993     25.0457   1.0901483343e+02   6.8882113678e+01    0.4286353    0.2826114  58.49  0.002558751    2.869    0.651
