#   1 NUMBER                 Running object number                                     
#   2 MAG_AUTO               Kron-like elliptical aperture magnitude                    [mag]
#   3 X_IMAGE                Object position along x                                    [pixel]
#   4 Y_IMAGE                Object position along y                                    [pixel]
#   5 X_WORLD                Barycenter position along world x axis                     [deg]
#   6 Y_WORLD                Barycenter position along world y axis                     [deg]
#   7 A_WORLD                Profile RMS along major axis (world units)                 [deg]
#   8 B_WORLD                Profile RMS along minor axis (world units)                 [deg]
#   9 THETA_WORLD            Position angle (CCW/world-x)                               [deg]
#  10 FWHM_WORLD             FWHM assuming a gaussian core                              [deg]
#  11 ELONGATION             A_IMAGE/B_IMAGE                                           
#  12 ELLIPTICITY            1 - B_IMAGE/A_IMAGE                                       
         1 -14.4700    135.7590    127.1605   1.0215679911e+02   3.0011457767e+01     3.233354    0.3538841 -48.92   0.00496308   12.199    0.918
         2 -14.8088    160.3149     51.6786   7.5946574050e+01   3.8633621007e+01     1.060405     0.954777 -11.89   0.00355894    1.303    0.233
         3 -14.7974    173.3152     22.6684   6.5938881567e+01   3.9190316586e+01    0.8937539    0.7338881  81.02  0.003904248    1.071    0.066
         4 -12.3028    189.8338     15.0905   6.1905302647e+01   3.6089909680e+01      0.20374    0.1546052 -77.69 0.0007945535    1.228    0.186
         5 -15.1904    188.2235    244.9466   1.1376686298e+02  -4.6781537786e+00     1.275005    0.7234555  40.87  0.005241477    1.560    0.359
         6 -10.3479     11.4144    238.6337   1.4723069772e+02   2.3244455731e+01    0.1783132    0.1051224  85.85  0.001167638    1.320    0.243
         7 -12.8298    133.7402    196.0994   1.1714254203e+02   1.4504572394e+01    0.4503244     0.350011 -78.68  0.002278632    1.453    0.312
         8 -12.1265    128.8434    195.8339   1.1821702610e+02   1.5480453399e+01    0.2633139    0.2123438 -69.13 0.0004231571    1.294    0.227
         9 -12.2141     14.6053    197.3198   1.4371588580e+02   3.1671676756e+01    0.2357619     0.164205 -67.32  0.001334534    1.377    0.274
        10 -10.9914     23.8497    191.0654   1.4126645540e+02   3.2153962940e+01    0.2041385    0.1311358 -61.63 0.0006843118    1.517    0.341
        11 -13.1211    164.4642    186.4161   1.0837776919e+02   1.0635181137e+01    0.3228215     0.258887 -81.10   0.00158833    1.551    0.355
        12 -14.0004    162.8482    181.2276   1.0770846921e+02   1.2072811795e+01    0.6407789     0.402932  59.17  0.002458423    1.902    0.474
        13 -11.3055    161.0400    236.4748   1.1788746078e+02   1.3932666673e+00    0.2296512    0.1885614 -87.58 0.0008990211    1.571    0.364
        14 -13.2009    169.8595    233.5319   1.1562027123e+02   3.7461142943e-01     0.342858    0.2741201  21.21  0.001984851    1.277    0.217
        15 -10.7817    134.6013    233.9077   1.2295392023e+02   6.4942091307e+00    0.1773472    0.1313772 -58.10 0.0004399927    1.512    0.338
        16 -13.8743    165.5841    175.3984   1.0590578760e+02   1.2780639625e+01     0.540759    0.3451802  70.61  0.001207714    2.441    0.590
        17 -10.7733    158.0539    244.0883   1.1964447403e+02   5.6529863666e-01    0.1822312    0.1620842   6.72 0.0003715944    1.264    0.209
        18 -10.5427     35.4368    244.4398   1.4346282125e+02   1.9352785973e+01    0.1205485   0.08431388  72.61 0.0004852551    1.083    0.077
        19 -10.6892     10.0818    168.1497   1.4205831132e+02   3.8722029671e+01    0.1721033    0.1289561 -63.62 0.0003267909    1.274    0.215
        20 -16.0720    146.3174    146.0333   1.0402251518e+02   2.3430755621e+01     2.029025     1.256302 -87.27  0.006629342    3.417    0.707
        21 -13.1338    132.1271    129.3219   1.0361448409e+02   3.0290732941e+01    0.4016327    0.3081448 -34.66  0.001053076    1.411    0.291
        22 -15.6616    134.2146    146.6327   1.0714719706e+02   2.5836444637e+01     1.837726    0.7694822 -54.81  0.005607647    2.592    0.614
        23 -11.0753     27.2384    226.4844   1.4359980278e+02   2.3996950233e+01    0.1599074    0.1113153  88.16 0.0004432879    1.143    0.125
        24 -11.9580    191.8398    151.7258   9.5045258933e+01   1.2326136124e+01    0.3648538    0.2376398 -55.81  0.001013749    1.681    0.405
        25 -13.9914    163.6353    152.4935   1.0140034848e+02   1.8243494681e+01    0.5021249    0.4211192 -20.68  0.001326636    1.383    0.277
        26 -13.9674    128.2378    143.6111   1.0797578747e+02   2.7771901020e+01    0.7567242    0.4032621 -43.13  0.002468351    1.951    0.487
        27 -11.1587      3.9184    152.6150   1.4191522035e+02   4.2796351922e+01    0.2417513    0.1411128 -81.03 0.0006983559    1.390    0.281
        28 -13.0436    174.4515    148.7354   9.8103203488e+01   1.6722077278e+01    0.4156419    0.2953694 -57.30   0.00103039    1.503    0.335
        29 -10.2984      6.2927    224.4479   1.4723732148e+02   2.6653558870e+01    0.1362518   0.08307392  60.61 0.0008930121    1.371    0.271
        30 -12.9999    207.4566    220.7499   1.0585242333e+02  -3.9367126251e+00    0.2662016    0.2249209 -21.54 0.0008387115    1.182    0.154
        31 -12.4485     10.9825    144.2920   1.3927312629e+02   4.4196091553e+01    0.2673827    0.2027367 -33.98 0.0007496256    1.633    0.388
        32 -12.6903    130.1260    239.4790   1.2465433730e+02   6.2004312706e+00    0.3126931    0.2181537 -48.57  0.001063465    1.683    0.406
        33 -13.6736    160.4601    127.9000   9.6333648491e+01   2.4389426327e+01     0.519942    0.3877407 -60.60  0.001552693    1.442    0.306
        34 -16.0115     42.3852    152.1617   1.3232465441e+02   3.9377126150e+01     1.510499    0.8657449 -63.11  0.005370489    1.474    0.321
        35 -20.2539     75.0920    175.8052   1.2768398640e+02   2.9352107098e+01     16.85062     6.990023 -64.02   0.06713678    2.297    0.565
        36 -11.6451     22.8148    156.0665   1.3776282438e+02   4.0428371073e+01    0.1927384    0.1738607  74.98  0.000627656    1.193    0.162
        37 -11.3364     40.3388    245.1983   1.4265113106e+02   1.8597084315e+01     0.158097    0.1055226  84.54 0.0006765696    1.239    0.193
        38 -11.2248    231.2751    113.8788   7.9128763483e+01   1.1369241159e+01      0.24968    0.2128084  53.71 0.0008154049    1.293    0.226
        39 -11.4285    167.9565    112.9514   9.0888510158e+01   2.5851890947e+01    0.2627302    0.1937552 -81.63  0.001137539    1.773    0.436
        40  -9.8276     25.0347    213.4852   1.4299076484e+02   2.7023929671e+01     0.136389    0.1047089  58.08  0.000914461    1.260    0.206
        41 -11.1671    205.5165    110.2034   8.2667881209e+01   1.7698705875e+01    0.2705776    0.2120514  57.05 0.0006879496    1.326    0.246
        42 -12.1985     30.9465    104.6070   1.2745039950e+02   5.1739981500e+01    0.3525453    0.2110273  -0.35  0.001017612    2.361    0.576
        43 -10.6605     16.4625    212.4117   1.4454598079e+02   2.8170196708e+01    0.2296262     0.113659  87.35 0.0009386031    1.809    0.447
        44 -10.6990     16.7655    209.3119   1.4425077533e+02   2.8811416925e+01    0.1289031   0.09308743  50.98 0.0001631282    1.401    0.286
        45 -10.7536      9.6085    211.9006   1.4579701188e+02   2.8970467941e+01    0.1916638     0.085168 -72.83 0.0006638319    1.843    0.457
        46 -12.8815    187.1455    154.4146   9.6635828827e+01   1.2764497269e+01    0.5933805    0.3546261  35.27  0.002470721    1.898    0.473
        47 -13.7674    149.3459     65.4104   8.2076725710e+01   3.9159477683e+01    0.5474564    0.4771062  69.74 0.0009143325    1.138    0.121
        48 -11.7788    117.5383    244.6618   1.2787721940e+02   7.3350905387e+00    0.1757359    0.1519023 -48.05 0.0006050475    1.434    0.303
        49 -13.4181    164.8201     42.8633   7.2683857247e+01   3.8769216971e+01    0.4541737    0.4115386  58.80  0.000855317    1.089    0.082
        50 -13.2654     11.6151    206.0172   1.4498746998e+02   3.0046206302e+01    0.4165261    0.3398276  13.42   0.00287037    1.962    0.490
        51 -11.2148     13.5246     59.9710   1.2326303059e+02   6.2402621876e+01    0.1655479    0.1351586 -25.55 0.0004007035    1.111    0.100
        52 -11.1916    101.8211    243.8253   1.3090338920e+02   1.0055117165e+01    0.2512614    0.1617058 -46.43  0.001149329    2.061    0.515
