#   1 NUMBER                 Running object number                                     
#   2 MAG_AUTO               Kron-like elliptical aperture magnitude                    [mag]
#   3 X_IMAGE                Object position along x                                    [pixel]
#   4 Y_IMAGE                Object position along y                                    [pixel]
#   5 X_WORLD                Barycenter position along world x axis                     [deg]
#   6 Y_WORLD                Barycenter position along world y axis                     [deg]
#   7 A_WORLD                Profile RMS along major axis (world units)                 [deg]
#   8 B_WORLD                Profile RMS along minor axis (world units)                 [deg]
#   9 THETA_WORLD            Position angle (CCW/world-x)                               [deg]
#  10 FWHM_WORLD             FWHM assuming a gaussian core                              [deg]
#  11 ELONGATION             A_IMAGE/B_IMAGE                                           
#  12 ELLIPTICITY            1 - B_IMAGE/A_IMAGE                                       
         1 -14.0844     24.5566     13.6360   3.4967406920e+01   7.4484643289e+01    0.6800426    0.3385701  35.89  0.003310559    1.934    0.483
         2 -13.2185     29.7707      8.7795   2.8062445301e+01   7.4415915484e+01    0.3474583    0.2988133 -32.58  0.001180541    1.270    0.213
         3 -15.6719     14.0954     19.6702   4.6693704074e+01   7.4721366820e+01     1.831224     1.083299 -28.53  0.007848477    1.731    0.422
         4 -13.2989    189.8937     27.2227   3.5594949825e+02   3.4940193477e+01    0.5652004    0.2006103 -45.56  0.002450959    2.318    0.569
         5 -13.1601    183.6206     22.4984   3.5527631221e+02   3.6873762319e+01    0.7152386    0.3699313  78.65   0.00359794    1.958    0.489
         6 -14.9206     97.9315     12.1599   3.5976888126e+00   5.8920595500e+01     1.371913    0.7719436  66.68  0.006585655    1.617    0.382
         7 -13.2077    227.5135      7.9144   3.4878183712e+02   2.9335545616e+01    0.8262382    0.1777229 -43.33  0.003672906    2.738    0.635
         8 -12.8137    175.3113     13.4945   3.5356125054e+02   3.9737338595e+01    0.2958321    0.1773191 -66.98 0.0007783526    1.561    0.360
         9 -12.4813    214.5207     10.4549   3.5003940419e+02   3.1611043370e+01    0.3309192    0.2703414 -88.90  0.001939406    1.263    0.208
        10 -13.8847    203.0912      6.8807   3.4986186525e+02   3.4311367555e+01    0.9669287    0.3938699 -73.85  0.004447769    2.659    0.624
        11 -12.7902    167.6588     10.0152   3.5324300277e+02   4.1867400959e+01    0.3302381    0.1756955 -48.35  0.001696874    1.660    0.397
        12 -11.4309    152.6693      8.3085   3.5413234909e+02   4.5610569125e+01    0.1422824   0.08250006 -62.58 0.0005608193    1.665    0.399
        13 -12.8829      7.9281      2.1515   4.1207780095e+01   7.8612319949e+01    0.3039207    0.1950586   4.09  0.001337151    1.621    0.383
        14 -11.7299    180.4170      1.6880   3.4996002851e+02   3.9736270459e+01    0.2431494    0.1420921  78.60  0.001362972    1.627    0.385
        15 -13.7488     41.6936      4.1550   1.7809210656e+01   7.2797313383e+01    0.6485806    0.4999409  17.64  0.003171766    1.296    0.228
        16 -11.5601     81.3529      1.4400   2.2444851869e+00   6.4032402366e+01    0.3999969   0.07401273  60.68  0.001297128    3.580    0.721
        17 -12.3040     80.8178    113.8944   4.4842052434e+01   4.3013869037e+01    0.5951942    0.3462823  80.60  0.001874691    3.727    0.732
        18 -13.5988     18.1790    112.6005   6.8332851437e+01   5.1221492302e+01    0.6400435    0.4726412  11.19  0.003125183    1.521    0.343
        19 -13.5674     21.5068    111.4896   6.6862032875e+01   5.1265782783e+01     1.017581    0.3983524  87.19  0.003120504    3.669    0.727
        20 -10.7112    195.2982    113.3138   1.6551888573e+01   2.1006694941e+01    0.1322719     0.100387  -6.55 0.0006572612    1.606    0.377
        21 -14.0510     10.4519    102.9170   7.0347594574e+01   5.4401301633e+01    0.6781179    0.4717196  34.61  0.003542449    1.510    0.338
        22 -13.4032      2.3268     96.7094   7.3158656834e+01   5.6527208545e+01    0.7003698    0.2812834 -82.02  0.002797043    2.305    0.566
        23 -11.8622    136.7160    102.8844   2.5649763789e+01   3.4615299174e+01    0.4138449     0.216485  47.53  0.001681683    1.988    0.497
        24 -11.8811     46.7332     99.5693   5.4432175478e+01   5.1896262555e+01    0.4292271    0.2828877  62.68  0.001891856    1.845    0.458
        25 -11.3986     52.2111     98.1979   5.1873023292e+01   5.1534546634e+01    0.4079128      0.20812 -19.56  0.001145439    4.815    0.792
        26 -14.4253     22.7628     95.0646   6.3896766100e+01   5.5649824156e+01     1.332625    0.5129563  22.77  0.005101569    2.652    0.623
        27 -12.8493     29.9699     89.9130   5.9702385871e+01   5.6381743053e+01     0.563283    0.3296109  82.01  0.002328888    2.263    0.558
        28 -11.4345     61.0376     97.4699   4.8150248298e+01   5.0442929948e+01    0.3916731    0.2329993  65.80   0.00147572    2.531    0.605
        29 -10.6029    163.7112     97.3074   1.8321600618e+01   3.0017394559e+01    0.1439267     0.108946 -69.43 0.0002774718    1.574    0.365
        30 -11.3067    136.3861     94.6181   2.3494543862e+01   3.6376678725e+01    0.2892851    0.1379494  62.57 0.0009524948    3.234    0.691
        31 -12.9893     20.7342     86.7352   6.3384353629e+01   5.8063856235e+01    0.5520297    0.2814598  23.03  0.001754637    2.048    0.512
        32 -12.3679    242.3808     84.1119   3.9960729024e+00   1.7374797178e+01    0.2073744    0.1764395 -80.36  0.001481239    1.400    0.286
        33 -13.0291    163.4627     71.7465   1.1531645535e+01   3.4573867460e+01    0.4618045    0.3682081  46.42  0.002491222    1.405    0.288
        34 -12.8634    161.1904     80.3558   1.4309720835e+01   3.3610253544e+01      1.23495     0.718936  18.56  0.003821056    4.972    0.799
        35 -13.8093    170.1563     76.4075   1.1655412887e+01   3.2319192247e+01     1.148307    0.4228081  58.13  0.004276666    2.969    0.663
        36 -12.5783     56.3842     79.1844   4.5144866613e+01   5.5790230238e+01    0.7059458    0.2906689 -38.61  0.002267207    3.281    0.695
        37 -13.4816     61.0281     75.7102   4.2093223002e+01   5.5884630751e+01    0.8460543    0.5876462  59.63  0.003322307    1.787    0.440
        38 -13.0616    236.8128     79.5817   3.6166562800e+00   1.8915495541e+01    0.2945147    0.2267585  74.73  0.001971727    1.625    0.385
        39 -12.5568    134.6805     79.1844   1.9477109231e+01   3.9783290789e+01     0.711051    0.3436178  58.31  0.002731212    2.309    0.567
        40 -12.0999     50.6584     66.4298   4.3750873995e+01   5.9758409814e+01    0.7644992    0.4048575 -73.02   0.00267109    3.231    0.690
        41 -11.3461     42.4945     79.5117   5.1491642164e+01   5.7688686725e+01    0.1469902     0.139099 -44.26 0.0008105109    1.015    0.014
        42 -14.3793      7.0603     70.7867   6.7443874458e+01   6.3211097768e+01    0.8449711    0.7646902 -53.40  0.003747032    1.028    0.027
        43 -13.6484      4.5961     62.9447   6.7421148752e+01   6.5366375050e+01     0.701705    0.5384506   7.03  0.004015908    1.414    0.293
        44 -12.9050     72.1125     74.7904   3.7254303048e+01   5.4142256720e+01    0.9099457    0.4540755  22.32  0.002929058    3.500    0.714
        45 -11.7416     81.8680     69.7888   3.1874848628e+01   5.3356368150e+01    0.4560806    0.2364505  53.76   0.00174544    2.242    0.554
        46 -12.6704     87.5753     65.5003   2.8351576154e+01   5.3069325924e+01    0.5043435    0.3851475  10.60  0.001410577    1.751    0.429
        47 -10.8460     27.4221     76.2180   5.7960613739e+01   6.0248764844e+01    0.2031016    0.1342331 -82.30 0.0009449667    1.694    0.410
        48 -11.9555    114.2462     79.7482   2.4834342150e+01   4.4291488558e+01    0.4517342    0.2643385 -51.97  0.001881628    1.790    0.441
        49 -12.3685    200.2180     69.1986   5.4182050520e+00   2.7141925773e+01    0.3252973    0.1963538  67.74  0.001698528    1.915    0.478
        50 -11.5168     39.1882     68.1685   4.9892704548e+01   6.0961091532e+01    0.2026953    0.1747265  66.62    0.0010867    1.340    0.254
        51 -12.5326    133.6761     65.8939   1.5646632596e+01   4.2446743200e+01     0.534896     0.354615  63.98  0.002487837    1.589    0.371
        52 -12.5312     57.3997     65.7537   4.0416179114e+01   5.8829554409e+01    0.4619056    0.2842747  37.59   0.00208732    1.637    0.389
        53 -11.0780     99.8736     64.8489   2.4122627738e+01   5.0499238638e+01    0.2131847    0.1813758 -87.55  0.001071677    1.341    0.254
        54 -11.6170    158.6089     63.7927   1.0127530849e+01   3.6977370109e+01    0.2175964    0.1174683 -46.76 0.0009516967    1.754    0.430
        55 -12.5546     78.8360     60.5994   2.9711912189e+01   5.5910333597e+01    0.4525622    0.3599586 -50.35  0.002285853    1.289    0.224
        56 -13.0794    177.9991     57.8235   5.4479474652e+00   3.3518440408e+01    0.5503558    0.3981323 -56.48  0.002219716    1.293    0.227
        57 -12.6474     91.3708     57.7119   2.4244944287e+01   5.3781602581e+01    0.4939306    0.4440782 -40.07  0.002236894    1.132    0.117
        58 -11.1298     24.5979     60.1915   5.5317630739e+01   6.4590136068e+01    0.2203196    0.1687818   6.06 0.0009536676    1.386    0.279
        59 -13.9460    119.7641     54.8908   1.5235874760e+01   4.7656521136e+01    0.5977142    0.4108254  44.94  0.001401105    1.539    0.350
        60 -11.2568     17.4086     54.6879   5.7948087181e+01   6.6599256530e+01    0.2624235    0.1310221 -70.54 0.0009595551    2.105    0.525
        61 -13.3695    103.6413     51.1595   1.8077910479e+01   5.2141679180e+01    0.7507977    0.5379142 -87.40  0.002558345    1.872    0.466
        62 -12.6493     97.5812     49.7614   1.9298819794e+01   5.3806633077e+01    0.5215414    0.3391273 -46.33  0.001931132    1.591    0.371
        63 -11.6092    136.0936     50.0175   1.0051963087e+01   4.4488613836e+01     0.293809    0.2038484  52.86 0.0009497366    1.475    0.322
        64 -13.3645    223.5227     43.1876   3.5688379653e+02   2.6116586452e+01    0.8178638    0.3804109 -83.95  0.003683456    3.213    0.689
        65 -13.5322    208.8923     42.1606   3.5792633714e+02   2.9109136946e+01      1.32361    0.5407484 -84.02  0.004398616    5.369    0.814
        66 -12.9006      4.5265     45.5055   6.3700658938e+01   6.9721099783e+01    0.4539636     0.169926 -61.06  0.001684339    2.174    0.540
        67 -11.9795     11.7335     43.0675   5.8122459859e+01   6.9839847850e+01    0.4108943    0.2051548 -15.30  0.001752653    2.521    0.603
        68 -11.6933    158.2912     42.9939   4.0676158092e+00   4.0171258603e+01    0.2598295    0.1677567  53.11  0.001294698    1.671    0.402
        69 -12.9502    243.8230     36.2826   3.5388296422e+02   2.3255553123e+01    0.5014179    0.2366692  79.60  0.002804883    2.552    0.608
        70 -11.6984    109.5150     41.9209   1.3059972408e+01   5.2227909204e+01    0.3318608    0.1978591  62.85  0.000898899    1.667    0.400
        71 -12.0177     40.2651     40.2840   3.9074454377e+01   6.7139592916e+01    0.4006282    0.2386013  34.38  0.001922256    1.667    0.400
        72 -11.7745    133.7559     39.0366   6.8436767630e+00   4.6674957909e+01    0.4936252    0.2807513 -70.83  0.002022224    2.402    0.584
        73 -12.3787    113.6643     37.9058   1.0559467912e+01   5.1806344306e+01    0.3343498    0.3130178  71.07  0.001181393    1.031    0.030
        74 -13.5361    122.1636     36.6744   8.2658067554e+00   4.9875973211e+01    0.8992993    0.3905707  45.16  0.003020021    2.708    0.631
        75 -12.4833    130.9502     33.4348   5.4330742479e+00   4.8131126196e+01    0.4514573    0.2346775  52.62  0.001989585    1.935    0.483
        76 -12.0546     32.6730     40.1425   4.3444834068e+01   6.8274388909e+01    0.2651659    0.1959768  17.33   0.00087004    1.382    0.276
        77 -12.0024     75.8806     37.0465   2.1179711208e+01   6.0901773604e+01    0.3023714    0.1962531  45.67 0.0006697042    1.478    0.323
        78 -14.1780      9.5400    245.1910   7.8951346523e+01   2.0134073457e+01    0.6734003    0.3116631  49.85   0.00332226    1.619    0.382
        79 -13.0729     20.4959    223.4831   7.5748332924e+01   2.3459817929e+01    0.2579902    0.2450994  36.81  0.001893932    1.230    0.187
        80 -13.7317      3.1638     34.1625   6.1479210771e+01   7.2476219957e+01    0.4641597    0.4006656 -58.21  0.001804896    1.138    0.121
        81 -14.5775     11.2955    179.9761   7.5999311961e+01   3.4037106826e+01     1.209197    0.8027721 -36.02  0.006451986    1.990    0.498
        82 -12.9912    142.6260     29.8916   2.3095945997e+00   4.5693457812e+01    0.7726294    0.4035698  80.64  0.003358577    2.121    0.529
        83 -13.0789    124.3776    166.8212   4.2966922122e+01   2.2987338824e+01    0.6526673    0.4276271 -66.67  0.003020834    1.961    0.490
        84 -12.3282     30.7414    167.9528   6.9626526581e+01   3.5340159016e+01    0.3308883    0.2752952 -19.07  0.001769756    1.479    0.324
        85 -12.4083     56.2121     27.0475   2.4400644373e+01   6.6691854619e+01    0.3977485    0.2731437  61.42  0.001401549    1.746    0.427
        86 -11.9687    120.4842     25.8431   4.6234406160e+00   5.1714289268e+01    0.4180557    0.2047967  78.10  0.001682664    2.359    0.576
        87 -13.8775    165.9013     30.2043   3.5927671921e+02   4.0038563111e+01    0.7690398    0.4825914 -88.36  0.003243404    1.671    0.402
        88 -11.8712    111.5198    155.6901   4.4267337295e+01   2.7569842056e+01    0.3909835       0.2869 -85.88  0.001815067    1.878    0.467
        89 -12.1766     51.5132     19.9304   2.2752881481e+01   6.8730356010e+01     0.333277    0.1884389  51.39 0.0006650711    1.755    0.430
        90 -11.0809     71.0033     16.7404   1.3098468500e+01   6.4928301848e+01    0.1943819    0.1697422  52.39 0.0005895398    1.062    0.058
        91 -12.5791    141.3642     21.5312   3.5973265493e+02   4.7001515084e+01    0.8428029    0.3962487 -85.57  0.003220114    2.933    0.659
        92 -11.5165     77.4179    157.0471   5.4230963520e+01   3.2532814716e+01    0.2875214    0.2197706  19.48  0.000955791    1.396    0.283
        93 -12.4635     73.6217    153.3983   5.4803648274e+01   3.3991390506e+01    0.3169854    0.2816843  58.91  0.001509925    1.110    0.099
        94 -11.4378    103.8319    149.8695   4.5286755390e+01   3.0202672173e+01    0.2388285    0.2034968 -18.51   0.00115286    1.308    0.236
        95 -11.8148    247.7092    135.9782   1.3713556199e+01   9.2676353291e+00    0.2009718     0.150655 -85.85  0.001188833    2.722    0.633
        96 -12.1622    133.4102    131.2357   3.3446165617e+01   2.9211488181e+01     0.290179    0.2189709 -67.86    0.0013795    1.605    0.377
        97 -14.1847    104.5459    121.5557   3.9082639088e+01   3.6871949100e+01     1.270775     1.098386  78.12  0.006421811    1.311    0.237
        98 -13.4770    148.5602     29.3311   1.2605433341e+00   4.4307021285e+01    0.6840732    0.4310327  75.14  0.003453616    1.554    0.356
        99 -14.4680    105.5273    106.4976   3.5048363556e+01   4.0248242857e+01      1.28216     1.093024 -88.63  0.006366642    1.351    0.260
       100 -11.7443      5.2411    119.5049   7.4044648451e+01   5.0188652685e+01    0.4093681    0.1771515  -1.69  0.001583437    3.143    0.682
       101 -11.4141     86.6904    114.8681   4.3099769427e+01   4.1752013480e+01    0.2691459    0.2207739  14.36   0.00117272    1.396    0.284
       102 -11.3339     36.1201     22.7175   3.2702163383e+01   7.1122560278e+01    0.2651204    0.1658666 -14.08  0.001237735    2.146    0.534
