#   1 NUMBER                 Running object number                                     
#   2 MAG_AUTO               Kron-like elliptical aperture magnitude                    [mag]
#   3 X_IMAGE                Object position along x                                    [pixel]
#   4 Y_IMAGE                Object position along y                                    [pixel]
#   5 X_WORLD                Barycenter position along world x axis                     [deg]
#   6 Y_WORLD                Barycenter position along world y axis                     [deg]
#   7 A_WORLD                Profile RMS along major axis (world units)                 [deg]
#   8 B_WORLD                Profile RMS along minor axis (world units)                 [deg]
#   9 THETA_WORLD            Position angle (CCW/world-x)                               [deg]
#  10 FWHM_WORLD             FWHM assuming a gaussian core                              [deg]
#  11 ELONGATION             A_IMAGE/B_IMAGE                                           
#  12 ELLIPTICITY            1 - B_IMAGE/A_IMAGE                                       
         1 -14.4628    199.0030     40.0320   4.4088248132e+01   3.0453345025e+01     1.612368     1.383313  -2.00  0.003980965    1.505    0.335
         2 -14.7106    209.1708     29.5761   4.0240383711e+01   2.9368306731e+01     1.708559     1.302316  21.24   0.00221766    1.957    0.489
         3 -13.0401    236.7285      4.6500   3.2153996178e+01   2.6014107745e+01    0.5658621    0.5065486  56.32  0.003382919    1.462    0.316
         4 -12.8765    230.5366      4.3627   3.2528969751e+01   2.7381220011e+01    0.5158166    0.3712206 -53.70  0.003095988    1.215    0.177
         5  -9.9412     60.5327      7.5390   6.2590339010e+01   6.6113693146e+01    0.1238249    0.1015309  17.26 -1.484376e-05    1.030    0.029
         6 -10.8484     59.5117    220.4056   1.1505615853e+02   2.0910507662e+01    0.2853513    0.2434382  28.02  0.001155497    1.472    0.321
         7 -12.2568    139.6723    248.4190   1.0184377399e+02   3.8314353275e+00    0.4680474    0.3848199 -38.66   0.00309705    1.487    0.328
         8 -13.5275     28.0897    215.4061   1.2100929150e+02   2.5695309142e+01     1.212608    0.4247803 -83.00  0.005309089    2.980    0.664
         9 -15.7298     47.1672    201.0224   1.1586225370e+02   2.6635283188e+01     8.139453     2.154081  55.59   0.02384573    5.747    0.826
        10  -9.9541    133.8514    196.0635   9.5446638453e+01   1.4540425480e+01    0.2159046    0.1847982  70.31 0.0005819764    1.273    0.215
        11  -9.5842    150.4897    195.4948   9.1584243963e+01   1.1671850599e+01     0.142274    0.1319152  30.62 -0.000120136    1.007    0.007
        12 -10.6484    108.0713    210.6382   1.0348866250e+02   1.5868258988e+01    0.3191424    0.1160272  38.30  0.001245706    2.481    0.597
        13 -14.1168     55.2589    187.7717   1.1267030210e+02   2.8648876753e+01     1.662407     1.033506  74.45  0.008643242    1.661    0.398
        14  -9.8751    119.9813    193.9977   9.8306176959e+01   1.7407253512e+01    0.2096758     0.192774  63.29 0.0003170645    1.047    0.045
        15 -17.5279     13.8374    245.6531   1.2540348028e+02   2.1195925338e+01     7.526695      2.28321  28.08   0.02203334    5.587    0.821
        16  -8.9915    156.5202    190.0280   8.9245709496e+01   1.1666070843e+01    0.2033211    0.1427398 -45.54 0.0003493805    1.507    0.336
        17 -10.0976    148.9297    187.7673   9.0542939665e+01   1.3529616479e+01    0.3348111    0.1680769  35.77  0.001379294    1.961    0.490
        18  -9.9460    120.4706    186.4523   9.6946818037e+01   1.8969906721e+01    0.1433968    0.1344347  55.95 4.610586e-05    1.003    0.003
        19 -15.1851     68.6413    144.1238   1.0304705092e+02   3.7482024583e+01     5.862171     3.080931  74.23   0.01982622    3.713    0.731
        20 -16.8378      6.8166    203.5622   1.2445066572e+02   3.0319503387e+01     11.41818      1.07879 -75.65   0.02136266    7.484    0.866
        21 -13.8860     70.8962    155.3270   1.0432024366e+02   3.4375994527e+01    0.6182303     0.592514 -54.44  0.002198661    1.150    0.130
        22  -9.4702     91.3461    183.0206   1.0341640682e+02   2.4625672136e+01    0.1943797    0.1666067 -74.92 0.0004010838    1.147    0.128
        23 -10.5138     99.3243    180.7038   1.0110854318e+02   2.3878879846e+01    0.2658754    0.2356438  33.52 0.0005829489    1.204    0.169
        24 -10.7049    188.5077    176.1620   7.9565718141e+01   8.3768077080e+00     0.749124    0.3326161 -54.25  0.002559147    3.461    0.711
        25 -10.2748    143.6054    178.8879   9.0111618651e+01   1.6394193534e+01    0.2591387    0.1995761  28.29  0.000730627    1.339    0.253
        26  -9.3842    149.3178    176.9152   8.8397628640e+01   1.5731364662e+01    0.1990806    0.1865334 -45.85 0.0004640195    1.111    0.100
        27  -9.4728     39.1427    176.8413   1.1527363990e+02   3.3125926680e+01     0.193981    0.1470224  69.92 0.0005435869    1.200    0.167
        28 -12.3522     69.7271    173.7718   1.0741116508e+02   3.0035055426e+01    0.4490148    0.3226461 -34.75  0.002281404    1.872    0.466
        29 -12.2372     74.0379    169.1064   1.0564597354e+02   3.0548967033e+01    0.3554604    0.2847341 -57.09 0.0009466553    1.263    0.208
        30 -10.2582    146.6088    171.9730   8.8057354055e+01   1.7312094071e+01    0.2896731    0.1920931 -63.45  0.001276379    1.854    0.461
        31 -10.9380    137.6119    169.0247   8.9620397961e+01   1.9691598655e+01    0.4660581    0.3325793 -55.27   0.00199779    1.471    0.320
        32  -9.5119    111.1406    168.1240   9.6007752541e+01   2.4798788526e+01    0.2082534    0.1720412  81.22 0.0004780824    1.327    0.246
        33 -11.2691     33.7767    165.8150   1.1539198336e+02   3.6334105190e+01    0.4749014    0.2157831  49.03  0.001901749    2.220    0.550
        34  -9.1685     46.4529    159.2195   1.1138238931e+02   3.6553179682e+01    0.1868051    0.1159412 -85.27  0.000421275    1.593    0.372
        35 -12.3486     89.3731    153.4267   9.8996014919e+01   3.2039459189e+01    0.6786928    0.4842706 -22.69   0.00179627    2.019    0.505
        36 -11.4747    133.7978    145.0652   8.5494367874e+01   2.5891097498e+01     1.206543    0.3281998 -54.47  0.002917175    5.212    0.808
        37  -9.1272    112.6514    150.3361   9.2146320336e+01   2.8749148783e+01    0.1623644    0.1184048  77.23 0.0007047357    1.781    0.439
        38 -10.2352    187.3848    151.7581   7.4532320348e+01   1.3352359250e+01    0.2169124    0.1374436 -31.20 0.0009486088    1.640    0.390
        39 -10.7554    174.3427    148.6422   7.6640066339e+01   1.6681515309e+01    0.3805808    0.2821991 -57.94  0.001186355    1.549    0.354
        40 -10.9704     38.6076    146.1483   1.1173594900e+02   4.0642901555e+01    0.3443068    0.2346262  53.68 0.0007830148    1.546    0.353
        41 -10.6554    143.8373    145.7522   8.3129650757e+01   2.3682551142e+01    0.3105313    0.2114157 -74.56   0.00124742    2.159    0.537
        42 -11.0098    103.0059    139.0122   9.2364540803e+01   3.3244959049e+01    0.5794014    0.3628692 -25.08  0.002245195    2.482    0.597
        43 -12.5368     90.3548    138.8049   9.5873739658e+01   3.5484564604e+01    0.2938028    0.2697699 -38.84 0.0005013603    1.146    0.127
        44 -12.0973     43.7914    129.8724   1.0781983683e+02   4.4142412250e+01     0.506543     0.320842  89.70   0.00174192    1.809    0.447
        45 -10.7451    105.8992    130.8209   8.9722190947e+01   3.4702480475e+01    0.3689597    0.3302367 -72.80  0.001380846    1.146    0.127
        46 -11.2885    135.8063    127.8531   8.0899750036e+01   2.9425535914e+01    0.8687462    0.1870525 -48.10  0.002109671    4.774    0.791
        47 -10.4692    112.0131    129.7393   8.7756321085e+01   3.3807641295e+01    0.3489305    0.2729338  10.38 0.0009941687    1.626    0.385
        48 -10.1756    160.8352    127.8988   7.4750543553e+01   2.3974779562e+01    0.3729621    0.2130208 -50.55  0.001480354    1.837    0.456
        49 -11.1671     99.1444    125.7363   9.0471179870e+01   3.7165840588e+01    0.3128537    0.2566408  -8.65 0.0007076664    1.509    0.337
        50  -9.2369     93.5110    125.9825   9.2171810003e+01   3.8100111990e+01    0.2219518    0.1449426 -55.85 0.0004048726    1.472    0.321
        51 -11.4290    119.1417    122.9396   8.4125540283e+01   3.4010381469e+01    0.5960346    0.3901645   4.83   0.00216121    2.810    0.644
        52 -10.0039    108.0273    118.8941   8.6241599462e+01   3.7150800744e+01    0.2203375    0.2153262 -42.46 0.0003041539    1.015    0.015
        53  -9.9974     32.3858    204.2332   1.1929867727e+02   2.7624481362e+01    0.2456897    0.1635258  85.57  0.001504184    1.292    0.226
        54 -10.9060    134.8787    112.4481   7.7164499802e+01   3.3083549826e+01    0.6366853    0.1176183 -45.66  0.001440282    5.393    0.815
        55  -9.1342    168.1587    112.7889   6.9207690759e+01   2.5488301620e+01    0.2760622    0.1784698 -80.37 0.0009594696    2.958    0.662
        56 -11.6090    107.7558    203.9967   1.0263235487e+02   1.7313732703e+01    0.4535415    0.2749038  62.98  0.001527269    1.933    0.483
        57 -10.2915    205.4066    110.1142   6.1049618808e+01   1.7565396281e+01    0.3073962    0.2259502  45.17 0.0009214362    1.465    0.317
        58 -11.3810    116.6660    108.8351   8.1147491163e+01   3.7763330943e+01    0.5241919    0.4694485 -86.09  0.002654822    1.268    0.211
        59 -11.0042    119.7633    103.9053   7.8921027463e+01   3.8224061117e+01    0.3294164    0.2191704 -54.31   0.00131075    1.592    0.372
        60 -12.8005     30.8236    107.9523   1.0809360390e+02   5.0840246163e+01    0.4699066    0.3242946   0.53  0.002560619    1.880    0.468
        61  -8.8953    141.0225    107.9753   7.4370064509e+01   3.2695369284e+01    0.1848155     0.183894 -12.90 0.0003729945    1.013    0.013
        62  -9.1675     93.7046    205.4389   1.0600451108e+02   1.9234121041e+01    0.1816243    0.1264433  27.57 0.0009422738    1.637    0.389
        63 -11.2429    241.8599    102.1091   5.3317147085e+01   1.1316450518e+01     0.217685    0.1736495 -57.40 0.0007632929    1.257    0.204
        64 -10.7236     29.9325     98.9788   1.0670466151e+02   5.3086362840e+01    0.2377623    0.1929674  38.55  0.001167617    1.448    0.309
        65  -9.2369    128.9557     96.2636   7.4224699758e+01   3.7887582988e+01     0.218883    0.2036592  45.73 0.0007086016    1.092    0.084
        66 -10.5813     52.8771     91.6439   9.7002226246e+01   5.2421299928e+01    0.2645109    0.1665023 -47.02 0.0008828435    1.396    0.284
        67 -12.3045    109.6072    200.8211   1.0175129267e+02   1.7688755114e+01    0.6243621    0.3761952 -36.89  0.002707198    2.312    0.567
        68  -9.2050    157.4881     89.5117   6.5226584816e+01   3.2629065565e+01    0.1576605    0.1486377 -73.90 0.0008085655    1.099    0.090
        69  -9.1866    117.2118     86.1524   7.4460069124e+01   4.2560870729e+01    0.2031201     0.181146  75.20 0.0005681544    1.298    0.230
        70  -9.4783     74.7603     84.7587   8.7427154914e+01   5.0898675084e+01    0.1829876    0.1672261 -78.24 0.0003799145    1.294    0.227
        71  -9.9893    158.1177     82.1156   6.2954729067e+01   3.3870152698e+01    0.2394532    0.2113532  14.71 0.0005732001    1.282    0.220
        72  -8.9313     70.6999     82.2420   8.8096401891e+01   5.2087663500e+01    0.1290703    0.1124663  73.46  0.000149104    1.484    0.326
        73  -9.0624    184.5262     76.9712   5.6223597018e+01   2.8362102920e+01    0.2002754    0.1351725  -4.67 0.0007374663    2.359    0.576
        74  -9.1887     56.4927     66.4902   8.8447239854e+01   5.7495862444e+01    0.1353936    0.1226347 -30.36 2.890078e-05    1.082    0.076
        75 -11.2549     13.2000     59.7042   1.0428126637e+02   6.3268373954e+01    0.2643405    0.2355692  86.95 0.0005651847    1.461    0.316
        76 -13.8388    188.4227     47.7919   4.7612733886e+01   3.1968255164e+01     1.177437     0.853564  40.23 0.0009077484    1.632    0.387
        77 -14.9684     55.1513    240.8189   1.1764035714e+02   1.7393051330e+01     0.911688    0.6836964 -38.64  0.005073616    2.195    0.544
        78 -11.0320    112.9781    205.9687   1.0173581869e+02   1.6042010447e+01    0.3919181    0.2228428  58.94   0.00153901    2.028    0.507
        79  -9.2307     69.2326     52.4839   7.8699239728e+01   5.8271978166e+01    0.1773343    0.1298223  47.82 0.0009326556    1.634    0.388
        80 -11.4753    143.6823     48.5278   5.5785081373e+01   4.2990516020e+01    0.4981926    0.3206337 -83.37  0.002045479    2.435    0.589
        81 -11.3391     21.0355     33.5866   9.2282365318e+01   6.7809178433e+01    0.3062187    0.1912157  30.98  0.001477535    1.882    0.469
        82 -10.8038    198.0673     23.8175   4.0034000606e+01   3.2698560895e+01    0.2825819    0.1992998 -18.77  0.001093902    1.767    0.434
        83  -9.6641    189.5117     14.9693   3.8710680814e+01   3.5748823359e+01    0.1841143    0.1281164 -31.93 0.0005730384    1.551    0.355
        84 -12.2987    194.6973    197.7944   8.2557419644e+01   3.3174713321e+00     1.225243    0.8245685 -59.92  0.005869451    2.263    0.558
        85  -9.5449    169.0786    236.4588   9.4322547830e+01   1.1250967858e+00    0.1745002    0.1609389  -8.94 0.0005113498    1.188    0.158
        86  -9.8707     93.1825    249.7814   1.1112692895e+02   1.0584023112e+01    0.2411126    0.1745825   8.65  0.001344196    2.294    0.564
