#   1 NUMBER                 Running object number                                     
#   2 MAG_AUTO               Kron-like elliptical aperture magnitude                    [mag]
#   3 X_IMAGE                Object position along x                                    [pixel]
#   4 Y_IMAGE                Object position along y                                    [pixel]
#   5 X_WORLD                Barycenter position along world x axis                     [deg]
#   6 Y_WORLD                Barycenter position along world y axis                     [deg]
#   7 A_WORLD                Profile RMS along major axis (world units)                 [deg]
#   8 B_WORLD                Profile RMS along minor axis (world units)                 [deg]
#   9 THETA_WORLD            Position angle (CCW/world-x)                               [deg]
#  10 FWHM_WORLD             FWHM assuming a gaussian core                              [deg]
#  11 ELONGATION             A_IMAGE/B_IMAGE                                           
#  12 ELLIPTICITY            1 - B_IMAGE/A_IMAGE                                       
         1 -13.1801     46.5759     27.1479   3.8158843106e+01   6.5319968233e+01    0.4981023    0.2080748 -38.96  0.002358938    2.679    0.627
         2 -12.8078     66.8701     16.2266   2.5985556738e+01   6.3016253860e+01    0.2409504    0.2091935  24.75 0.0004828892    1.093    0.085
         3 -13.1088    135.4793     11.9349   8.7763444797e+00   4.8421504649e+01    0.2476624    0.2222052  76.52 0.0006781724    1.103    0.093
         4 -11.7713     90.6581     11.9010   1.7525634917e+01   5.8567352256e+01    0.1782965    0.1606555  83.24 0.0005730825    1.292    0.226
         5 -12.0281     92.3869      8.2087   1.5788467979e+01   5.8511472488e+01    0.2591421    0.2070435 -42.30  0.001615984    1.555    0.357
         6 -10.9927    107.5461      5.4934   1.1640584021e+01   5.5384480179e+01    0.1258814   0.09928025  55.24 -2.622277e-05    1.058    0.055
         7 -12.2399     44.9434      7.6184   3.0273581987e+01   6.7798863175e+01    0.1919791    0.1541552  -1.26 0.0003456028    1.229    0.186
         8 -11.4885    215.1565      2.7973   3.5822158218e+02   3.1497879983e+01    0.1685092    0.1159445 -75.79 0.0003425288    1.116    0.104
         9 -10.8359    129.1779      1.3419   6.7163878606e+00   5.0784020460e+01    0.1733811   0.09615735  77.31 0.0003745332    1.603    0.376
        10 -10.9055    119.3227    244.3244   6.6650449891e+01   5.7361079541e+00    0.1343997    0.1022705  -5.08 0.0007047433    1.683    0.406
        11 -10.9265    246.2490    250.0159   4.1568620140e+01  -1.2695675515e+01    0.1384095   0.08062378 -31.10 0.0002892838    1.493    0.330
        12 -11.9000    139.3464    248.3593   6.2725706305e+01   1.8932752699e+00    0.3270038    0.1841969 -53.67  0.001620593    2.087    0.521
        13 -11.2621    124.6942    249.9291   6.6190141345e+01   3.8274538209e+00    0.1965091     0.156016 -28.66  0.001136969    1.497    0.332
        14 -12.6723     55.4359    249.5156   8.1442200679e+01   1.3871969497e+01    0.6689485    0.2756354  25.21  0.002698858    3.151    0.683
        15 -12.8489     64.0702    245.7276   7.9224968608e+01   1.3524694941e+01    0.2683167    0.2485385 -10.85 0.0004815095    1.430    0.301
        16 -13.3316     67.5972    247.2344   7.8594833728e+01   1.2728981032e+01    0.3856518    0.2689025  68.30  0.002204766    1.409    0.290
        17 -13.7768     70.7854    243.8266   7.7552733780e+01   1.3009099624e+01    0.5231509    0.3090967 -83.63 0.0009680678    1.991    0.498
        18 -16.2392     38.9967    206.0283   8.1167416950e+01   2.5799318716e+01     5.459875     2.271308  85.10   0.01847433    3.879    0.742
        19 -15.3223     34.6597    228.0766   8.4172181966e+01   2.1128175469e+01     2.085903    0.8424208 -89.00  0.008230411    3.167    0.684
        20 -15.6226     11.0175    186.7596   8.6287534160e+01   3.3436677556e+01     1.321077     1.065086 -74.91  0.006820751    1.143    0.125
        21 -14.6669     36.0954    248.9907   8.5479145215e+01   1.6391552514e+01     1.277469    0.4325638  41.94  0.004793575    2.285    0.562
        22 -15.8809     22.6382    216.5612   8.5951129519e+01   2.5121923505e+01     2.601361     1.039082  80.93  0.009895912    3.334    0.700
        23 -15.3223     16.8014    206.4588   8.6500478054e+01   2.8106485729e+01     1.621321     0.688788 -46.61  0.006586313    3.407    0.707
        24 -14.4630     10.1589    215.8485   8.8689236190e+01   2.6552910026e+01    0.6594603    0.3300307  41.64  0.002181185    1.808    0.447
        25 -15.6221      2.9769    206.2736   8.9646135341e+01   2.9447036885e+01     2.860296     0.498469 -77.16  0.008673859    5.189    0.807
        26 -15.1987      3.0799    223.1212   9.0672210353e+01   2.5568450272e+01    0.9406358    0.4677179 -80.49  0.005076325    1.770    0.435
        27 -16.4721     14.6373    227.6547   8.8507979435e+01   2.3419696033e+01     2.160936    0.8866829  75.51  0.009320359    2.758    0.637
        28 -15.3020      4.0126    249.1113   9.1896539137e+01   1.9874828983e+01    0.9873327     0.259212  32.06  0.004268721    3.377    0.704
        29 -16.3835     10.7320    240.1036   9.0088366079e+01   2.1091142725e+01     1.116451    0.7841279  36.75  0.007218104    1.461    0.316
        30 -15.6951      6.3550    234.0690   9.0628186887e+01   2.2833538745e+01     0.635551      0.52435 -48.87  0.004318819    1.650    0.394
        31 -11.1561     78.0654    243.1962   7.5857447613e+01   1.2120801417e+01    0.1866404    0.1694382  25.93 0.0005949316    1.234    0.190
        32 -11.5153    126.2657    241.7039   6.4721344532e+01   5.1802581451e+00    0.2044056     0.182493  87.31 0.0006521703    1.338    0.252
        33 -10.3390    196.7115    241.6869   4.9494215791e+01  -5.3644083014e+00    0.1301415   0.08642431  -5.99 0.0003202535    1.585    0.369
        34 -11.7576    117.4881    241.0628   6.6630513125e+01   6.6698244421e+00     0.189422    0.1368193 -56.21  0.001025897    1.571    0.363
        35 -11.8247    108.4699    240.1946   6.8579199475e+01   8.2372381880e+00    0.3190429    0.2067878  20.24  0.001037215    1.739    0.425
        36 -10.6646    167.4058    240.4418   5.5403767789e+01  -9.1992974742e-01    0.1309305    0.1153115  16.53 -1.728517e-05    1.054    0.051
        37 -13.2584     49.4749    238.2636   8.1754901983e+01   1.7046306590e+01    0.4955101    0.3071732  65.63  0.002265839    1.540    0.351
        38 -11.2861    149.5278    238.9702   5.9090305715e+01   2.0855982500e+00    0.1901389    0.1332789 -44.62 0.0007267992    1.568    0.362
        39 -11.5287    103.4959    237.5266   6.9380206253e+01   9.5538689848e+00     0.262727    0.1364268 -59.23  0.001205742    2.150    0.535
        40 -11.4854    102.4477    234.4583   6.9227209131e+01   1.0362698902e+01    0.2119099    0.1785937  88.24 0.0005189996    1.323    0.244
        41 -11.4208    210.9061    236.3478   4.5802951776e+01  -6.4220756187e+00    0.2472923    0.1582375 -55.91  0.001271389    2.449    0.592
        42 -11.0402     79.7632    237.3822   7.4836316907e+01   1.3121040112e+01    0.1839079    0.1213757  26.99 0.0009408979    1.586    0.369
        43 -13.6168     73.0386    230.7579   7.5652291475e+01   1.5538703063e+01      0.64486    0.2860019 -65.06  0.001327224    2.381    0.580
        44 -11.6321     69.0391    233.0139   7.6825713661e+01   1.5598551156e+01    0.2029442    0.1717391  54.49 0.0003398234    1.030    0.029
        45 -11.3618     88.5047    236.5003   7.2720906041e+01   1.2033377170e+01    0.1379641    0.1189873  52.22 0.0008105587    1.024    0.024
        46 -10.9421     58.4985    234.5140   7.9388911206e+01   1.6699828938e+01    0.1339935    0.1126556  61.56 0.0008104897    1.014    0.013
        47 -12.0050    219.8809    232.0507   4.3359037536e+01  -6.9161661124e+00    0.3972067    0.1748227  41.14  0.001658579    2.738    0.635
        48 -11.2917    182.6894    232.3357   5.0832793404e+01  -1.7638732753e+00    0.1935443    0.1621825  65.96  0.001101199    1.799    0.444
        49 -13.0255    195.0240    229.0604   4.7726089788e+01  -3.0015982436e+00    0.2759613    0.2369455 -16.74 0.0005532358    1.106    0.096
        50 -11.4563    139.2768    227.7221   5.9677995935e+01   5.9155862791e+00    0.3807841    0.2295916 -52.73  0.001829295    1.842    0.457
        51 -12.1722    231.1341    227.1583   4.0438751377e+01  -7.5829937518e+00    0.2601337    0.1568456 -11.52   0.00142073    1.758    0.431
        52 -11.5504    178.4305    228.4954   5.1090233358e+01  -4.3267120541e-01    0.1353781    0.1175798   3.31  5.21209e-05    1.018    0.018
        53 -11.3787    148.8408    228.5689   5.7623432912e+01   4.2033897375e+00    0.1948373    0.1192318  43.29 0.0004803684    1.610    0.379
        54 -13.6249     78.4274    220.4595   7.3164776791e+01   1.7100523987e+01     1.144295    0.5594339  72.60  0.003848966    3.901    0.744
        55 -11.7928    129.2053    225.7347   6.1714419619e+01   7.9604833291e+00    0.2815893    0.1908346 -38.68  0.001062197    1.673    0.402
        56 -11.4183    116.5796    225.7438   6.4697096771e+01   1.0002337934e+01    0.1831009    0.1387433 -76.16 0.0006931103    1.603    0.376
        57 -12.1530     91.6994    224.6777   7.0498504896e+01   1.4150700922e+01    0.2805011    0.2412725 -74.97 0.0008372456    1.237    0.191
        58 -12.2082     69.2268    224.8736   7.5889982770e+01   1.7406543621e+01    0.3217117      0.18635 -71.55  0.001558432    1.827    0.453
        59 -10.8615    182.2907    225.3553   4.9736904889e+01  -4.4931597602e-01    0.1411701   0.09595282  -9.62 0.0006475335    1.682    0.405
        60 -13.2050    174.0381    219.9437   5.0574244606e+01   1.8443923685e+00    0.3480091    0.3058134 -62.09 0.0006286362    1.444    0.307
        61 -12.4475    160.0369    223.1465   5.4211093106e+01   3.4677706624e+00    0.3582206    0.3267189  25.21  0.002137439    1.082    0.076
        62 -10.7023    212.2803    223.7101   4.3372640910e+01  -4.5345716592e+00    0.1350218    0.1072541  -7.50 0.0001948759    1.095    0.086
        63 -12.9392    129.1635    217.0997   6.0375447971e+01   9.8054446524e+00    0.3695291    0.2519608  -2.54  0.001334332    2.132    0.531
        64 -12.9184    124.6781    221.9177   6.2199611441e+01   9.5088870512e+00    0.4523998     0.303596  43.53  0.001445765    1.402    0.287
        65 -11.4028    121.6859    217.2925   6.2201869385e+01   1.1005542213e+01    0.2414176    0.1670705  49.72 0.0005478454    1.459    0.314
        66 -12.4025    120.3311    213.9978   6.2014380248e+01   1.1958877824e+01    0.3552596    0.2100262  54.56 0.0009710285    1.964    0.491
        67 -11.0784     95.9552    223.0484   6.9259415118e+01   1.3861362642e+01    0.1728244    0.1479645  44.04 0.0003198813    1.061    0.058
        68 -12.3214    114.2903    221.9557   6.4688678382e+01   1.1193448801e+01    0.1942566    0.1892942  47.88 0.0008283239    1.066    0.062
        69 -11.4406    166.0528    228.3520   5.3744417238e+01   1.5096239582e+00     0.210251    0.1740374 -17.90 0.0003231479    1.214    0.176
        70 -12.8719    140.8576    210.1315   5.6433356447e+01   9.3364599918e+00     0.532118    0.2922996 -69.82  0.001962812    3.158    0.683
        71 -13.5931    147.4597    216.3008   5.5928984861e+01   6.9157261602e+00      0.75676     0.337262  35.63  0.000872203    2.089    0.521
        72 -11.1655     94.5416    217.5006   6.8848425437e+01   1.5340533592e+01    0.1427699    0.1306205  53.06 2.281337e-05    1.004    0.004
        73 -10.8146    161.8198    215.8243   5.2562639778e+01   4.6271652821e+00    0.1777509    0.1649001  62.63 0.0002407853    1.299    0.230
        74 -12.2975    155.2100    213.3704   5.3639069078e+01   6.2237110459e+00    0.4798925    0.2827691 -45.05  0.002229749    1.762    0.432
        75 -12.7165    107.9561    214.9990   6.5195396845e+01   1.3772456817e+01     0.318415    0.2199882 -70.59  0.001043254    1.678    0.404
        76 -13.3512     84.1072    214.6017   7.1026617135e+01   1.7617401461e+01    0.8362314    0.2821934  39.57  0.003052068    2.578    0.612
        77 -10.7254    196.0000    214.9393   4.5056902501e+01  -6.4027510308e-01    0.2081498   0.07252054 -44.30  0.000585958    2.827    0.646
        78 -12.8902    225.8594    216.4938   3.9539293957e+01  -5.1823475179e+00    0.2338187    0.2091386   4.56 0.0004166678    1.201    0.167
        79 -11.2455    124.6934    212.6922   6.0745611868e+01   1.1518773191e+01    0.1451591    0.1126735  -9.66 0.0002866955    1.611    0.379
        80 -11.2608     97.0280    211.3123   6.7359008626e+01   1.6380810176e+01    0.2502102    0.1522388 -60.40   0.00115088    1.734    0.423
        81 -13.5903    229.1810    208.6759   3.7536254420e+01  -4.3290842050e+00    0.5616254    0.3903878 -63.73  0.002368076    2.580    0.612
        82 -11.0134    209.5200    211.4797   4.1735040443e+01  -2.0367819552e+00    0.1323618    0.1142592 -10.59 0.0001003839    1.023    0.023
        83 -11.7607     90.9188    210.1340   6.8718692177e+01   1.7621072521e+01    0.2268106    0.2017408 -76.77 0.0003577261    1.161    0.139
        84 -13.1186     51.6151    209.1020   7.8395501881e+01   2.3498353472e+01    0.5130675     0.240468  43.75  0.002281788    1.942    0.485
        85 -12.6238     59.5605    210.5332   7.6597663213e+01   2.2106484703e+01    0.2941079    0.2642849 -82.30 0.0008995581    1.114    0.103
        86 -13.2166     55.8260    206.1862   7.7025385718e+01   2.3657194281e+01    0.4630945     0.242682  49.87   0.00143746    1.833    0.454
        87 -12.6170     52.3894    204.1849   7.7656885306e+01   2.4594740837e+01    0.2600967    0.2283444  81.23 0.0008333512    1.035    0.034
        88 -11.4981    169.4934    208.7169   4.9588449093e+01   4.7794793633e+00    0.2663398    0.2023247  88.85  0.001022907    2.253    0.556
        89 -12.3527    159.7635    207.0246   5.1476850043e+01   6.7640235620e+00    0.4666301     0.266647  47.56  0.002042718    1.950    0.487
        90 -12.9037    105.8085    208.7868   6.4788676031e+01   1.5549637071e+01     0.342831    0.2443848  50.34 0.0007958004    1.379    0.275
        91 -12.7943    180.5751    207.2534   4.6899077328e+01   3.2395413374e+00    0.4546454     0.303216  51.02  0.002204497    1.877    0.467
        92 -12.1785    106.0187    226.7997   6.7358888098e+01   1.1456249785e+01     0.233256    0.1643815   1.92  0.001093888    2.024    0.506
        93 -12.7221    116.6012    204.1766   6.1356082277e+01   1.4815652694e+01    0.2729778     0.258511  85.31 0.0006674582    1.112    0.101
        94 -11.9363     61.4416    204.2415   7.5383280043e+01   2.3378017963e+01     0.318504    0.1913028  49.72 0.0009375311    1.587    0.370
        95 -13.1019     90.9780    199.8505   6.7202949993e+01   2.0075491389e+01    0.7128989    0.4003441 -41.53  0.002183975    2.188    0.543
        96 -13.1345     93.3765    193.1181   6.5534988201e+01   2.1337124979e+01    0.6601491    0.3036683  34.75  0.002568506    2.100    0.524
        97 -12.3912     91.1759    189.1906   6.5490068580e+01   2.2666474869e+01    0.3153408    0.2726372  78.63 0.0006527058    1.196    0.164
        98 -13.1038    145.3850    201.2395   5.3795614850e+01   1.0484172270e+01    0.4501451    0.3024439  56.40  0.001377484    1.826    0.452
        99 -12.1517     49.2495    199.3593   7.7900451393e+01   2.6184465667e+01    0.3843266    0.2123636 -52.77  0.001093279    1.930    0.482
       100 -12.6184    102.7839    201.1637   6.4367794583e+01   1.7842769133e+01    0.3996057    0.1982053  51.61  0.001240188    2.271    0.560
       101 -12.6914    101.2310    195.7492   6.3901759370e+01   1.9402266540e+01    0.4963868    0.2991378  44.21  0.001705267    1.596    0.373
       102 -11.9637    212.4886    200.0841   3.9068055234e+01  -4.4210235947e-01    0.2859893    0.2258492 -68.27  0.001094333    1.927    0.481
       103 -13.8416    173.8906    196.0660   4.6272722985e+01   6.6013022424e+00    0.6567705    0.4619041  57.91  0.001459201    1.905    0.475
       104 -12.5289    138.2199    196.9387   5.4749301335e+01   1.2704002520e+01    0.3730594     0.238972  11.95  0.000784368    2.172    0.539
       105 -13.3445     83.0053    197.0280   6.8856367515e+01   2.2015860107e+01    0.7996476    0.5945585  81.51  0.003257087    1.512    0.339
       106 -11.9431     65.8256    183.0995   7.1417093783e+01   2.8070457640e+01    0.5362949    0.3389476 -65.09  0.002511351    1.537    0.349
       107 -13.3492     79.2708    173.3803   6.6155420672e+01   2.8570122354e+01    0.3378638    0.3248204   4.27 0.0009567242    1.148    0.129
       108 -11.3550     78.0334    190.5212   6.9207763083e+01   2.4395905448e+01    0.2321758    0.1918782   9.10  0.001188362    1.463    0.316
       109 -13.1780     75.1691    184.5694   6.9083994756e+01   2.6332226073e+01     1.063236    0.5873957 -55.16  0.004059687    1.790    0.441
       110 -11.6418     61.0432    199.9949   7.4961480048e+01   2.4477593638e+01    0.2083759    0.1842421  71.89 0.0003332382    1.035    0.034
       111 -12.2019    230.1297    204.2909   3.6571849761e+01  -3.7199598874e+00    0.2438866    0.1930331 -16.44 0.0002922696    1.085    0.079
       112 -11.8593    201.9326    196.1881   4.0400372876e+01   1.9128343692e+00    0.2656714    0.1696693 -44.29 0.0007820926    1.529    0.346
       113 -10.9056    137.0127    200.9863   5.5767783581e+01   1.2009299547e+01    0.2052408    0.1747989  64.94 0.0003704119    1.343    0.255
       114 -12.7968     44.3048    201.0303   7.9335207977e+01   2.6385267019e+01    0.4383663    0.2299626 -75.90  0.001002887    1.882    0.469
       115 -13.7496    121.9237    196.5212   5.8724213792e+01   1.5677300505e+01    0.5196491    0.3542008  34.08  0.002429244    1.420    0.296
       116 -11.7140    186.5485    194.4694   4.3232515865e+01   4.7652484430e+00    0.2173652    0.2035964  11.52 0.0005014098    1.088    0.081
       117 -12.1026    190.3189    194.7007   4.2485478667e+01   4.0890713169e+00     0.299922    0.2479157 -80.10 0.0007272928    1.781    0.438
       118 -12.3615    193.5025    193.5183   4.1599948164e+01   3.7921904789e+00    0.2788284    0.2625012   8.02 0.0007734396    1.105    0.095
       119 -12.6262    110.3838    196.0753   6.1589000480e+01   1.7779523805e+01    0.2614166    0.2466408   6.66 0.0007205566    1.131    0.116
       120 -14.0591    110.3020    187.5739   6.0149236351e+01   1.9842763911e+01    0.6213121    0.3839155 -71.69  0.002059573    2.033    0.508
       121 -11.2118    134.5038    197.5157   5.5763837472e+01   1.3232543184e+01    0.2113666    0.1490162 -66.07 0.0009681086    1.695    0.410
       122 -11.3832    160.7118    192.9998   4.8666332932e+01   9.5576163637e+00      0.20448     0.190097 -23.72 0.0004262775    1.060    0.056
       123 -10.3534     64.6614    193.2807   7.3150461561e+01   2.5651998673e+01    0.1526236    0.1002151  62.47  0.000700816    1.622    0.384
       124 -14.3310    116.9555    179.1673   5.6866665702e+01   2.0708124778e+01    0.7246676    0.4378378  55.00  0.002878937    1.938    0.484
       125 -12.9718    133.7158    190.7199   5.4723400550e+01   1.4928191838e+01    0.3986582    0.3384179  16.49  0.001272802    1.237    0.192
       126 -14.1628    126.8604    186.5049   5.5670072151e+01   1.7152060697e+01    0.7278157    0.3984076  50.07  0.002896041    2.017    0.504
       127 -13.5056    132.6871    184.9677   5.3904910259e+01   1.6451651609e+01    0.5127499    0.3110884 -36.96  0.002148499    1.882    0.469
       128 -12.7159     50.6509    189.9754   7.6422924440e+01   2.8356830589e+01    0.3070841    0.2320199  59.04 0.0004211443    1.282    0.220
       129 -11.2218     97.0099    188.5279   6.3826808300e+01   2.1873412991e+01    0.2227922    0.1961372 -67.58 0.0005006397    1.156    0.135
       130 -13.4969    248.6610    185.4557   2.9970094807e+01  -3.0678813710e+00    0.3030528    0.2440054  -8.08 0.0006757809    1.219    0.180
       131 -12.3236    155.9902    186.3084   4.8479041747e+01   1.1864958701e+01    0.4992212    0.2979499  10.91  0.001837419    2.809    0.644
       132 -10.8734    187.4448    186.5274   4.1505935016e+01   6.1994635651e+00    0.1423798    0.1314877 -16.97 6.244682e-05    1.017    0.017
       133 -11.1920     43.2458    186.4247   7.7951839294e+01   3.0170178233e+01    0.1897815    0.1202775  45.09 0.0004644146    1.538    0.350
       134 -12.5779     33.2070    184.7967   8.0417062843e+01   3.1732570404e+01    0.2769765    0.1734202 -88.52  0.001141005    1.578    0.366
       135 -10.4023    239.3069    185.2911   3.1475849380e+01  -1.7501244587e+00    0.1276322   0.08803214 -12.64 0.0001927611    1.577    0.366
       136 -10.6173    228.6940    185.7022   3.3378369187e+01  -2.8665165895e-01    0.1320422   0.09200483 -11.78 0.0002476856    1.589    0.371
       137 -11.3822    163.9949    185.0472   4.6371445710e+01   1.0678182769e+01    0.2188593    0.2142738   5.13 0.0004037775    1.059    0.056
       138 -11.8866     54.5463    185.0031   7.4748051794e+01   2.9118881293e+01     0.233694    0.2020988   5.67  0.000540438    1.413    0.292
       139 -12.1049    191.3316    183.9232   4.0183301930e+01   6.0516201072e+00    0.2033723    0.1730142 -33.95 0.0007772575    1.106    0.096
       140 -14.1801     93.4322    181.6530   6.3632017007e+01   2.4183054475e+01    0.7415105    0.5080383  50.19  0.003154828    1.480    0.325
       141 -13.4999    100.4815    180.8283   6.1575954884e+01   2.3202378720e+01    0.4541392    0.3422131 -65.51  0.002176523    1.381    0.276
       142 -15.4475     49.5077    218.9492   7.9932076852e+01   2.1423344913e+01     2.164418     1.211051  31.21  0.009467781    1.809    0.447
       143 -11.8752    232.1196    180.3369   3.1764681859e+01   1.5773387539e-01     0.346309    0.2430748 -73.50 0.0009371837    2.720    0.632
       144 -13.5512    138.1756    177.6196   5.1100347890e+01   1.7150201563e+01     0.773275    0.4719054  77.63   0.00211355    3.860    0.741
       145 -13.8802    126.1173    176.9249   5.4039598866e+01   1.9570130778e+01    0.5586258    0.3813839  29.04  0.001602427    1.542    0.351
       146 -12.6938    125.9929    172.3015   5.3161807389e+01   2.0705722886e+01    0.2990136    0.2870073  87.17 0.0005912494    1.085    0.078
       147 -12.4252     63.4771    176.8025   7.1140253256e+01   3.0019912711e+01    0.2927592    0.2505739  34.64 0.0006170283    1.218    0.179
       148 -12.3795    247.9446    175.3154   2.8210357406e+01  -1.2554838839e+00    0.2889519    0.1774668 -27.83 0.0009602611    1.533    0.348
       149 -13.0750    147.4175    174.7020   4.8228057893e+01   1.6075481681e+01     0.643989    0.3273806  59.75  0.002029147    3.601    0.722
       150 -10.9715     52.9947    177.0000   7.4092589603e+01   3.1376007525e+01    0.2205406   0.08162939  29.23 0.0003783682    2.825    0.646
       151 -11.5982    242.2036    175.5904   2.9181103805e+01  -4.8634362015e-01    0.1613997    0.1174582  18.35 0.0008148848    1.618    0.382
       152 -11.7670    154.2181    175.0717   4.6662253596e+01   1.4698505291e+01    0.2431899    0.2057107 -13.75    0.0012198    1.297    0.229
       153 -11.4300      7.5964    172.5488   8.5918710923e+01   3.7261314653e+01    0.3454475    0.2003219   7.41 0.0007275079    2.417    0.586
       154 -12.6450     12.4231    175.0840   8.4887783769e+01   3.6221973213e+01    0.4648313    0.2317174 -78.27  0.001975237    1.778    0.437
       155 -12.2436     12.0989    161.1270   8.3589373569e+01   3.9778104849e+01    0.3819686    0.2301265  78.20   0.00143011    1.736    0.424
       156 -13.3025     11.7867    166.9037   8.4265644426e+01   3.8339006743e+01    0.4790647    0.3388718 -39.24  0.002143315    1.655    0.396
       157 -13.6156     18.8716    167.5748   8.2398917864e+01   3.7553310443e+01    0.6039395    0.4216908 -13.92  0.003166287    1.995    0.499
       158 -10.5165    167.3381    174.2781   4.3445823992e+01   1.2394315090e+01    0.1520991    0.1162048  -2.41  0.000263512    1.616    0.381
       159 -11.1547    160.9188    173.6659   4.4796309192e+01   1.3740495887e+01    0.2058609    0.1885581  35.17 0.0003152809    1.103    0.093
       160 -14.0497     90.5701    171.7423   6.2689958250e+01   2.7170496799e+01    0.4895988    0.3253702 -53.49 0.0007655691    1.495    0.331
       161 -12.7721     94.8221    171.6100   6.1475972273e+01   2.6489646720e+01    0.2978398    0.2381459  55.36 0.0007554262    1.286    0.223
       162 -12.5610     44.6737    172.1850   7.5764278517e+01   3.3655416903e+01    0.3859994    0.2145003  23.76   0.00172245    2.058    0.514
       163 -11.8524    198.4541    170.3269   3.6016350727e+01   7.5251903192e+00    0.2659777    0.2276539  52.72  0.001478117    1.357    0.263
       164 -12.4368    153.1078    170.2820   4.5944399419e+01   1.5992727813e+01    0.2592326    0.2516484  68.38 0.0008574114    1.099    0.090
       165 -13.1812    106.5397    175.7024   5.9005358738e+01   2.3426867235e+01    0.3229612    0.2701184  40.03 0.0007519783    1.175    0.149
       166 -12.1353     61.5888    170.6386   7.0739891618e+01   3.1879574578e+01     0.258137     0.234012  29.79 0.0007692477    1.187    0.158
       167 -12.8220    127.5889    166.2127   5.1511486510e+01   2.1872048040e+01    0.3073254    0.2610132 -36.93  0.001514155    1.224    0.183
       168 -12.3053    118.0906    169.1628   5.4628059999e+01   2.2947890722e+01    0.3019467    0.2591669 -10.89 0.0003134976    1.352    0.261
       169 -13.0032    122.8876    167.8387   5.3083198546e+01   2.2372205752e+01    0.3923907    0.2836023  32.29  0.001370987    1.416    0.294
       170 -13.0353    100.0847    166.1227   5.8973943932e+01   2.6972097484e+01    0.4144835    0.2166256 -50.97 0.0002648635    1.898    0.473
       171 -14.0093    103.5142    164.5033   5.7698440019e+01   2.6772849729e+01    0.8724976    0.3519973 -41.26  0.002736043    3.178    0.685
       172 -13.0847     52.5197    167.7621   7.2908929740e+01   3.3834441825e+01    0.4563962    0.2594858  38.38  0.001416468    1.763    0.433
       173 -11.6697     40.8074    168.1563   7.6319445545e+01   3.5153161223e+01    0.2024498    0.1595724 -44.21  0.001081935    1.376    0.273
       174 -11.8548     31.0457    167.4414   7.8992829765e+01   3.6404828855e+01    0.2337335    0.1706995 -57.11 0.0003560067    1.315    0.240
       175 -12.1448     71.9870    166.7419   6.7118455831e+01   3.1399078780e+01    0.2593668     0.185655 -63.30 0.0007596659    1.355    0.262
       176 -12.1319     22.8721    168.8367   8.1435116029e+01   3.6859182317e+01    0.3623998    0.2032783  79.06  0.001404077    2.004    0.501
       177 -12.7811    152.7639    165.4069   4.5007377651e+01   1.7166798165e+01    0.3810437    0.2754449  75.88  0.001620908    2.046    0.511
       178 -13.3664    111.7295    163.8033   5.5280634040e+01   2.5453099020e+01    0.4652973    0.3188927 -30.88   0.00105511    1.793    0.442
       179 -12.8107     64.1476    164.8035   6.9075353872e+01   3.3042446373e+01    0.3129646    0.2363119 -75.29 0.0004022034    1.322    0.244
       180 -12.8491     66.4874    160.0577   6.7592833991e+01   3.3947268145e+01    0.2701874    0.2176628   1.28 0.0004623335    1.529    0.346
       181 -12.0213     69.8504    158.1637   6.6262702404e+01   3.3949976863e+01    0.2096628    0.1751047 -32.47 0.0003564098    1.334    0.251
       182 -12.4737     58.1575    164.8915   7.0837913175e+01   3.3844127843e+01    0.2361431    0.1935396  71.54 0.0009152103    1.262    0.208
       183 -13.6006      6.8502    160.4857   8.4980307253e+01   4.0353407968e+01    0.6456253    0.3483414  80.58  0.002778296    1.975    0.494
       184 -12.4588      3.7043    161.3255   8.5924125563e+01   4.0376019273e+01    0.5781938    0.2189947  74.30  0.001917021    4.293    0.767
       185 -11.5685    230.6510    163.0666   2.8683872507e+01   3.4926032181e+00    0.1902543    0.1512375 -37.42 0.0005323509    1.078    0.072
       186 -12.4058     51.4082    162.1531   7.2391908682e+01   3.5439451237e+01    0.2511363    0.2266217  58.79   0.00040551    1.122    0.108
       187 -14.6253     76.2737    154.6393   6.3698948834e+01   3.3890235526e+01    0.6206778    0.4658845  69.90  0.001977966    1.558    0.358
       188 -14.3452     84.4957    159.4284   6.2165233513e+01   3.1336085965e+01    0.5773099    0.4209289 -84.56  0.002303237    1.628    0.386
       189 -14.4903     83.6112    150.4767   6.0690002430e+01   3.3788911060e+01    0.6881263    0.5210753  11.86  0.001411409    1.605    0.377
       190 -14.4718     83.0955    144.7872   5.9691238063e+01   3.5334794825e+01    0.9135565    0.4859691  13.39  0.002974859    3.420    0.708
       191 -12.1037    170.0791    160.1882   3.9875433078e+01   1.4936112145e+01    0.2655113    0.2576919 -38.34  0.001403126    1.028    0.028
       192 -12.7105     46.2524    160.4142   7.3649940966e+01   3.6529728474e+01    0.2944449    0.2165768  73.92 0.0005470865    1.478    0.323
       193 -12.4118     40.9516    161.4996   7.5365187572e+01   3.6867809356e+01    0.2988831    0.1222906  34.39 0.0009239719    2.420    0.587
       194 -10.6519    196.3278    160.6752   3.4452626846e+01   9.8444766364e+00     0.142861    0.1146031 -81.65  0.000457684    1.697    0.411
       195 -12.7909    105.3925    158.8003   5.6029180046e+01   2.7869243035e+01    0.3941388    0.2767217 -88.83  0.001314752    1.982    0.495
       196 -12.8522     95.4083    159.1410   5.8941617950e+01   2.9564850630e+01    0.2750753    0.2638637  27.96 0.0002866925    1.077    0.072
       197 -11.6157     24.5356    159.9066   7.9925235557e+01   3.8995029607e+01    0.2894273    0.1525839  46.13  0.001337725    1.998    0.499
       198 -11.0021     17.0297    160.2164   8.2104975948e+01   3.9595926160e+01    0.1670932    0.1113091  23.07 0.0008812466    1.729    0.422
       199 -12.2862    133.6568    157.7811   4.8151738848e+01   2.2713729653e+01    0.3883121    0.2491344  62.22   0.00120832    2.075    0.518
       200 -12.9961    121.7164    156.2784   5.0990281684e+01   2.5417149982e+01    0.4024783    0.2577958 -55.74  0.001022824    1.603    0.376
       201 -12.8821    118.2212    157.5858   5.2217462811e+01   2.5770127854e+01    0.3696049    0.2273709  27.01  0.001484894    1.883    0.469
       202 -12.8896     31.4209    157.1266   7.7564293984e+01   3.9035783263e+01    0.4225143    0.2725374  45.49  0.002128347    1.626    0.385
       203 -12.1296    112.4418    156.6831   5.3618094449e+01   2.7090928281e+01    0.3025535     0.157028 -58.11  0.001130813    2.054    0.513
       204 -11.1047    190.4964    155.0923   3.4443076160e+01   1.2070430124e+01     0.215786    0.1366405 -44.20 0.0003598946    1.478    0.323
       205 -10.8899    141.4975    155.5069   4.5653254956e+01   2.1687963775e+01    0.1550962    0.1537575 -83.10 -0.0001556857    1.025    0.024
       206 -13.2981     14.6898    152.8187   8.1934621528e+01   4.1683631372e+01    0.5766731     0.256963  85.81  0.002189335    3.006    0.667
       207 -12.8398     20.2699    154.7148   8.0530723013e+01   4.0722369115e+01     0.373305    0.2469852  16.81  0.001150141    1.808    0.447
       208 -13.5319     19.6237    149.6193   8.0091446804e+01   4.2087701508e+01    0.4676266     0.342297  -4.57  0.002162942    1.743    0.426
       209 -11.5960    172.1728    153.6793   3.8004085060e+01   1.5935258969e+01    0.2863479    0.1098065 -47.77 0.0006846788    2.560    0.609
       210 -11.9095     51.3680    153.1992   7.0992179549e+01   3.7785169024e+01    0.2432882    0.1993076  63.83 0.0008054174    1.289    0.224
       211 -12.9986     53.5228    149.9973   6.9798758672e+01   3.8346870740e+01    0.4146089    0.2246016 -72.11  0.001722522    1.951    0.488
       212 -10.5781    249.3105    151.7141   2.3560454230e+01   2.6129926822e+00    0.1198347   0.09182434 -65.23 0.0002245825    1.574    0.365
       213 -11.7126    128.1784    151.1308   4.8137718985e+01   2.5393789210e+01    0.2311759    0.2164915  -1.89 0.0004405732    1.142    0.124
       214 -13.0243     37.8706    149.8252   7.4589291419e+01   4.0252560019e+01    0.3764091    0.2242744  76.51  0.001221214    2.185    0.542
       215 -10.8557      1.6374    151.7108   8.5570442766e+01   4.2936091501e+01    0.1336933   0.08367028 -43.94 0.0007025357    1.696    0.410
       216 -11.8166    167.2513    149.7104   3.8226724119e+01   1.7785753437e+01    0.2849171    0.2324022  85.81   0.00137151    1.557    0.358
       217 -12.7636    109.2907    149.2152   5.2907837552e+01   2.9542096005e+01     0.383143    0.3284108  42.91    0.0014703    1.168    0.144
       218 -12.6360     26.2869    149.3222   7.8047848744e+01   4.1561005623e+01    0.4322523    0.2630467 -33.96  0.001932451    1.987    0.497
       219 -12.0653      4.7749    149.5782   8.4454360404e+01   4.3257680175e+01    0.2335091    0.1398847  79.11 0.0009920148    1.757    0.431
       220 -11.1120    147.1783    148.8002   4.2749829507e+01   2.2090890881e+01    0.2135153    0.1859147  -6.52 0.0003949424    1.314    0.239
       221 -12.7797     96.0260    148.7821   5.6648925116e+01   3.2090542179e+01    0.2761873     0.226182 -59.86 0.0006070316    1.220    0.180
       222 -11.3529     32.6061    148.4896   7.6005645130e+01   4.1155183562e+01    0.2347205     0.123344 -67.60 0.0007346103    1.708    0.414
       223 -13.4522     62.4552    146.5865   6.6423814324e+01   3.8033732077e+01    0.4246923    0.2479924 -74.33  0.001762561    1.960    0.490
       224 -12.4341      8.9917    147.0099   8.2940604075e+01   4.3604841376e+01    0.2592648    0.1497648 -72.88  0.001028677    1.475    0.322
       225 -13.1653    118.1854    143.7423   4.9196774092e+01   2.9166030978e+01    0.6472608    0.3359861  60.11  0.001376741    3.114    0.679
       226 -12.7739    103.2359    145.0071   5.3727869206e+01   3.1727190783e+01    0.3883746    0.3230803  30.51 0.0006250932    1.243    0.196
       227 -12.4785    101.3672    141.1973   5.3431443331e+01   3.3024816692e+01    0.3209026    0.2812801 -62.52 0.0006463791    1.155    0.134
       228 -14.0036     51.1634    142.8891   6.9306693483e+01   4.0498667608e+01    0.5460163    0.3178763  44.68  0.002112803    1.847    0.459
       229 -11.4768    170.5760    145.2255   3.6489418011e+01   1.8084235972e+01    0.2190553      0.14097 -35.67 0.0009492483    1.629    0.386
       230 -12.0073    157.8310    145.0618   3.9346269139e+01   2.0741957278e+01     0.244026     0.222086  42.80 0.0003350087    1.123    0.110
       231 -13.7994     10.5645    141.5070   8.1821368576e+01   4.4884337900e+01    0.4190502    0.2942234 -81.42  0.001821364    1.296    0.228
       232 -14.2058     13.7115    133.6509   7.9831623342e+01   4.6639628849e+01    0.5004689    0.4023524  89.45  0.001561741    1.236    0.191
       233 -13.7871     19.7025    130.8672   7.7502726316e+01   4.6871529821e+01      0.50865    0.3553494 -26.56  0.002718244    1.634    0.388
       234 -10.7431    187.4197    143.4739   3.2556333292e+01   1.5060201634e+01     0.147606     0.136409 -52.16 -6.178041e-05    1.047    0.045
       235 -11.1204    228.9609    145.2730   2.5438236452e+01   7.0294256974e+00    0.1758443    0.1652816 -41.74 0.0005123715    1.094    0.086
       236 -11.1092    201.4353    142.4690   2.9627164518e+01   1.2535328706e+01    0.1435824    0.1302192 -46.48 4.549983e-05    1.021    0.020
       237 -13.3442     94.9305    140.1549   5.5113067575e+01   3.4462793146e+01    0.4664211    0.3384513 -31.80   0.00108968    1.586    0.370
       238 -11.5773     78.6478    141.6964   6.0420787607e+01   3.6853751782e+01    0.1598752     0.118571 -20.18 0.0007040353    1.705    0.413
       239 -10.6700    242.4766    139.4324   2.2204267962e+01   5.8345719354e+00    0.1299262    0.1086512 -45.64 8.074188e-05    1.030    0.029
       240 -11.3473     60.3189    139.3008   6.5726254792e+01   4.0219668116e+01    0.1530635    0.1106783 -28.44 0.0002523068    1.622    0.383
       241 -12.2088     42.1795    139.7022   7.1621520169e+01   4.2401148011e+01    0.2856462    0.1097405  34.43  0.001086379    2.613    0.617
       242 -12.6697    128.6351    137.7584   4.4969808569e+01   2.8488044101e+01    0.3036738    0.2617081 -67.51 0.0009248656    1.235    0.190
       243 -12.3975    128.0241    134.2552   4.4305578779e+01   2.9437874439e+01     0.245259    0.2315157 -56.13 0.0003315027    1.059    0.056
       244 -12.1545     51.0227    137.5093   6.8382923087e+01   4.1909541733e+01    0.2061491    0.1467553  25.61 -0.0001795699    1.522    0.343
       245 -12.9197     46.7287    136.4314   6.9580629378e+01   4.2714863150e+01    0.2604703    0.1837935 -62.89 0.0003086916    1.311    0.237
       246 -13.0266     86.0259    135.1691   5.6727603881e+01   3.7282060719e+01    0.4299361    0.2612861  13.69  0.001318336    2.418    0.586
       247 -11.8222     26.7110    136.1084   7.6017952215e+01   4.4922392634e+01     0.221335     0.180979  49.92  0.000593351    1.340    0.254
       248 -11.8884    197.8180    134.9812   2.8685483406e+01   1.4722124832e+01    0.2398363    0.2130121  83.33 0.0003399757    1.261    0.207
       249 -12.6762     67.3766    134.9067   6.2582045380e+01   4.0337638839e+01    0.3071659    0.2083044   4.07  0.001328712    1.999    0.500
       250 -12.9105     57.2265    133.6125   6.5619843856e+01   4.2104692338e+01    0.2696986    0.2307516 -12.86 0.0005574904    1.305    0.234
       251 -13.1802     33.0548    133.3217   7.3513755055e+01   4.5022864113e+01    0.4495335    0.2721279  88.66 0.0008815276    2.092    0.522
       252 -13.1333    103.8157    133.9772   5.1061695752e+01   3.4346790378e+01     0.445291    0.2373488  39.46  0.001735608    1.877    0.467
       253 -11.9237     77.9752    132.7741   5.8730459616e+01   3.9231523082e+01    0.2108381    0.2025234 -47.05 0.0004554287    1.015    0.015
       254 -12.2946    230.1342    130.5443   2.2289386972e+01   9.5161410115e+00    0.2416914     0.180184 -47.59 0.0003228224    1.155    0.134
       255 -12.6311    121.6333    128.4309   4.4640320194e+01   3.2125728929e+01    0.3705349    0.2698212 -71.97  0.001178995    1.716    0.417
       256 -13.2000     82.5592    128.4105   5.6292386521e+01   3.9563204838e+01    0.4839685     0.333896 -20.66   0.00206452    1.934    0.483
       257 -14.0110     53.9310    127.0421   6.5397682460e+01   4.4215441926e+01    0.4660872    0.3559245 -71.59  0.002215662    1.355    0.262
       258 -14.1668     58.2500    126.4812   6.3831271977e+01   4.3780021642e+01    0.5739446    0.3192779 -38.41  0.002394541    1.986    0.496
       259 -12.7887     45.9962    129.0541   6.8458583013e+01   4.4693527344e+01     0.220268    0.2106682 -58.06 0.0008566812    1.036    0.035
       260 -12.0874     35.0090    126.5012   7.1690876047e+01   4.6561872835e+01    0.2238332    0.1745631 -61.49 0.0006433298    1.158    0.136
       261 -13.3755     75.2280    124.1800   5.7687120003e+01   4.1825115326e+01    0.4473929    0.2666491 -54.19  0.001882036    1.622    0.383
       262 -14.0834     77.2022    119.6068   5.5966739666e+01   4.2626886807e+01    0.6474316    0.4076139  45.65  0.001185622    1.704    0.413
       263 -12.6436     26.5592    124.6770   7.4239806515e+01   4.7842518806e+01    0.2750583    0.2247238 -72.07  0.001497197    1.157    0.135
       264 -13.8959     10.3669    124.6542   7.9674103478e+01   4.9141342267e+01    0.7053821    0.2021268 -45.47  0.002458301    3.362    0.703
       265 -13.0914     19.2393    115.4972   7.5218176537e+01   5.0756884930e+01    0.4638214    0.2793261 -61.24  0.002383039    1.420    0.296
       266 -12.4570    186.7359    123.7130   2.8280464892e+01   1.9220116721e+01    0.3731044    0.2814332 -25.02 0.0009672761    1.568    0.362
       267 -11.2193    169.8332    122.2357   3.1360131314e+01   2.3120852988e+01    0.2031757    0.2001975  89.14 0.0004496769    1.045    0.043
       268 -12.5554    194.0484    122.7342   2.6681765789e+01   1.7898795456e+01    0.2908029    0.2278685  46.65  0.001523585    1.388    0.279
       269 -13.4047    105.6885    121.5321   4.7501641709e+01   3.6974659942e+01     0.440676    0.3178294  49.44 0.0007313532    1.439    0.305
       270 -12.7946     20.5984    122.9848   7.5986257177e+01   4.8784429238e+01    0.2662465    0.2180183   2.45 0.0004382535    1.392    0.282
       271 -12.8640    130.4344    128.5362   4.2286279851e+01   3.0261065414e+01    0.2857591    0.2800938 -75.96  0.000699728    1.021    0.020
       272 -11.5465    224.1066    120.4969   2.1156570954e+01   1.2429910282e+01    0.1780076    0.1350866  56.78 0.0004600739    1.496    0.332
       273 -11.8763    201.6954    120.4096   2.4795602166e+01   1.6792076302e+01    0.2484946    0.1395614  57.12 0.0007274686    2.011    0.503
       274 -13.3798     82.6568    114.4550   5.2914428553e+01   4.2943142380e+01    0.5410151     0.326651 -48.29  0.002347923    1.616    0.381
       275 -11.2749     94.4255    117.2888   4.9865005440e+01   4.0144353103e+01    0.3039053    0.1449233 -46.56  0.001135067    2.080    0.519
       276 -11.9019     24.1717    116.1378   7.3591260009e+01   5.0188151188e+01    0.3580588    0.1715483 -69.19   0.00101408    2.017    0.504
       277 -13.2737      5.5824    111.7095   7.9415111922e+01   5.2638455159e+01    0.3366359    0.2231334  87.14  0.001558894    1.718    0.418
       278 -12.8022      2.2447    107.1123   7.9902235659e+01   5.3940589724e+01    0.4553189    0.1707262 -56.69  0.001975443    2.004    0.501
       279 -13.9353      9.1437    116.6182   7.8916014283e+01   5.1214281214e+01     0.419087    0.2470815 -43.79  0.002197388    1.566    0.361
       280 -10.6666     29.6356    116.7587   7.1775997153e+01   4.9538045570e+01    0.1894047    0.1232249 -73.39  0.000484476    1.573    0.364
       281 -12.3310    104.4244    114.5150   4.6097165227e+01   3.8858882273e+01    0.2945167    0.2327583  39.97 0.0008531255    1.261    0.207
       282 -12.7824    115.6404    113.6161   4.2590446868e+01   3.6773945124e+01    0.4348541    0.2773279  17.44  0.001647447    2.425    0.588
       283 -12.7335     62.9339    113.6551   5.9376703153e+01   4.6295704797e+01    0.2989753    0.2198327 -61.42  0.001358139    1.390    0.280
       284 -12.2986     58.4857    114.0382   6.1014794747e+01   4.6836956498e+01    0.2611755    0.2146541  23.80   0.00137919    1.272    0.214
       285 -12.1640    109.7099    112.0641   4.3894814134e+01   3.8350303903e+01    0.2183711    0.2006211 -44.29 0.0004342136    1.096    0.088
       286 -10.7994    198.5150    111.4468   2.3361876638e+01   1.9146417887e+01    0.1430399    0.1291853 -63.92 6.863276e-05    1.021    0.020
       287 -12.4642     52.5280    110.8113   6.2376805552e+01   4.8424594292e+01    0.2525798    0.2350174  -0.88 0.0004666449    1.099    0.090
       288 -10.7829    101.4688    109.4619   4.5670034917e+01   4.0597917226e+01     0.151948    0.1506207  42.40  0.000155042    1.027    0.026
       289 -11.7088     61.5894    108.6035   5.8635633026e+01   4.7705671349e+01     0.291587    0.2078074  68.79 0.0009554371    2.023    0.506
       290 -11.1883    210.0422    108.5230   2.0812099830e+01   1.7331106234e+01    0.1916914    0.1367043  59.61 0.0004670092    1.524    0.344
       291 -12.1924    159.5811    106.8661   2.9836396494e+01   2.8529314723e+01    0.3133635    0.2038397  71.78  0.001315048    1.985    0.496
       292 -10.7304    108.6641    107.7339   4.3057448204e+01   3.9533197651e+01    0.1544505    0.1222392   4.97 0.0004393107    1.589    0.371
       293 -13.4790     10.9854    102.0102   7.5869049966e+01   5.4630466837e+01    0.5036598    0.4499879 -25.92 0.0003459112    1.143    0.125
       294 -12.6970     12.0151     98.3463   7.4815091540e+01   5.5428754157e+01    0.6630716    0.2412942  20.94 0.0004089781    2.951    0.661
       295 -11.1911     73.3238    104.2996   5.3449903153e+01   4.6900333475e+01    0.1531447    0.1131356 -14.48 0.0003671208    1.630    0.386
       296 -12.7166     79.1057    101.7345   5.0794198218e+01   4.6510821466e+01    0.3008501    0.2697115 -47.84 0.0008067299    1.126    0.112
       297 -11.9665    153.9854    100.6376   2.9495269540e+01   3.1037592494e+01    0.3328582     0.212781 -45.57  0.001165574    1.563    0.360
       298 -12.4377     55.5466    101.5016   5.9052259170e+01   5.0232872494e+01    0.2824084    0.2352647 -32.82 0.0005291648    1.144    0.126
       299 -12.6058     57.0336     97.7035   5.7537772108e+01   5.0902262511e+01     0.399119    0.2865008  36.18 0.0004537961    1.459    0.314
       300 -11.7294    158.0282    101.3327   2.8785959898e+01   2.9980312575e+01    0.2115024    0.1940873  73.12 0.0006137991    1.072    0.067
       301 -13.5646     95.8993     99.7981   4.4779087329e+01   4.3839231486e+01    0.7203896    0.3432705  51.73  0.001934764    2.533    0.605
       302 -12.2718    162.0501     99.0077   2.7344733899e+01   2.9517905165e+01    0.2480701    0.1790613 -77.42  0.001129093    1.727    0.421
       303 -10.8885     26.7429     99.6182   6.9439315525e+01   5.3961756835e+01     0.172145    0.1227204  31.64 0.0006094307    1.555    0.357
       304 -11.9429    188.7628     98.0425   2.2000936060e+01   2.3720488369e+01    0.2289783    0.1993983  72.13 0.0003982446    1.158    0.136
       305 -11.0506    104.8528     97.1961   4.1309115670e+01   4.2599612985e+01    0.2038787      0.17687 -10.23 0.0007366003    1.283    0.221
       306 -11.3745     85.0140    100.7144   4.8540529444e+01   4.5691240671e+01    0.2101746    0.1894946  27.62 0.0003944369    1.099    0.090
       307 -13.6874     77.6650     92.2471   4.8662375147e+01   4.8854813773e+01    0.5671217    0.3256168  50.74  0.001993864    2.095    0.523
       308 -12.0318    178.5095     96.5028   2.3482649421e+01   2.6271481549e+01    0.3053268    0.2404046 -77.75 0.0007841613    1.366    0.268
       309 -11.8990     52.2086     79.9093   5.4472283140e+01   5.5471877771e+01    0.4059456    0.2700746  65.56  0.001757457    2.800    0.643
       310 -12.4272     56.7784     90.7008   5.5767205219e+01   5.2511383738e+01    0.4343083    0.3014238 -13.62  0.001068989    1.702    0.413
       311 -12.9078     54.7151     85.8184   5.5195371936e+01   5.3868229935e+01    0.5116872    0.3922891  -2.75  0.002543763    1.390    0.281
       312 -11.7213     41.7029     91.8603   6.1849072721e+01   5.4208529251e+01    0.2732587    0.1869883  29.62 0.0008695491    1.534    0.348
       313 -11.5695     28.4864     90.0401   6.6618523114e+01   5.6020737063e+01    0.2555131    0.1743322 -10.53  0.000924456    1.600    0.375
       314 -11.6697     11.7114     86.9435   7.2688236827e+01   5.8085533056e+01    0.3302559    0.2109686   0.55   0.00066014    1.722    0.419
       315 -12.8118      3.2940     88.7536   7.6424905437e+01   5.8187675883e+01    0.3263762    0.1993138 -54.35 0.0008751861    1.320    0.242
       316 -12.2155      6.4704     86.4628   7.4712549719e+01   5.8527480583e+01    0.1964978    0.1515229  84.61 0.0006353359    1.647    0.393
       317 -11.8917    126.0407     87.6790   3.2715061786e+01   3.9933853863e+01    0.3486241    0.3137317 -47.00 0.0007920919    1.151    0.131
       318 -12.4316    149.2713     87.7485   2.7187055298e+01   3.4591395495e+01    0.2868343    0.2073642 -45.73  0.001390053    1.406    0.289
       319 -12.7919    151.2596     81.6911   2.5153453114e+01   3.5230397646e+01    0.4791959    0.3307559  16.88  0.001458349    2.480    0.597
       320 -12.3438     68.9604     86.5227   5.0089597452e+01   5.1547377767e+01     0.221927    0.1842649 -41.21  0.000316898    1.192    0.161
       321 -11.2288    177.9912     86.0044   2.1046573999e+01   2.8288252534e+01    0.1720328    0.1571492 -87.60  0.000331293    1.023    0.022
       322 -10.9288    100.5291     86.4997   3.9549300364e+01   4.5685051678e+01    0.1487724    0.1417892  20.26 3.476137e-05    1.020    0.019
       323 -12.4206    165.2749     84.0316   2.2920149768e+01   3.1553212710e+01    0.2731862    0.1884188  75.13  0.001289844    1.613    0.380
       324 -11.4371    133.9809     84.2220   2.9762035387e+01   3.8779847792e+01    0.2286382    0.1933711  36.72   0.00112308    1.242    0.195
       325 -13.4515     65.3583     82.2675   5.0155950424e+01   5.3018650901e+01     0.529882     0.332515  14.05  0.002395233    1.957    0.489
       326 -11.4777    111.4865     83.2597   3.5381313789e+01   4.4001830580e+01    0.3575147      0.16368  40.79  0.001348295    2.216    0.549
       327 -12.5510    224.7594     79.9782   1.2690015095e+01   1.9278863277e+01    0.2321006    0.1964444  89.68 0.0004530789    1.157    0.136
       328 -10.5873     94.7742     80.9640   3.9681144900e+01   4.7942003669e+01    0.1827273    0.1213903 -41.09 0.0004237111    1.559    0.359
       329 -12.4752      4.5272     80.0092   7.4204832349e+01   6.0085128953e+01    0.2429565    0.1999126 -69.78 0.0004746841    1.288    0.224
       330 -12.8398      8.4632     78.0398   7.2122791582e+01   6.0282437334e+01    0.2960439    0.2338813 -41.16 0.0005476352    1.039    0.037
       331 -10.9716    215.8437     80.1390   1.3871897435e+01   2.1057012321e+01    0.1651026    0.1515757 -41.59 0.0003871269    1.277    0.217
       332 -11.9318     88.1618     79.2648   4.1284301624e+01   4.9576527626e+01     0.252143     0.195658 -25.71 0.0009475417    1.379    0.275
       333 -11.1527    172.5083     78.4775   2.0183706149e+01   3.0847754038e+01    0.1432961    0.1308379 -86.19 9.819248e-05    1.002    0.002
       334 -12.5060    206.3666     75.6557   1.4189703429e+01   2.3770297558e+01    0.2760868    0.2332115  -6.03   0.00125878    1.779    0.438
       335 -12.4489    161.4475     77.2212   2.1922591639e+01   3.3630327353e+01    0.2805715    0.1953341  57.43  0.001389756    1.383    0.277
       336 -10.7757     75.2933     76.3383   4.4755379159e+01   5.2533946969e+01    0.1470536    0.1072928  -6.63 0.0007027417    1.648    0.393
       337 -12.5820    112.9738     77.1038   3.3149379391e+01   4.4825708338e+01    0.5902138    0.4265987  31.48  0.002080232    1.497    0.332
       338 -12.1137     54.6951     74.3871   5.1842083413e+01   5.6248720801e+01    0.2675841    0.2061471  66.60 0.0006825423    2.004    0.501
       339 -13.6957     54.9502     68.4826   4.9891098296e+01   5.7369054621e+01    0.3522923    0.3094957 -17.84 0.0007527675    1.059    0.056
       340 -12.0814    106.1838     73.3594   3.3932905306e+01   4.6979371303e+01     0.350442    0.2637589  69.64  0.001555265    1.625    0.384
       341 -12.4096      2.4482     72.9413   7.3585781589e+01   6.1742694691e+01     0.353649    0.1114028 -52.02  0.001571974    2.262    0.558
       342 -11.8122     68.5218     71.9840   4.5824268628e+01   5.4545069347e+01    0.2323575    0.1849457   0.23 0.0006709469    1.310    0.237
       343 -11.5541     71.3450     69.3467   4.3948525245e+01   5.4557220072e+01    0.2908173    0.1935752   4.19  0.000774211    1.985    0.496
       344 -12.1521    189.1857     70.3233   1.5472115577e+01   2.8392389249e+01    0.2350943    0.1965829 -63.80 0.0003848875    1.102    0.093
       345 -12.7419     60.7129     69.1352   4.7849271103e+01   5.6362923384e+01    0.4468833    0.2417818 -57.13  0.001905856    2.536    0.606
       346 -10.9465     11.5718     70.9917   6.9126525456e+01   6.1593795301e+01    0.1821133    0.1074457 -55.94 0.0003686265    1.510    0.338
       347 -10.7548    132.9652     70.4527   2.6125398285e+01   4.1451212785e+01    0.2056857    0.1355031  54.54 3.937893e-05    1.423    0.297
       348 -11.6662    154.4330     68.1334   2.0907923893e+01   3.6790544271e+01    0.2412479    0.1855435  63.40 0.0002879967    1.220    0.180
       349 -10.6616    111.5291     72.5475   3.2181795131e+01   4.5959590855e+01    0.1456081    0.1365283  44.52 5.718738e-05    1.006    0.006
       350 -10.8235    179.5120     66.0047   1.5949366603e+01   3.1273731633e+01    0.1948823    0.1324462 -41.63 0.0003672729    1.505    0.335
       351 -12.5572      9.9733     63.0253   6.7809763078e+01   6.3358421028e+01    0.3074789    0.2124821   1.95 0.0003297021    1.447    0.309
       352 -11.9574     11.9690     59.3158   6.5865960562e+01   6.3961137357e+01    0.2458886    0.2406469  -8.65 0.0004204052    1.311    0.237
       353 -11.9932    109.5981     59.7644   2.8769817106e+01   4.8521652964e+01    0.2430895    0.1364548 -36.35  0.001096634    1.943    0.485
       354 -12.8404     42.3081     59.3493   5.2122884809e+01   6.0849455367e+01     0.342796    0.2748873  -7.86  0.001195618    1.130    0.115
       355 -11.5632    181.0358     58.9153   1.4009537827e+01   3.2008745871e+01    0.2529932    0.1693764  61.72 0.0007886675    1.429    0.300
       356 -11.2661    198.0033     58.2189   1.1459990405e+01   2.8288686009e+01    0.1759248   0.09991036  66.82 0.0008772577    1.699    0.411
       357 -11.7090     42.0818     47.6905   4.8156317180e+01   6.2928514955e+01    0.2764952    0.1726173 -47.53  0.001492092    1.827    0.453
       358 -12.5560     35.8512     57.7065   5.4394146813e+01   6.1960152658e+01    0.2857578    0.1702141 -23.60 0.0009921766    1.754    0.430
       359 -12.4614     40.9330     53.0048   5.0555500348e+01   6.2172206265e+01    0.2136729    0.1816108  -2.21 0.0003087206    1.021    0.021
       360 -11.2245    153.3413     57.6702   1.8327203168e+01   3.8676630929e+01    0.1485614    0.1021411 -78.05 0.0004941487    1.744    0.427
       361 -11.9137    100.5031     57.0825   3.0439465316e+01   5.0929124974e+01    0.2063162    0.1394785 -37.91  0.001035124    1.607    0.378
       362 -12.0773    193.8363     55.8428   1.1477758173e+01   2.9562665440e+01    0.1919728    0.1768588  80.12 0.0008132985    1.188    0.158
       363 -12.3298     30.6555     56.5639   5.6350413773e+01   6.2769667136e+01     0.243514    0.1172827  19.12  0.001146872    2.183    0.542
       364 -12.0424     19.1327     48.2535   5.9025107365e+01   6.5467669602e+01    0.3189526    0.1444546 -46.30  0.001038659    1.968    0.492
       365 -13.0183     24.0446     55.3205   5.8992792565e+01   6.3693018550e+01    0.3159456    0.2198237 -10.72 0.0008594929    1.354    0.261
       366 -12.4450     19.9071     53.0311   6.0212485773e+01   6.4516404953e+01    0.2073457    0.1939773 -18.99 0.0003252723    1.256    0.204
       367 -13.0592    114.7669     48.9864   2.4054758566e+01   4.8969149967e+01    0.3823797    0.2393432  -8.05  0.001384239    2.571    0.611
       368 -11.5776    120.3315     52.0033   2.3645308026e+01   4.7265703090e+01    0.1818454    0.1807974 -84.40 0.0003416558    1.107    0.096
       369 -11.2630      2.6896     51.7093   6.8193896513e+01   6.6074115519e+01    0.1361627    0.1292434  -7.90 0.0004647273    1.301    0.231
       370 -12.2321    173.9182     50.2062   1.2969691742e+01   3.4916536985e+01     0.363701     0.224003 -69.13  0.001780615    1.832    0.454
       371 -12.3612    110.0852     51.1055   2.5904179319e+01   4.9723289832e+01    0.2165975     0.177717  30.05 0.0005575191    1.259    0.206
       372 -13.3349     30.0641     49.3990   5.4204164025e+01   6.4136407824e+01    0.3010317    0.2683965 -55.04  0.001039769    1.495    0.331
       373 -11.3596    131.2850     50.3521   2.0678011992e+01   4.4954025759e+01    0.1385113    0.1044215  25.88 0.0004782258    1.661    0.398
       374 -12.4489     99.8547     49.6541   2.8188307070e+01   5.2185987962e+01    0.3164195    0.2374821  69.09  0.000972389    1.554    0.357
       375 -12.0679     96.0511     44.8337   2.7648366877e+01   5.3685273331e+01    0.2032437    0.1828454  74.05 0.0006552225    1.270    0.212
       376 -12.7203    115.6071     43.0247   2.1979063639e+01   4.9591088284e+01    0.2615277    0.2329387  49.06 0.0004634768    1.039    0.038
       377 -12.1555    119.7431     39.8609   2.0041324091e+01   4.9050777465e+01    0.2570609    0.2202448  42.26 0.0002621275    1.147    0.128
       378 -12.2210    142.3340     40.9711   1.5791618872e+01   4.3609628057e+01    0.4376235    0.1133563 -42.53  0.001466379    4.050    0.753
       379 -12.4712     23.9189     42.3251   5.4619868989e+01   6.6033201588e+01    0.1991488     0.161734 -40.15  0.001315527    1.349    0.258
       380 -11.4087    103.4743     39.4655   2.3828977353e+01   5.2784504573e+01    0.1346419    0.1196052  53.29 4.410616e-05    1.056    0.053
       381 -11.3881     12.7522     39.5994   5.9257312209e+01   6.7568041972e+01    0.1554139   0.09994453  25.62  0.000947314    1.634    0.388
       382 -11.0883    161.0486     38.4877   1.1982336258e+01   3.9498622947e+01    0.1942382    0.1164352  66.04 0.0003313656    1.472    0.321
       383 -13.6617     31.9116     31.8258   4.6699809456e+01   6.6767541947e+01    0.3641987    0.2792008  -9.19  0.001581484    1.123    0.110
       384 -11.2666     80.6139     36.8495   2.9473879505e+01   5.7951378112e+01    0.1745233    0.1208111 -43.48 0.0009477339    1.750    0.429
       385 -10.9869    218.9377     33.0193   3.7960805322e+00   2.7250033758e+01    0.1472688    0.1143468 -79.20 0.0004577604    1.028    0.028
       386 -11.6881    120.3618     32.6548   1.7675720661e+01   4.9787604211e+01    0.2270305    0.1768617  64.57 0.0002401274    1.143    0.125
       387 -12.1092    106.7250     32.4634   2.0697225744e+01   5.2920234179e+01    0.2521178    0.2118908 -78.40 0.0007615432    1.443    0.307
       388 -10.9304     14.5130     33.3956   5.6068388835e+01   6.8452200832e+01    0.1188546   0.09162012  -9.76 7.668556e-05    1.026    0.025
       389 -11.6744    114.4904    248.5400   6.8287473874e+01   5.6442719861e+00    0.2223208    0.1365335 -64.84  0.000810169    2.001    0.500
       390 -11.9838      2.4864     30.4797   6.1492833372e+01   6.9919947899e+01    0.2018702    0.1519409 -16.41  0.000604131    1.025    0.025
       391 -12.0548     77.5438     30.5044   2.8099947188e+01   5.9356869486e+01    0.2135234    0.1171634  58.87 0.0005974448    2.067    0.516
       392 -11.1251      1.4857     25.8476   6.0330371876e+01   7.0751667407e+01    0.1606929   0.09465051 -43.04   0.00101391    1.535    0.349
       393 -13.3036     85.6027     24.0064   2.3268383539e+01   5.8453608109e+01    0.4137003    0.2544276  43.81  0.002092193    1.374    0.272
       394 -11.8474     70.4621     21.0517   2.6739351536e+01   6.1822556381e+01    0.1702252    0.1207628 -20.91  0.001022141    1.567    0.362
       395 -11.6494     98.5271     19.7862   1.8393723551e+01   5.6115321268e+01    0.1932628     0.158195  73.20 0.0008394817    1.284    0.221
       396 -12.6103     80.3599     18.8333   2.2840029722e+01   6.0077755112e+01    0.3017177    0.2410691  66.23  0.001626923    1.395    0.283
       397 -10.9654     60.5114     20.4934   2.9927098606e+01   6.3752162711e+01    0.1253084    0.1014025  26.74 6.317335e-05    1.004    0.004
       398 -11.8031     92.5336     18.1644   1.9301194794e+01   5.7580514706e+01    0.2149664    0.1819403  85.54 0.0005170787    1.414    0.293
       399 -10.9709    178.5843    247.6813   5.4171051402e+01  -3.8117350365e+00    0.1515988    0.1248795 -47.37 0.0007140962    1.492    0.330
       400 -11.2012    162.7292    246.0205   5.7275471008e+01  -1.2114727659e+00    0.1770433     0.155352   7.31 0.0003782162    1.054    0.052
       401 -11.2153     99.9753    246.5102   7.1297750258e+01   8.2340564230e+00    0.2071786    0.1190567  32.42  0.001018161    1.578    0.366
       402 -12.8238     52.9785    243.4669   8.1445264074e+01   1.5470290396e+01    0.4753724     0.294307 -28.98  0.001747065    3.233    0.691
       403 -11.6273    116.9623     15.0368   1.2878424834e+01   5.2421072563e+01    0.1894322    0.1595016  59.02 0.0003872046    1.037    0.036
       404 -10.8292    205.5115    244.0084   4.8124701395e+01  -6.9250002335e+00     0.145533    0.1138069 -67.85 0.0007535274    2.380    0.580
       405 -11.1009    181.9477    244.4781   5.2965974409e+01  -3.7540885844e+00    0.1840148    0.1130353  31.51  0.000291311    1.470    0.320
       406 -10.9954    134.9847    244.3270   6.3125480130e+01   3.3208017094e+00    0.2338979   0.07897141  48.78 0.0007051162    4.393    0.772
