#   1 NUMBER                 Running object number                                     
#   2 MAG_AUTO               Kron-like elliptical aperture magnitude                    [mag]
#   3 X_IMAGE                Object position along x                                    [pixel]
#   4 Y_IMAGE                Object position along y                                    [pixel]
#   5 X_WORLD                Barycenter position along world x axis                     [deg]
#   6 Y_WORLD                Barycenter position along world y axis                     [deg]
#   7 A_WORLD                Profile RMS along major axis (world units)                 [deg]
#   8 B_WORLD                Profile RMS along minor axis (world units)                 [deg]
#   9 THETA_WORLD            Position angle (CCW/world-x)                               [deg]
#  10 FWHM_WORLD             FWHM assuming a gaussian core                              [deg]
#  11 ELONGATION             A_IMAGE/B_IMAGE                                           
#  12 ELLIPTICITY            1 - B_IMAGE/A_IMAGE                                       
         1 -11.3300      1.8555     44.3459   1.2783128593e+02   6.5848952804e+01     1.106439    0.1245304 -58.47  0.003330069    6.806    0.853
         2 -13.1638      3.7063     11.1974   1.1601977597e+02   7.1141276814e+01     1.873917    0.7282422 -39.93   0.01109954    1.969    0.492
         3 -13.1173    193.9321     25.8785   6.5773891642e+01   3.3676724929e+01     1.528855     1.179671  -5.12  0.008445199    1.869    0.465
         4 -12.9457    207.1891     12.2314   6.0937646258e+01   3.2002535033e+01    0.9159778    0.8306511  -6.03   0.00161716    1.534    0.348
         5 -12.5873    200.7363     19.1876   6.3290989036e+01   3.2786855383e+01     1.338707    0.5491077 -38.97  0.004948036    2.457    0.593
         6  -8.8006    111.4940     44.0249   8.7347723802e+01   5.1232280652e+01    0.2423227    0.1814193  60.35 0.0008731455    1.479    0.324
         7 -11.3987    134.5309    247.2867   1.2742356605e+02   4.5544170051e+00    0.4867102    0.2080161  44.22  0.002221949    1.903    0.474
         8 -12.5619    101.6930    247.3546   1.3390541203e+02   1.0008574023e+01    0.8854851    0.4950167  49.58  0.004821526    1.452    0.311
         9 -10.6079     90.5032    246.5161   1.3597361877e+02   1.1926567299e+01     0.295114    0.2479904  57.73 0.0008138068    1.140    0.123
        10 -11.5971     87.8808    243.0799   1.3612400350e+02   1.2985825321e+01    0.5305792    0.3043063  78.46 0.0006661339    2.017    0.504
        11 -13.9535     34.6702    246.8307   1.4615878546e+02   1.9568556621e+01     11.16662     3.649158  29.29   0.02978459   11.314    0.912
        12 -12.3782     14.1368    240.0795   1.4919988082e+02   2.3191306428e+01     1.440228    0.5052426  65.35  0.007121379    2.679    0.627
        13 -15.0550      6.9738    201.3643   1.4804311746e+02   3.1753447450e+01     9.960437     1.116216 -73.42   0.02850327    6.072    0.835
        14 -14.0412     15.9339    165.4935   1.4325260830e+02   3.8867110076e+01     4.768984     1.745834  80.22    0.0146018    6.002    0.833
        15 -12.0599     42.4246    225.1672   1.4315372698e+02   2.2926755041e+01    0.4007975    0.2985442 -63.08  0.001000551    1.567    0.362
        16 -14.2565     51.3322    213.7311   1.4040308116e+02   2.4213537958e+01     2.750273     1.425755  45.72    0.0135558    1.755    0.430
        17 -10.3931    100.1007    238.1833   1.3319218579e+02   1.2007245348e+01    0.2428232    0.1885914  73.87 0.0008419215    1.185    0.156
        18 -11.1485     24.1829    236.3398   1.4726977001e+02   2.2821613175e+01    0.3373681    0.2022382  84.25  0.001469772    1.342    0.255
        19 -12.2539      4.9463    245.3135   1.5097288046e+02   2.3151782047e+01     1.142703    0.5759835  74.36  0.007492654    1.529    0.346
        20  -9.8733    227.5880    203.7272   1.0123387343e+02  -4.6207419154e+00    0.2812566    0.2316639 -57.01 0.0007322816    1.652    0.395
        21  -9.9034    192.8611    194.9555   1.0656104031e+02   3.3677249702e+00    0.8204833    0.4205722 -65.81  0.002050905    7.400    0.865
        22 -10.9701     67.2335    192.8374   1.3473728379e+02   2.6716837558e+01    0.4560656    0.2598666 -46.80  0.002171695    2.246    0.555
        23 -10.9314     72.3832    185.7906   1.3264933524e+02   2.7608664004e+01    0.3027701    0.2498251 -50.37 0.0008114566    1.412    0.292
        24 -10.2894     81.4244    174.0486   1.2879298720e+02   2.9024410733e+01    0.2643722      0.23147 -68.36 0.0004446396    1.131    0.116
        25 -12.4996     68.8263    171.3657   1.3147403875e+02   3.1519203186e+01    0.5091894    0.2821208 -44.88  0.001572925    2.203    0.546
        26 -11.9733     57.4536    129.4991   1.2760634650e+02   4.3086625967e+01     1.660689    0.5942901 -72.88  0.004321149    6.133    0.837
        27 -12.4288     67.4701    144.3625   1.2749616833e+02   3.8213944399e+01     1.063349    0.6555605  88.67  0.002361175    2.168    0.539
        28 -11.3822     89.3151    148.7799   1.2240339972e+02   3.3862710013e+01    0.2944611    0.2663089 -30.56 0.0004809398    1.266    0.210
        29  -9.2568    100.5029    149.5057   1.1955063082e+02   3.1788031960e+01    0.2904051    0.2717322 -89.32  0.000884428    1.026    0.025
        30  -8.6058    103.6507    145.2874   1.1784650684e+02   3.2242457748e+01    0.3489906    0.2168831 -25.74  0.001057415    2.650    0.623
        31  -8.9066    111.1744    135.4459   1.1366760136e+02   3.3197415926e+01    0.2915615    0.2347493 -20.64  0.001129525    1.536    0.349
        32  -9.9369     69.0426    134.8316   1.2531509011e+02   4.0296946645e+01    0.2157819    0.1822592  80.78 0.0004820683    1.261    0.207
        33  -9.8106     98.5884    132.5347   1.1650097358e+02   3.6199015264e+01    0.2930833    0.2407692 -22.01    0.0012667    1.456    0.313
        34 -10.1087     45.0018    130.0262   1.3124079377e+02   4.4392498823e+01    0.2213308    0.1412221 -38.32  0.001144124    1.754    0.430
        35  -9.4936     33.0000    129.9555   1.3458452269e+02   4.5608559920e+01    0.2221117   0.06208896 -65.55 0.0007297401    2.986    0.665
        36 -11.0804     64.8963    219.5951   1.3824980192e+02   2.1136357827e+01    0.5044789     0.250976  54.05   0.00173618    1.788    0.441
        37  -8.6913    107.8324    122.8438   1.1165313084e+02   3.6790760830e+01     0.214943    0.1982508 -21.39 0.0003113183    1.158    0.136
        38 -10.4854     32.2378    120.6520   1.3331729148e+02   4.7847200882e+01    0.2372554     0.160952 -61.23  0.001147775    1.217    0.178
        39  -9.8933    168.0244    112.9961   9.3535388217e+01   2.5772512218e+01    0.3678322    0.2943545 -84.91 0.0008981647    1.529    0.346
        40 -11.6213     87.8911    165.7761   1.2584061152e+02   2.9986708208e+01     1.062939    0.5899859  56.46  0.001702222    2.019    0.505
        41  -8.6484    204.9878    110.5075   8.5151821717e+01   1.7435624062e+01    0.2376244    0.1497321  51.49  0.001035435    1.609    0.379
        42  -9.7965    249.0089    249.2587   1.0547539249e+02  -1.4516903516e+01    0.2485857    0.1430978  15.46  0.001417384    1.676    0.403
        43 -10.4599    126.7631    249.7116   1.2927132389e+02   5.4488338557e+00    0.2588499    0.2344666 -25.69  0.001356184    1.509    0.337
        44 -10.9213     75.6100    229.1473   1.3708630307e+02   1.7604071194e+01    0.3269771    0.2129057  66.00 0.0004660949    1.360    0.265
        45  -9.8723     93.5391    250.4790   1.3580107638e+02   1.0714632633e+01    0.3121565    0.2689844  73.44  0.001200413    1.146    0.128
        46 -11.0874    152.1921    228.7711   1.2118372986e+02   4.7664886657e+00    0.6639339    0.1881715  39.31  0.002232364    3.201    0.688
        47  -9.7138    115.7486     46.8178   8.7132874122e+01   4.9920140032e+01    0.3653691    0.2646404  75.63   0.00125488    1.950    0.487
