#   1 NUMBER                 Running object number                                     
#   2 MAG_AUTO               Kron-like elliptical aperture magnitude                    [mag]
#   3 X_IMAGE                Object position along x                                    [pixel]
#   4 Y_IMAGE                Object position along y                                    [pixel]
#   5 X_WORLD                Barycenter position along world x axis                     [deg]
#   6 Y_WORLD                Barycenter position along world y axis                     [deg]
#   7 A_WORLD                Profile RMS along major axis (world units)                 [deg]
#   8 B_WORLD                Profile RMS along minor axis (world units)                 [deg]
#   9 THETA_WORLD            Position angle (CCW/world-x)                               [deg]
#  10 FWHM_WORLD             FWHM assuming a gaussian core                              [deg]
#  11 ELONGATION             A_IMAGE/B_IMAGE                                           
#  12 ELLIPTICITY            1 - B_IMAGE/A_IMAGE                                       
         1 -14.2982    190.8581     36.0490   1.9268951130e+01   3.2609207512e+01    0.9849393    0.8446102  89.87  0.003628037    1.121    0.108
         2 -10.7859    227.3523      9.6283   8.4418714182e+00   2.6810912489e+01    0.2268986    0.2012888  87.74 0.0006832492    1.124    0.110
         3 -10.5113     61.4087    248.4377   9.1774175324e+01   1.6037527299e+01    0.2667259     0.091793  44.72  0.001148268    2.201    0.546
         4 -10.0819    178.4923    250.5221   7.0113573673e+01  -2.0848206899e+00    0.1246004   0.09735411  32.05 -3.751495e-05    1.004    0.004
         5 -19.7050     58.5729    206.8464   8.8778566994e+01   2.4414782847e+01     6.760516     4.966423 -66.29     0.031809    1.428    0.300
         6 -10.6550    152.6433    215.1378   7.0018410886e+01   7.8851197523e+00    0.2247208     0.174184 -36.43  0.001279244    1.518    0.341
         7 -11.9505    182.9043    235.0847   6.6991149984e+01  -5.9180500119e-01    0.3539439    0.1961653 -37.18 0.0009702574    2.143    0.533
         8 -11.1989    162.8464    210.4829   6.7128338314e+01   6.8873040538e+00    0.2377483    0.1908571 -43.60  0.001306239    1.423    0.297
         9 -11.4789    146.0077    209.0468   7.0466947322e+01   1.0175862305e+01    0.3497697     0.198706 -50.38  0.001690198    2.009    0.502
        10 -18.8233     50.1473     72.5984   6.8672234946e+01   5.6298310563e+01     14.35931    0.6976429 -54.00   0.02111154   18.507    0.946
        11 -11.3138    147.3164    203.8067   6.9343887469e+01   1.0924329759e+01    0.2372104    0.1837907  37.27 0.0005942997    1.165    0.141
        12 -11.2036    162.2536    200.9974   6.5647155002e+01   8.7075989262e+00    0.2881045    0.2069672 -49.72  0.001004726    1.590    0.371
        13 -10.3203    163.0000    196.9821   6.4781007780e+01   9.3127774467e+00    0.2557515    0.1828936 -44.97  0.001073121    1.552    0.356
        14 -10.4256      9.3480    201.1186   9.7999672631e+01   3.1011680062e+01   0.08463998   0.06929761  32.74 0.0001704048    1.614    0.381
        15 -10.3715    210.9712    198.8585   5.5192458181e+01   1.5240002657e-01    0.2076803    0.1747428  14.42 0.0005248504    1.025    0.024
        16 -10.6863    191.5240    192.5237   5.7904345538e+01   4.7511251736e+00     0.407717    0.2455745 -68.49  0.001396825    4.504    0.778
        17 -11.6025    151.1062    193.6937   6.6803199127e+01   1.2170386686e+01    0.2302121    0.2015759 -71.64 0.0006878039    1.333    0.250
        18 -10.3515    114.2417    235.6620   8.0661554824e+01   1.0686059295e+01    0.2646346    0.1675117  66.60  0.001118921    1.748    0.428
        19 -11.7609    174.4797    175.9927   5.8284905118e+01   1.1085603496e+01    0.3813787    0.3111029   7.04   0.00107862    1.346    0.257
        20 -13.0099    173.1345    170.9599   5.7553529826e+01   1.2336576097e+01    0.9063948    0.5613809  35.21  0.002868998    1.583    0.368
        21 -11.9780    180.8620    168.0577   5.5247708760e+01   1.1333514758e+01    0.5592075      0.32898 -56.89   0.00180409    2.312    0.567
        22 -11.4141    178.4599    164.5278   5.5023663476e+01   1.2512903732e+01      0.39779    0.3299783 -17.31  0.001384281    1.287    0.223
        23 -10.8318    163.1246    239.3700   7.1498303865e+01   2.0568369386e+00    0.2713238    0.1786595 -34.62  0.001118812    1.908    0.476
        24 -12.3699    134.7847    227.4646   7.5509923067e+01   8.7818904635e+00    0.4076571    0.2528046  30.36  0.001519235    1.661    0.398
        25 -11.0955    154.0300    231.5133   7.2182478858e+01   4.8373574185e+00    0.2126206    0.1759582 -18.13 0.0004983146    1.500    0.334
        26 -10.0672     22.9433    156.1773   9.1591212507e+01   3.9580083528e+01    0.1247978   0.08932827  37.59  0.000305097    1.577    0.366
        27 -10.8461     36.9110    142.5061   8.6541557635e+01   4.1452562393e+01    0.2459136    0.1554485 -75.75 0.0009581834    1.384    0.278
        28 -11.9905    126.8360    226.6254   7.7017354472e+01   1.0258335258e+01    0.4946374    0.2380475 -50.66  0.002380998    2.448    0.591
        29 -11.7920    145.9527    226.5513   7.3106878468e+01   7.0484224923e+00    0.3531872    0.1970624  22.02  0.001544922    2.591    0.614
        30 -11.1954    149.1914    126.1239   5.2993481372e+01   2.6831811701e+01    0.2407594    0.2144708  -5.67 0.0003839704    1.230    0.187
        31 -11.1309    126.7197    243.6084   7.9160386943e+01   7.3398341946e+00    0.2692714    0.2023099 -24.34  0.001049625    2.054    0.513
        32 -11.5635     32.7132    119.5714   8.4416898489e+01   4.7295457458e+01    0.3798956    0.2191674  44.18  0.001437076    1.971    0.493
        33 -11.4631     94.7157    118.0893   6.5794726967e+01   3.9562090511e+01    0.2476596    0.2050703  55.32 0.0004604232    1.311    0.237
        34 -13.7278    120.0205    110.7904   5.6732460229e+01   3.6468044041e+01    0.7201518    0.5350474  63.38  0.002264459    1.633    0.388
        35 -13.5541    123.2357    107.8960   5.5071983840e+01   3.6446060434e+01     1.078172    0.6363724  72.71  0.003349261    3.898    0.743
        36 -12.0604    111.4231    104.1415   5.7399390708e+01   3.9678912488e+01    0.3523992    0.2900105 -83.19  0.001701991    1.537    0.350
        37 -11.0456     24.1966    104.7636   8.4592564449e+01   5.1488948872e+01    0.2319731    0.1845268 -41.87 0.0009660625    1.255    0.203
        38 -12.3547    167.8852    223.3994   6.8166231853e+01   3.7913958363e+00    0.4046572    0.2022511  43.32   0.00192652    1.733    0.423
        39 -12.1029    175.9796    222.3837   6.6365553134e+01   2.5490743229e+00    0.3593249    0.2194402  28.66  0.001853211    1.555    0.357
        40 -10.6174      2.1624     87.8816   8.8882025716e+01   5.6721664898e+01    0.1717423    0.1055225 -51.45 0.0005706471    1.321    0.243
        41 -10.4552    149.1552    238.3739   7.4107679526e+01   4.5376619081e+00    0.1974758    0.1632451  27.02 0.0003899228    1.193    0.162
        42 -12.1035     86.3418     82.3160   5.8918919561e+01   4.9056938271e+01    0.4409507    0.2490724 -43.61  0.001608758    1.665    0.399
        43  -9.6968    123.9473     78.9956   4.6500354919e+01   4.2319781840e+01    0.1852575    0.1755061 -16.42 0.0004841487    1.039    0.038
        44  -9.4654    114.5942     83.2410   5.0466513563e+01   4.3490978886e+01    0.1511294    0.1203459  74.92 0.0006921276    1.690    0.408
        45 -11.6691    111.1644    242.2115   8.2002139702e+01   1.0024653871e+01    0.2296948    0.1817126 -57.91 0.0005949644    1.541    0.351
        46 -13.1920      6.7970     74.2151   8.4980269998e+01   5.9506875796e+01    0.4975799    0.1808258 -59.52  0.001721017    1.946    0.486
        47 -13.2394    158.9788     72.6147   3.5780438408e+01   3.5193616125e+01     0.619441    0.5014744  35.89  0.001371277    1.274    0.215
        48 -14.3453    171.2844     60.8959   2.9716371894e+01   3.4044919342e+01     1.227105     1.045194   9.85  0.004074052    1.366    0.268
        49 -12.8180    178.6947     52.9204   2.6001815058e+01   3.3377520135e+01    0.5142523    0.4707112  62.10 0.0008645683    1.050    0.048
        50 -11.1989    132.4723    221.4786   7.5163330065e+01   1.0244406721e+01     0.256402    0.1898269 -53.14  0.001043112    1.574    0.365
        51 -12.1739    136.1756    218.7241   7.4003794664e+01   1.0114319224e+01    0.2660408     0.253653 -63.53 0.0008275482    1.214    0.177
        52 -13.2322     11.4402     63.8633   8.1114016887e+01   6.1478472719e+01    0.4438741       0.2046 -30.19  0.002259232    2.288    0.563
        53 -12.9788     13.4774     59.9802   7.9410616666e+01   6.2173665002e+01    0.3342821    0.2688625  79.20  0.001368408    1.735    0.424
        54 -11.7228    157.4765    220.5066   6.9846317463e+01   6.0945064317e+00    0.2341886    0.2091522  34.71 0.0006499933    1.052    0.049
        55  -9.9364    129.8442     62.8149   3.9735465286e+01   4.3935755743e+01    0.1981148    0.1807514 -84.09  0.000322939    1.303    0.232
        56 -12.9655     16.5687     55.9854   7.7163383900e+01   6.2803607962e+01    0.4484559    0.2258987  41.87  0.002278539    2.920    0.658
        57 -11.9139      6.3863     56.8342   8.1491868682e+01   6.3223800827e+01    0.2546632    0.1545801  -7.29  0.001056774    1.891    0.471
        58  -9.9125    152.9655    237.3148   7.3210492674e+01   4.0736102422e+00    0.1785216    0.1403915  37.04  0.000544062    1.060    0.056
        59 -10.6109     95.0526     36.5112   4.0285242963e+01   5.5673681087e+01    0.2019853    0.1778671  -4.24 0.0004837929    1.083    0.077
        60 -11.5851    189.1584     14.8704   1.3733551883e+01   3.5519416633e+01    0.2155287    0.1726166 -75.30  0.000646501    1.221    0.181
