#   1 NUMBER                 Running object number                                     
#   2 MAG_AUTO               Kron-like elliptical aperture magnitude                    [mag]
#   3 X_IMAGE                Object position along x                                    [pixel]
#   4 Y_IMAGE                Object position along y                                    [pixel]
#   5 X_WORLD                Barycenter position along world x axis                     [deg]
#   6 Y_WORLD                Barycenter position along world y axis                     [deg]
#   7 A_WORLD                Profile RMS along major axis (world units)                 [deg]
#   8 B_WORLD                Profile RMS along minor axis (world units)                 [deg]
#   9 THETA_WORLD            Position angle (CCW/world-x)                               [deg]
#  10 FWHM_WORLD             FWHM assuming a gaussian core                              [deg]
#  11 ELONGATION             A_IMAGE/B_IMAGE                                           
#  12 ELLIPTICITY            1 - B_IMAGE/A_IMAGE                                       
         1 -13.6188    218.3123      7.4843   3.8224168918e+01   2.9485522275e+01     1.427588     1.198929  30.93  0.005960884    1.485    0.327
         2 -14.3534    192.9193     37.8332   4.9308834016e+01   3.2148838482e+01     2.844052     1.754228  14.23   0.01193764    2.513    0.602
         3 -10.0103     71.0106      1.9945   5.7371257133e+01   6.6992264352e+01    0.2626588    0.1092938  39.48  0.001029441    2.604    0.616
         4 -19.5333     17.1754    144.7314   1.2006317578e+02   4.2823574003e+01      18.8354     4.650155 -81.49   0.06590485    3.935    0.746
         5 -12.2435    248.7659    243.6039   8.5174927220e+01  -4.2084671686e+00    0.4757228    0.3432907 -25.26  0.003972996    1.724    0.420
         6  -9.5201     55.6695    223.1890   1.1673283683e+02   2.2689706470e+01    0.1276512    0.1019022  66.64 0.0002753433    1.120    0.107
         7  -9.4265     72.1175    249.8976   1.1539444922e+02   1.6528846299e+01    0.1197395   0.08597947  84.07 0.0004445462    1.548    0.354
         8  -8.8096     61.5114    220.1123   1.1538440377e+02   2.2557720090e+01    0.1271607   0.09802511 -55.34 0.0005970333    1.701    0.412
         9  -9.6002     49.1231    218.6699   1.1772530736e+02   2.4210761602e+01    0.2947737    0.1472034  62.83  0.001550775    1.828    0.453
        10  -9.7782     55.9134    217.1553   1.1628607879e+02   2.3721267593e+01    0.2667394    0.1114725  67.25   0.00128109    2.884    0.653
        11 -10.1549    169.7333    212.9113   9.3653624092e+01   9.1576790527e+00    0.3049227    0.1289087  25.13  0.001328768    3.017    0.669
        12  -9.8116     56.6704    210.2807   1.1565387582e+02   2.4877599139e+01    0.2368514    0.1452437 -61.29   0.00149253    1.916    0.478
        13 -11.2725    189.1759    208.8881   8.9604244059e+01   6.9263337436e+00    0.3755116     0.223006   9.82  0.002110109    2.022    0.505
        14  -9.7044     44.0516    210.1306   1.1820923662e+02   2.6314530793e+01    0.1683294    0.1056634  56.70  0.001107496    1.261    0.207
        15  -8.4605     42.4333    205.8979   1.1827632316e+02   2.7281476017e+01    0.2510319    0.2013945 -16.52  0.001686705    2.069    0.517
        16 -11.5863     32.9385    206.8094   1.2027276320e+02   2.8104199467e+01    0.3530836    0.1352902  55.40  0.001857273    2.130    0.530
        17  -8.4272     86.7118    204.9203   1.0899477333e+02   2.2148287480e+01    0.3341002    0.1625207 -45.76   0.00165049    2.939    0.660
        18 -10.4879     66.5638    204.4650   1.1315883020e+02   2.4783959815e+01     0.278357    0.1857864 -42.24 0.0009609163    2.217    0.549
        19  -9.0345     70.5950    200.4251   1.1195969910e+02   2.5046804321e+01    0.1742303     0.136728  41.44 0.0008047529    1.180    0.152
        20 -10.9690    193.4309    195.7863   8.6812973506e+01   8.0326182425e+00    0.8973743    0.4717866 -56.01  0.003767244    4.506    0.778
        21 -10.3609     96.4410    201.8597   1.0664692889e+02   2.1395608727e+01    0.4796376    0.3303394 -29.89   0.00273535    2.256    0.557
        22 -12.4821     56.9198    197.4984   1.1463279794e+02   2.7263892336e+01    0.7547749     0.269319 -53.25  0.003288985    3.725    0.732
        23 -12.2950     67.4696    184.3024   1.1112732959e+02   2.8604511847e+01    0.6386072    0.5872161 -68.13  0.003261394    1.278    0.218
        24 -10.0103    204.8123    199.3936   8.5432505781e+01   5.9125170487e+00    0.1696053   0.09112158  26.99 0.0009491795    1.716    0.417
        25 -10.5435    150.4898    195.8692   9.4836277738e+01   1.4511184535e+01       0.2288    0.2171406 -83.22  0.001609346    1.309    0.236
        26 -10.3222     35.0407    197.3062   1.1929196594e+02   2.9719076213e+01    0.1612115    0.1070407  52.29 0.0003120714    1.198    0.165
        27  -9.6889     81.9866    194.8819   1.0898221266e+02   2.4636593210e+01    0.1867292      0.16253  74.61 0.0005124219    1.117    0.105
        28 -10.4019     95.5417    188.8821   1.0536071416e+02   2.3928016541e+01    0.4087901    0.2893854  75.13  0.001980925    1.592    0.372
        29 -11.0091     98.9501    181.7479   1.0372018178e+02   2.4817359501e+01    0.4905949    0.2816547 -49.45  0.001886169    2.006    0.502
        30  -8.8913    156.5243    189.9045   9.2746610272e+01   1.4526923339e+01    0.1629015    0.1224726 -43.06 0.0004537303    1.494    0.331
        31 -11.0638    149.5668    188.0708   9.3843458208e+01   1.5912609013e+01    0.3255942    0.1908647  43.40   0.00175655    1.572    0.364
        32 -10.3474    128.4227    185.3123   9.7786181409e+01   1.9693430918e+01    0.2293456    0.1199776 -47.13  0.001144273    2.146    0.534
        33  -9.2692    238.5160    185.5358   7.7660987688e+01   2.8597781529e+00    0.1143834   0.08982985   1.52  0.000196701    1.037    0.036
        34 -10.9224    150.7818    179.5689   9.2245790374e+01   1.7137309395e+01    0.3795674    0.2699514 -72.37  0.002019286    2.167    0.539
        35 -10.9405    139.8622    172.5403   9.3362416608e+01   2.0155290102e+01    0.3572952    0.2772666  62.10   0.00127645    1.496    0.331
        36 -11.3538    144.7323    180.3492   9.3613873563e+01   1.7981870863e+01    0.3420426    0.2525968  35.79   0.00114598    1.223    0.182
        37 -10.2518    131.1389    180.7945   9.6536275289e+01   2.0077142409e+01    0.1693096    0.1461494   3.80 0.0006349738    1.308    0.236
        38 -10.4219    188.9567    177.0798   8.4434277509e+01   1.1346590118e+01    0.5742521      0.32878 -53.78  0.001956806    2.752    0.637
        39  -9.9302     72.2887    245.2884   1.1506651589e+02   1.7202707925e+01    0.2895032    0.1533271  58.65   0.00135666    1.725    0.420
        40  -9.8655     58.7651    176.5145   1.1237056961e+02   3.1302532536e+01    0.1986922    0.1639258  63.53  0.000368309    1.020    0.019
        41  -9.5543    239.3559    174.3061   7.5522328293e+01   4.0582169457e+00    0.1240663    0.0750799   6.79 0.0007041206    1.720    0.419
        42 -10.4748     59.0840    230.3269   1.1653651792e+02   2.1092383034e+01    0.1610555    0.1297141  75.49 0.0002583128    1.222    0.182
        43 -10.2809     43.8187    172.4482   1.1553427296e+02   3.3913258190e+01    0.6038329    0.1787983  44.26  0.001559741    2.683    0.627
        44  -9.8751    240.2137    169.5605   7.4515723661e+01   4.5047026928e+00    0.1608845   0.09599491  24.97 0.0004606964    1.628    0.386
        45 -10.4658     50.2318    224.6119   1.1787134092e+02   2.3047664382e+01    0.1814964    0.1128408  73.02  0.000727383    1.512    0.339
        46 -11.5520     95.1038    151.8337   1.0032477955e+02   3.1609373469e+01     0.586732    0.4652425 -28.86  0.002908179    1.641    0.391
        47  -9.8345    187.6578    152.3026   7.9957484392e+01   1.5364802155e+01    0.2414377    0.2070131 -81.29  0.001389679    1.745    0.427
        48 -10.8103    133.8321    145.4856   8.9798332561e+01   2.6362554030e+01     1.125426    0.2791236 -53.51  0.002964011    5.770    0.827
        49  -9.5202    113.1479    151.0234   9.5735285226e+01   2.8846885262e+01    0.2772828    0.1696868  63.62  0.001141154    2.121    0.529
        50  -8.7974    139.4379    150.5660   8.9515217293e+01   2.4350680578e+01     0.134847    0.1293996  35.40  0.000127101    1.010    0.010
        51  -9.6480    174.4364    148.8597   8.1790220869e+01   1.8301913251e+01    0.2627512    0.2445027 -74.23  0.000860567    1.347    0.258
        52  -9.8829    143.7134    145.9391   8.7646732844e+01   2.4471282363e+01    0.3269443    0.1697779 -60.01  0.001292488    2.743    0.635
        53  -9.2725    109.0282    147.0552   9.6036321083e+01   3.0384209305e+01    0.2098651    0.1873331  69.74 0.0004601474    1.113    0.101
        54  -9.4606     87.4844    144.1698   1.0103378641e+02   3.4502030882e+01    0.3402933    0.1717008  64.56   0.00126892    3.060    0.673
        55 -10.7786    107.1542    138.1965   9.4865624466e+01   3.2631551131e+01    0.4425936    0.3852839 -28.61   0.00244866    1.339    0.253
        56 -11.6420     95.0114    137.6873   9.7929377867e+01   3.4781704488e+01    0.2630436    0.2542117 -49.25 0.0004155778    1.140    0.123
        57 -10.4809    105.8730    130.7390   9.3728122466e+01   3.4512106473e+01    0.3642234    0.3030843 -69.57  0.001222425    1.221    0.181
        58  -9.7346    135.6550    129.5327   8.6027955148e+01   2.9258111352e+01    0.4070515    0.1341649 -46.72  0.001368796    3.042    0.671
        59 -10.1003    114.4813    129.0787   9.1148954695e+01   3.3339607446e+01    0.3167131     0.272614 -17.87 0.0006996526    1.392    0.282
        60  -9.2419    160.8014    128.1128   8.0068907538e+01   2.4599712148e+01    0.3137122    0.1951927 -52.53  0.001428523    1.821    0.451
        61 -10.1931    119.7501    124.1478   8.8728441882e+01   3.3437907507e+01     0.426726    0.2318709 -43.98  0.001816134    1.888    0.470
        62 -10.3932    102.0959    124.8570   9.3520941349e+01   3.6505817767e+01    0.2955212    0.2485292 -18.26 0.0006588072    1.498    0.332
        63  -9.9888    135.0000    121.6637   8.4387385956e+01   3.1007245050e+01      0.57528   0.08239483 -45.92  0.001251151    6.920    0.855
        64  -9.3725    109.9211    118.2273   8.9957533199e+01   3.6591972511e+01    0.2311307    0.2029504 -59.63  0.000314194    1.115    0.103
        65 -10.0349    231.1180    113.6595   6.4247676142e+01   1.3330372059e+01    0.2489474    0.2357707  -0.62 0.0008327544    1.175    0.149
        66  -9.1462    167.5065    112.4907   7.4912670833e+01   2.6120919772e+01    0.3154918    0.2190129 -74.12  0.001244184    2.344    0.573
        67  -9.9127    134.3750    105.4202   8.0504781935e+01   3.4505150998e+01    0.4671468    0.1464697 -46.29  0.001455302    3.156    0.683
        68 -11.0856    118.4249    110.5528   8.5867815653e+01   3.6665953832e+01    0.6605626    0.4295228  70.52  0.002735305    2.239    0.553
        69  -8.0692     76.6312    224.5349   1.1276025637e+02   2.0005472594e+01    0.1088389   0.08729317  53.18 0.0003172327    1.036    0.035
        70  -9.4848    205.6176    110.1406   6.7329573913e+01   1.8688716132e+01    0.2492253    0.1973716  33.92 0.0007520703    1.343    0.255
        71  -9.1054     65.0000    223.9610   1.1497488808e+02   2.1487774999e+01    0.1435868   0.06050084 -71.49 0.0007684236    2.712    0.631
        72  -8.5214     84.2280    245.6700   1.1294020255e+02   1.5753634747e+01    0.1007894   0.06303743  60.56            0    1.520    0.342
        73 -12.7767    177.6317     52.0646   5.5788885469e+01   3.3966496448e+01     0.786891    0.7024368  19.31 0.0008284705    1.259    0.205
        74  -9.8549    168.0792    232.8886   9.6590303569e+01   6.7753872032e+00    0.2185947    0.1385841  38.99  0.000820759    1.351    0.260
        75  -9.6599     80.8734     15.3584   6.1923112688e+01   6.3194421080e+01    0.2740804    0.1398405  67.96  0.001093316    2.593    0.614
        76  -9.8141     36.9236    224.1664   1.2039506356e+02   2.4541569364e+01    0.1279067     0.116529  19.26 0.0003444987    1.528    0.346
