#   1 NUMBER                 Running object number                                     
#   2 MAG_AUTO               Kron-like elliptical aperture magnitude                    [mag]
#   3 X_IMAGE                Object position along x                                    [pixel]
#   4 Y_IMAGE                Object position along y                                    [pixel]
#   5 X_WORLD                Barycenter position along world x axis                     [deg]
#   6 Y_WORLD                Barycenter position along world y axis                     [deg]
#   7 A_WORLD                Profile RMS along major axis (world units)                 [deg]
#   8 B_WORLD                Profile RMS along minor axis (world units)                 [deg]
#   9 THETA_WORLD            Position angle (CCW/world-x)                               [deg]
#  10 FWHM_WORLD             FWHM assuming a gaussian core                              [deg]
#  11 ELONGATION             A_IMAGE/B_IMAGE                                           
#  12 ELLIPTICITY            1 - B_IMAGE/A_IMAGE                                       
         1 -15.7402    244.9483     86.1245   3.0668381294e-01   1.7217617004e+01     4.620683    0.8817806 -41.75   0.01784395    3.444    0.710
         2 -14.7265    246.8221     53.6457   3.5383297352e+02   2.1258089764e+01     1.603652    0.6362687 -39.10  0.008786212    1.833    0.454
         3 -15.5261    245.5713     17.8596   3.4694187417e+02   2.5703165902e+01     2.455099     1.364626 -45.10   0.01672981    1.278    0.217
         4 -11.4813    151.0009      5.5052   3.4998289913e+02   4.6296168483e+01    0.1954221    0.1100948  80.16  0.001034488    1.596    0.373
         5 -11.0301    159.4677      3.0226   3.4857321643e+02   4.4560247651e+01    0.1819468     0.115252 -32.23  0.001042146    1.628    0.386
         6 -10.0767    219.6424    120.7523   9.9934579234e+00   1.5928249834e+01    0.1783168   0.09191678 -45.76 0.0008189311    1.642    0.391
         7 -13.5603    241.9377    235.4206   2.6120115915e+01  -3.0866308921e+00    0.8912497     0.393466 -18.82  0.005258538    2.309    0.567
         8 -12.0781    248.2898    247.5436   2.6871228647e+01  -4.9968828502e+00    0.5742533    0.2328001 -28.32  0.003720352    1.979    0.495
         9 -12.0297    248.9774    236.7881   2.5301727775e+01  -3.8262280450e+00    0.5326614    0.1084456 -38.74  0.002418961    4.071    0.754
        10 -12.1407    238.3438    247.7966   2.8348166430e+01  -4.2406292643e+00    0.3997422    0.1464261 -38.98  0.002384824    2.514    0.602
        11 -10.8470     17.2555    250.4046   7.2878040023e+01   1.7804349796e+01    0.1771891    0.1021434  49.41 0.0007194763    1.358    0.263
        12 -11.8134     15.1162    243.8490   7.3117783884e+01   1.9276129877e+01     0.234103    0.1578753  72.64   0.00110808    1.436    0.304
        13 -12.3977     13.9242    239.3085   7.3223781604e+01   2.0292122939e+01    0.3288827    0.1707899  49.40  0.001465667    1.510    0.338
        14 -13.8956     10.5294    247.3856   7.4261491042e+01   1.8978329692e+01     1.530296    0.4321884 -80.11  0.006591604    3.850    0.740
        15 -10.8786      2.0356    249.5018   7.6181486019e+01   1.9279788816e+01     0.277542    0.1607673  61.32  0.001269004    1.458    0.314
        16 -12.3863      4.1160    245.1816   7.5614630590e+01   1.9952652062e+01    0.8084871    0.3067854  72.47  0.003917386    2.660    0.624
        17 -11.5848    131.0962    246.8194   4.7380155727e+01   6.4211362068e+00    0.2610762    0.1368422 -38.69  0.001440249    2.136    0.532
        18  -9.4815     77.6439    248.3395   5.9175701427e+01   1.2138681267e+01    0.1325575   0.07351913  50.21  0.000506756    1.812    0.448
        19 -10.8544    219.2160    245.8661   3.1019070825e+01  -2.3979109057e+00    0.2054732    0.1039895  -1.42  0.001237565    2.124    0.529
        20 -11.8023    187.3143    242.4731   3.5933627745e+01   1.0536853402e+00    0.2629018    0.1358679 -39.43  0.001409285    1.914    0.478
        21 -10.5978    158.3392    243.3168   4.1455864552e+01   3.9634491259e+00    0.1212753   0.07525681  -6.98 0.0007048568    1.705    0.413
        22 -10.1053     45.4510    243.7079   6.6184753834e+01   1.6423884206e+01    0.2283426    0.0928295  25.46  0.001072705    2.071    0.517
        23 -10.4604    207.8342    249.4042   3.3337894318e+01  -1.8206370194e+00    0.1460742   0.07875083  10.45 0.0006664096    1.682    0.405
        24  -9.4576    206.2720    240.3632   3.2375437806e+01  -5.1526620506e-01    0.1120286   0.06373889 -13.24 0.0004732565    1.658    0.397
        25 -10.1076    201.1363    240.3165   3.3234100450e+01  -1.6955705421e-02    0.1732978     0.106182   2.21 0.0009548488    1.471    0.320
        26 -10.0942     74.3337    239.6716   5.9202381061e+01   1.4125710659e+01    0.2050402    0.1167582  51.25 0.0008771371    1.764    0.433
        27 -11.7568     25.8452    248.9213   7.0910561615e+01   1.7310972040e+01    0.6872374          nan  37.67  0.001994524    5.668    0.824
        28 -11.9115    172.0961    248.0224   3.9434383803e+01   1.8228360831e+00    0.2494358    0.1854074 -62.69  0.001627775    2.326    0.570
        29 -11.6557    152.8655    249.7215   4.3322658393e+01   3.5894141360e+00    0.3840935   0.06334241  31.99  0.001349855    4.518    0.779
        30 -11.6681    178.0751    243.9944   3.7806785583e+01   1.7795372646e+00    0.3337505    0.1180808  24.63  0.001619885    2.608    0.617
        31  -9.7484     61.9561    237.0145   6.1877074057e+01   1.6007849813e+01    0.1593665    0.1213726  33.18  0.000991142    1.085    0.078
        32 -12.8428     20.2408    241.2491   7.1854141852e+01   1.9337324417e+01    0.4184734    0.2400515  63.34  0.002440689    1.608    0.378
        33 -10.9371    217.0220    235.1687   2.9892935289e+01  -8.5086439341e-01    0.1693187    0.1090459  -5.63 0.0008973028    1.304    0.233
        34 -10.2257     66.9243    234.1367   6.0473335689e+01   1.6032826587e+01    0.2863667    0.1345643  53.94  0.001325825    2.321    0.569
        35  -9.3507    145.5415    232.4298   4.2622472870e+01   7.1245696092e+00    0.1199698    0.1000118  11.42 0.0001193196    1.032    0.031
        36 -10.0135    225.9321    230.4908   2.7824041501e+01  -1.0746748526e+00    0.1634534    0.1092674 -24.35 0.0009169381    1.206    0.171
        37 -10.4867    212.8514    229.5485   2.9769130293e+01   2.8425148175e-01    0.2908169    0.1663708 -53.10  0.001627072    3.031    0.670
        38 -11.6837    242.5828    246.6865   2.7576749609e+01  -4.4528199390e+00    0.4662252     0.131142 -32.33   0.00243939    3.024    0.669
        39 -12.1294      4.7939    229.2968   7.5001347098e+01   2.3143969068e+01    0.4250131    0.1063324  46.11  0.001795634    2.634    0.620
        40 -10.3417    217.4759    227.5112   2.8727621706e+01   1.0795423796e-01    0.1093964   0.07991756 -10.52 0.0003109626    1.034    0.033
        41 -10.5279     72.2498    225.5225   5.8442011529e+01   1.7171495805e+01    0.3895847    0.1591292  50.82  0.001550618    2.706    0.630
        42 -11.7272     12.8493    226.9543   7.3011547676e+01   2.2960444441e+01     0.217509    0.1518386  33.56 0.0006310202    1.227    0.185
        43 -10.8010    249.5185    223.5504   2.3347470348e+01  -2.3021621977e+00    0.1978198   0.07631862 -36.20 0.0009489796    2.078    0.519
        44 -10.1849     61.7134    228.1256   6.1227622115e+01   1.7831445395e+01    0.2669877    0.1038655  40.61  0.001186422    2.082    0.520
        45 -10.8115     96.1702    222.7349   5.2404102960e+01   1.4872900644e+01    0.4488055    0.2099939  14.87  0.001852202    2.696    0.629
        46  -9.9738     90.7271    225.0110   5.3945540285e+01   1.5084795343e+01    0.1718918    0.1521239  27.79 0.0004154389    1.028    0.028
        47 -10.7884    239.6782    220.6799   2.4334125446e+01  -1.0826715367e+00    0.2527765    0.1134024 -24.65 0.0009788133    2.005    0.501
        48 -12.0823    241.8418    215.4783   2.3251401025e+01  -6.2070558694e-01    0.2667185    0.2270362 -16.19   0.00224772    1.370    0.270
        49  -9.9376    226.5102    220.4855   2.6279054737e+01   1.6862864866e-01    0.1090167   0.07868287 -12.94 0.0002794265    1.043    0.041
        50 -11.0726    248.3070    218.5096   2.2782241533e+01  -1.5809997591e+00     0.206813    0.1258699 -30.18  0.000954479    1.299    0.230
        51 -11.4341    247.3212    214.6853   2.2355190214e+01  -1.0177704205e+00    0.1992146    0.1312506 -30.68  0.001261177    1.274    0.215
        52 -12.0314    232.4381    212.9014   2.4243978913e+01   5.9968857035e-01    0.3790834    0.1584643 -42.62  0.002122054    2.332    0.571
        53  -9.3717    137.6567    219.2721   4.2532045445e+01   1.0340911435e+01    0.1213795   0.09082097  48.89 0.0004804858    1.615    0.381
        54  -9.6458    211.9874    216.4877   2.7989666350e+01   2.1601079610e+00    0.1335272   0.09152901  47.94 0.0008103668    2.547    0.607
        55  -9.5779    209.3693    211.8190   2.7711386083e+01   3.0988745335e+00    0.1487461   0.08512114 -28.64 0.0003800944    1.507    0.336
        56 -13.0809      5.9610    238.0956   7.4999527985e+01   2.1220236886e+01    0.7573572    0.2634192  52.72  0.003630162    2.229    0.551
        57 -11.7329      8.7160    211.4643   7.3422402991e+01   2.6734620623e+01    0.2463223    0.1773254 -48.42  0.001434218    1.769    0.435
        58 -10.0438      3.5169    212.4890   7.4767299030e+01   2.6926944361e+01    0.1309245     0.100033  53.27 0.0001422406    1.055    0.052
        59 -10.1885    132.7749    210.2179   4.2343165740e+01   1.2629056998e+01    0.1811837    0.1606818  32.90 0.0004917702    1.167    0.143
        60 -10.9788    228.6452    206.3567   2.3813945104e+01   1.8559743372e+00    0.3338587    0.0862101 -41.87  0.001446049    3.474    0.712
        61 -10.8551     12.8293    204.4731   7.2065423221e+01   2.8000844751e+01    0.2785095    0.1392319  70.67  0.001336562    1.942    0.485
        62  -9.4094    186.6685    200.6785   2.9913255923e+01   7.3994976307e+00     0.126902   0.08098246 -10.59 0.0007049458    1.698    0.411
        63  -9.5765     98.2855    200.1102   4.9139560003e+01   1.9291307914e+01    0.2253641   0.07678524 -41.54 0.0006820754    4.372    0.771
        64  -9.4298     92.4078    197.4517   5.0287011678e+01   2.0664558627e+01     0.135761    0.1249736  36.30 0.0001242081    1.021    0.021
        65 -10.1973     79.8762    195.8308   5.3356568895e+01   2.2692581241e+01     0.197451    0.1808274  -7.02 0.0004302513    1.197    0.165
        66 -11.9042      7.8672    193.0497   7.2871525781e+01   3.1140878316e+01    0.3413233    0.1838707  74.51  0.001683601    1.760    0.432
        67  -9.1385    127.6743    192.6982   4.0913791916e+01   1.6762217187e+01    0.1385449   0.09987494 -11.16 0.0003657959    1.639    0.390
        68 -11.3160      2.9786    187.3229   7.3972250780e+01   3.2925714030e+01    0.2944063    0.1796294 -71.49  0.001034316    1.675    0.403
        69 -10.6284    249.0379    183.2894   1.7247768253e+01   2.9128247242e+00    0.1471238    0.1131935 -19.74 0.0005697486    1.071    0.066
        70  -9.5467    120.0593    165.9390   3.8316348376e+01   2.3648564764e+01    0.1626495    0.1594515   8.38 0.0003351569    1.012    0.012
        71 -11.1943      3.8195    150.1239   7.1872965857e+01   4.2510050144e+01    0.4299854    0.1586844 -46.86  0.001527234    3.363    0.703
        72 -11.9960    247.6550    143.6042   1.0701075043e+01   8.6196000352e+00    0.3257063    0.1275776 -45.86  0.001641498    2.323    0.569
        73 -11.8241    242.5803    134.7916   9.7368790679e+00   1.0539670543e+01    0.3197736    0.1182179 -40.97  0.001596752    2.071    0.517
        74 -12.0219      3.2926    137.3170   7.1241303075e+01   4.6028800872e+01    0.5195541    0.1494974 -67.48  0.001584047    2.938    0.660
        75 -11.6285    247.8003    129.8487   8.2187184408e+00   1.0578793310e+01    0.3527533    0.2126787 -57.63  0.002101251    2.099    0.524
        76 -10.9718    231.8983    130.6832   1.0309566868e+01   1.2594007368e+01    0.4675309    0.1410549 -35.33  0.001898051    3.020    0.669
        77 -10.1171    230.0446    137.6579   1.1858166638e+01   1.1785812799e+01    0.2010243    0.1309782 -43.40 0.0007561612    1.292    0.226
        78 -12.3462    237.6403    120.6292   7.7028143001e+00   1.3301855038e+01    0.7325246    0.4582804 -27.75  0.004508948    1.519    0.342
        79 -12.7759    247.8810    117.8276   6.0083426978e+00   1.2296815505e+01     1.015142    0.2518702 -41.04  0.004285512    2.936    0.659
        80 -11.9028    224.8467    247.4096   3.0342764749e+01  -3.0741748836e+00    0.2371635    0.1237307 -34.82  0.001212565    1.725    0.420
        81 -11.1019    230.9139    115.9403   7.6128123405e+00   1.4977406459e+01    0.4848483     0.125206 -42.19  0.001936978    2.977    0.664
        82 -10.4200     12.9918    118.7570   6.5956654051e+01   5.0500945730e+01    0.1836777    0.1228108  18.11 0.0008849408    1.606    0.377
        83  -9.8171    226.2768    115.9957   8.1960808363e+00   1.5662144665e+01     0.178416    0.1247823 -41.98  0.000943179    1.135    0.119
        84 -11.5478    235.2670    112.1632   6.3643542044e+00   1.4904138449e+01    0.2604904    0.1543461 -52.33  0.001207798    1.611    0.379
        85 -12.2900    224.3442    242.6925   2.9779742816e+01  -2.4583994258e+00    0.1901157    0.1586289  19.17  0.001578075    1.587    0.370
        86  -9.8626     50.7785    249.0034   6.5296027504e+01   1.4862593260e+01    0.1903128   0.09249713  41.57  0.001015829    1.615    0.381
        87 -10.0587      3.5019     94.4896   6.7363888122e+01   5.7812929498e+01    0.1397136    0.1280936 -75.00 0.0008105984    1.005    0.005
        88  -9.8309     26.6658     93.6975   5.6365472370e+01   5.6226891577e+01    0.1547791    0.1041086 -34.15 0.0007036378    1.659    0.397
        89 -10.0702     48.2733     96.6588   4.7389222814e+01   5.2797179308e+01    0.1558581    0.1137757  72.03 0.0002217526    1.613    0.380
        90 -11.2035     42.5320     83.9750   4.6811095960e+01   5.6900186468e+01    0.4432043    0.3613416  51.23  0.002286791    1.279    0.218
        91  -9.4551     87.3039     83.6917   2.8838965244e+01   4.9104001207e+01    0.1558622    0.1194536  85.00 0.0003104611    1.606    0.377
        92 -10.5963     30.3225     82.1297   5.2173403827e+01   5.8911010353e+01    0.2889972    0.2081222  36.42  0.001186075    1.412    0.292
        93 -10.8712     66.9906     79.0067   3.4835681994e+01   5.4160304363e+01    0.2897368    0.1899016 -40.86 0.0009778052    1.655    0.396
        94 -12.1352     67.4613     74.4245   3.3205032398e+01   5.5134052876e+01    0.4906118    0.3010943   9.41  0.001691535    3.391    0.705
        95 -13.4821     68.2593     62.1527   2.8700356946e+01   5.7674391992e+01    0.6553849    0.3900697  23.95  0.002582006    2.490    0.598
        96 -12.2745     77.0229     64.6044   2.6224664972e+01   5.5375296277e+01    0.3905344    0.2591727  20.41   0.00161925    2.284    0.562
        97 -10.1923    221.8052    127.7357   1.1073056194e+01   1.4499493520e+01    0.2206077    0.1369517 -32.73  0.001289075    1.397    0.284
        98 -12.0815     75.8146     47.0104   2.0032433904e+01   5.9035122384e+01    0.3382346    0.2165787  62.57  0.001554817    1.692    0.409
        99 -10.6981    227.1707    124.2681   9.6937755809e+00   1.4252347412e+01    0.3311305    0.1398486 -42.18  0.001655384    1.879    0.468
       100 -12.7881     53.4914     29.4974   2.1199241584e+01   6.6750346833e+01    0.4981941     0.176125  42.28  0.001818709    2.849    0.649
       101 -12.1632     46.1253     30.4466   2.5224484202e+01   6.8043114245e+01    0.2727151    0.1839913 -60.50  0.001339728    1.979    0.495
       102 -10.7635      2.9892    124.4800   7.0425834879e+01   4.9581995740e+01    0.1949844    0.1406143  14.71 0.0004828194    1.523    0.343
       103 -11.2810    191.5946    244.2137   3.5410139836e+01   3.9033987323e-01      0.19449    0.1107882  -5.68  0.001189232    1.784    0.439
       104 -11.7093    196.0294    246.9669   3.5006213334e+01  -4.0734434368e-01    0.2372976     0.130348 -29.75  0.001545308    1.659    0.397
