#   1 NUMBER                 Running object number                                     
#   2 MAG_AUTO               Kron-like elliptical aperture magnitude                    [mag]
#   3 X_IMAGE                Object position along x                                    [pixel]
#   4 Y_IMAGE                Object position along y                                    [pixel]
#   5 X_WORLD                Barycenter position along world x axis                     [deg]
#   6 Y_WORLD                Barycenter position along world y axis                     [deg]
#   7 A_WORLD                Profile RMS along major axis (world units)                 [deg]
#   8 B_WORLD                Profile RMS along minor axis (world units)                 [deg]
#   9 THETA_WORLD            Position angle (CCW/world-x)                               [deg]
#  10 FWHM_WORLD             FWHM assuming a gaussian core                              [deg]
#  11 ELONGATION             A_IMAGE/B_IMAGE                                           
#  12 ELLIPTICITY            1 - B_IMAGE/A_IMAGE                                       
         1 -12.4987    151.4539     51.8122   8.8876176729e+01   4.0443417673e+01     1.180097     1.083924 -25.05    0.0038065    1.086    0.079
         2 -12.4714    160.7885     21.8308   7.6722257596e+01   4.2076358298e+01     1.049185     1.024225 -52.46   0.00598761    1.039    0.038
         3  -9.4604    120.1050      9.1181   7.9221532546e+01   5.4199441755e+01    0.3956518    0.3336626   5.19  0.001278749    1.219    0.180
         4  -7.4457    193.2410     26.6790   7.3720097780e+01   3.3025415826e+01    0.1462759   0.09957817 -51.40 0.0001827315    1.520    0.342
         5  -8.9868    249.4272    249.8956   1.1289936747e+02  -4.1440076328e+00    0.2274153   0.09116542  31.76  0.001461135    1.782    0.439
         6  -9.7218    156.8505    248.4165   1.2737864376e+02   7.9097710483e+00    0.2295227    0.1654559 -34.97  0.000654728    1.891    0.471
         7 -18.6946     88.3027    225.1725   1.3738231975e+02   2.0088772110e+01     4.682086     3.639633  50.28   0.01566925    1.040    0.039
         8  -9.0708    181.1001    184.6483   1.1459259883e+02   1.2355260065e+01    0.3615534    0.1461942 -43.99   0.00164791    3.049    0.672
         9  -9.5764     22.9880    184.6709   1.4749606060e+02   3.4375979077e+01    0.1740216    0.1389394  82.91 0.0004739399    1.175    0.149
        10  -9.6233     19.7691    181.4935   1.4800450361e+02   3.5269892923e+01    0.2872775    0.2147592 -80.33  0.001729419    1.366    0.268
        11 -10.8501    165.8661    181.5629   1.1701137405e+02   1.5326356925e+01    0.6876879    0.3205444  48.90  0.001683079    2.205    0.547
        12  -9.7748    221.7525    177.5118   1.0613332472e+02   6.6421909209e+00    0.2640943    0.2246665 -40.30  0.001145309    1.645    0.392
        13  -8.5984     14.6582    178.6241   1.4893546907e+02   3.6265320875e+01     0.161704    0.1323278 -83.01 0.0006298117    1.309    0.236
        14  -9.7277    204.2916    174.9803   1.0869767589e+02   9.8015608522e+00     0.276893    0.2510491   3.22  0.001068422    1.198    0.166
        15  -8.7764    193.4446    172.6757   1.1025113995e+02   1.1934834495e+01     0.295862    0.1544134  36.01   0.00151268    1.677    0.404
        16 -10.6710    193.3971    166.7413   1.0918713232e+02   1.2764292211e+01    0.4776974    0.3391301 -44.13  0.001554118    1.745    0.427
        17  -9.5132    180.3561    176.1965   1.1332019978e+02   1.3668802192e+01    0.3143094    0.1495238 -34.46  0.001515908    2.426    0.588
        18  -9.6867    196.3086    176.2901   1.1036483527e+02   1.0962342693e+01    0.3729866    0.2447896  36.28  0.001391438    1.312    0.238
        19  -9.7760    176.5391    218.8332   1.2047060549e+02   8.6240196534e+00    0.3836297    0.2719533  21.89  0.002647137    1.249    0.199
        20  -8.5278     14.7323    219.4775   1.5052159100e+02   2.8994734886e+01     0.164243     0.104318  83.83 0.0007137558    1.427    0.299
        21  -8.7977    200.1137    168.0061   1.0818730264e+02   1.1429907516e+01    0.2637911    0.1719553 -45.75  0.001118915    2.010    0.502
        22  -8.5346     18.1572    214.4539   1.4973020958e+02   2.9518730014e+01    0.1627924    0.1121196  78.58 0.0005124607    1.265    0.210
        23  -9.0629    203.8258    162.5201   1.0649413758e+02   1.1529729621e+01    0.3177825    0.1971624 -37.44  0.001031443    1.797    0.444
        24  -9.4343    189.5601    158.2850   1.0832165320e+02   1.4651504337e+01    0.4623125    0.3025969 -14.93  0.002439616    1.793    0.442
        25  -8.0984    172.5118    150.4989   1.1015439429e+02   1.8972924898e+01    0.2177001    0.1841381  83.39 0.0006986617    1.683    0.406
        26  -9.3651     27.8819    146.6468   1.4398281649e+02   4.1583957334e+01    0.3371679    0.1550183 -82.27  0.001607822    2.024    0.506
        27  -8.6422      9.4860    213.0860   1.5125159077e+02   3.0517600753e+01    0.1536495    0.1108578  66.94 0.0005998855    1.081    0.075
        28  -8.9589    162.0193    145.3427   1.1130735667e+02   2.1797715067e+01    0.2243986    0.1631406  54.51  0.001181077    1.488    0.328
        29 -12.0021    136.1816    133.9840   1.1477704501e+02   2.8755462374e+01     2.435035    0.4363716 -51.20  0.001280097    9.827    0.898
        30 -10.6871    142.8656    122.3431   1.1071566819e+02   2.9679272118e+01    0.7172338    0.3657899  65.22   0.00219827    4.494    0.777
        31  -9.7454    133.0455    120.4973   1.1265441143e+02   3.1979381622e+01    0.3101164    0.1896447  38.54 0.0009920587    1.611    0.379
        32 -11.8120    134.0542    116.8749   1.1158887459e+02   3.2494146332e+01    0.7697794    0.5587496  77.86   0.00331417    1.970    0.492
        33 -11.0735     12.1412    207.4106   1.5058009275e+02   3.1251914580e+01     0.582188    0.2961323  36.24  0.003445224    1.712    0.416
        34  -8.2826    164.3090    136.3255   1.0897231531e+02   2.2896287354e+01     0.142792    0.1052082   8.25 0.0003404559    1.654    0.395
        35  -8.5533    159.8488    135.0538   1.0965906089e+02   2.3990507130e+01    0.2026338     0.187523  70.70 0.0004945627    1.248    0.199
        36 -10.2876    170.2932    193.4897   1.1801929658e+02   1.2884206136e+01    0.2989133    0.2471527 -17.59 0.0008439849    1.369    0.270
        37  -9.8799    160.7271    128.8271   1.0812486667e+02   2.4910058106e+01    0.3828705    0.2924258 -47.13  0.002023554    1.442    0.306
        38  -9.0104    219.7909    194.8418   1.0942185298e+02   4.9507145808e+00    0.1836945    0.1304586  14.65  0.001224078    1.180    0.152
        39  -9.1461    205.5188    192.0234   1.1138870587e+02   7.4720896374e+00    0.2885869    0.2328486  65.01  0.001089063    2.056    0.514
        40  -8.9292     10.2518    127.5935   1.4713246177e+02   4.7175210159e+01    0.2577472    0.1653559 -34.86  0.001525787    2.253    0.556
        41  -9.3064     16.6919    195.1824   1.4924871720e+02   3.3006486081e+01    0.5145972    0.1079252 -71.53  0.002308488    4.221    0.763
        42  -8.1427    200.3552    123.8823   9.9090134964e+01   1.7704069329e+01      0.18504    0.1586381  -4.83 0.0003291214    1.102    0.093
        43 -13.8053     67.3125    244.2425   1.4246408692e+02   1.9769742616e+01    0.2833639    0.2359247 -88.50 0.0009006381    1.436    0.304
        44 -10.2020    246.1887    114.4470   8.9517842238e+01   1.0160062798e+01    0.2488164    0.2071701  19.95 0.0003978527    1.153    0.133
        45 -11.7187    123.2863    102.4015   1.1085592277e+02   3.7557278904e+01     1.267791    0.6135049  30.15  0.004454085    3.014    0.668
        46  -9.0933    237.2339    189.5940   1.0571053501e+02   2.9202234687e+00    0.1680619   0.08602933  29.78 0.0009566223    1.661    0.398
        47 -11.9963     64.4879    108.9095   1.2917562430e+02   4.6038295775e+01    0.9523137    0.7586805 -13.41  0.004613468    1.720    0.418
        48  -7.7252    192.4100    101.4383   9.5172618065e+01   2.2797582020e+01    0.1422961    0.1322703   1.24 0.0001143759    1.010    0.010
        49 -10.0910     71.0277    103.9764   1.2625178972e+02   4.6279386465e+01    0.3628673    0.2616243 -74.90  0.001421951    1.414    0.293
        50  -9.8530    112.4667     99.9200   1.1315040347e+02   4.0203507116e+01    0.5736812    0.2165508  49.59  0.001791847    2.936    0.659
        51  -9.6765    249.1794    229.0918   1.1006175907e+02  -2.4430342890e+00    0.2010502    0.1219457 -26.12  0.001155148    1.894    0.472
        52  -8.5327    248.9233     94.9700   8.4706162318e+01   1.2033475249e+01    0.1987861    0.1513879 -55.18 0.0008189034    1.713    0.416
        53  -7.8256     82.9820     95.0257   1.2062488858e+02   4.6515364785e+01    0.1712102    0.1511366  44.18 0.0004299322    1.164    0.141
        54 -11.3906    118.5260    110.0244   1.1394990044e+02   3.6920587455e+01    0.5044093    0.4000089 -65.82  0.002440008    1.401    0.286
        55  -8.8613    176.6353    228.0072   1.2164163967e+02   7.5203301840e+00    0.3118483    0.1238981  38.89  0.001678428    1.904    0.475
        56  -8.5682     78.0979     90.4496   1.2109228831e+02   4.8328016895e+01    0.3310826    0.1427111  30.92  0.001257288    2.803    0.643
        57  -8.1390    140.1383     82.8616   1.0126084493e+02   3.7797090425e+01    0.2090344    0.1794413   6.73 0.0004675865    1.302    0.232
        58 -11.9369    143.0012     65.7323   9.5342320554e+01   4.0229371266e+01     1.142762    0.8454523 -31.53  0.003296178    1.362    0.266
        59  -9.3820    160.1882     57.9491   8.9077148862e+01   3.7297761258e+01    0.2550826    0.2255316  56.91 0.0005185955    1.146    0.127
        60  -9.1499    164.9024    188.5408   1.1829502139e+02   1.4459021752e+01    0.2656908    0.1810783  32.72  0.001170598    1.241    0.194
        61 -11.2738    155.0901     41.9630   8.4784054968e+01   4.0982341982e+01    0.5595616    0.5561755 -71.06   0.00075326    1.035    0.034
        62  -8.5700    198.0192     53.0714   8.0972296966e+01   2.8575886365e+01    0.2080515    0.1961509 -11.68            0    1.037    0.036
        63  -9.7304    137.9022     44.1025   8.9178890627e+01   4.5041297735e+01    0.2645993    0.2375786  42.28 0.0003647459    1.100    0.091
        64  -9.4400    169.9430    238.2630   1.2403591337e+02   7.2812594475e+00    0.2390068    0.1650952 -49.06  0.001012209    2.101    0.524
        65 -10.3198    146.1295     20.1945   7.8615606241e+01   4.6157206438e+01    0.2881857    0.2678632  18.54 0.0004195656    1.093    0.085
        66  -8.1189    197.3408    187.6469   1.1211121446e+02   9.3116476570e+00    0.1547769    0.1373524  62.05 0.0005121146    1.624    0.384
