#   1 NUMBER                 Running object number                                     
#   2 MAG_AUTO               Kron-like elliptical aperture magnitude                    [mag]
#   3 X_IMAGE                Object position along x                                    [pixel]
#   4 Y_IMAGE                Object position along y                                    [pixel]
#   5 X_WORLD                Barycenter position along world x axis                     [deg]
#   6 Y_WORLD                Barycenter position along world y axis                     [deg]
#   7 A_WORLD                Profile RMS along major axis (world units)                 [deg]
#   8 B_WORLD                Profile RMS along minor axis (world units)                 [deg]
#   9 THETA_WORLD            Position angle (CCW/world-x)                               [deg]
#  10 FWHM_WORLD             FWHM assuming a gaussian core                              [deg]
#  11 ELONGATION             A_IMAGE/B_IMAGE                                           
#  12 ELLIPTICITY            1 - B_IMAGE/A_IMAGE                                       
         1 -11.0231     20.9241     17.9035   9.0693806904e+01   7.0244226121e+01    0.4899405    0.3988475 -48.30  0.002837562    1.555    0.357
         2 -11.7259     11.4796      2.5149   8.8265628182e+01   7.3460351953e+01     0.326166    0.1920123   3.02  0.001288142    1.675    0.403
         3 -11.8425     18.0745     30.0571   9.7182919790e+01   6.8410969246e+01    0.7469285    0.3642805 -17.78  0.003228558    2.555    0.609
         4 -10.9425     61.9911     16.3531   7.1475662379e+01   6.5011555401e+01     0.407747    0.2327988   8.01  0.001429809    2.223    0.550
         5 -11.4932     60.6631     23.7251   7.5412112479e+01   6.4244511830e+01    0.4440665    0.2558469 -44.35  0.002254254    2.103    0.525
         6 -12.3916    128.8350     22.3798   5.4867934747e+01   5.0257260600e+01    0.5320627    0.4623261  21.20  0.001125806    1.165    0.142
         7 -11.1067    103.7487     21.5089   6.0457243875e+01   5.6192317822e+01    0.4810458    0.3182075  34.73  0.001934471    1.447    0.309
         8 -11.6678     22.8810      7.9890   8.4876285960e+01   7.1551829438e+01    0.4527199    0.2930056 -46.42  0.001828028    1.950    0.487
         9 -10.4512    120.0869     21.8870   5.6600113114e+01   5.2407365069e+01    0.4793169    0.2556702  -6.35  0.001987381    2.580    0.612
        10 -11.2777     94.5608     23.7419   6.3924286053e+01   5.7908158258e+01    0.6969753    0.3353473  53.33  0.003117082    2.057    0.514
        11 -11.7072    170.8214     19.0310   4.6459219150e+01   4.0076835342e+01    0.3161861    0.2842313 -32.70 0.0002294513    1.201    0.168
        12 -11.2075    165.9724     16.3488   4.6333926863e+01   4.1598261936e+01     0.290774    0.2577572  55.19 0.0007681345    1.109    0.098
        13 -11.1654     42.0978     19.8355   8.1392749296e+01   6.7535431762e+01      0.43636    0.2779361  21.28  0.001336403    1.558    0.358
        14 -11.3297     31.0091     13.1913   8.3387123999e+01   6.9892099696e+01    0.3887575    0.1774308 -25.43 0.0004880232    2.192    0.544
        15 -11.4520     35.7081     14.9854   8.2010023160e+01   6.9063557677e+01    0.3000302    0.1864915  24.65 0.0003505808    1.595    0.373
        16 -12.0267     40.4002     11.0221   7.7854399798e+01   6.8997181408e+01    0.3485471    0.3402523  36.66 0.0003192184    1.637    0.389
        17 -10.2513      5.0588     13.2936   9.7143749922e+01   7.2297032332e+01    0.2001226    0.1228653 -41.63 0.0005573027    1.290    0.225
        18 -11.6489      3.9170     18.1155   9.9793486374e+01   7.1551606322e+01    0.3688973    0.2543021  -1.80   0.00261024    1.455    0.313
        19 -10.7618      9.8865     15.9666   9.5653388616e+01   7.1503696684e+01    0.2680613    0.1432561 -26.78  0.001222632    1.609    0.379
        20 -12.0908     76.2883     15.0819   6.5801625879e+01   6.2596655912e+01    0.5194742    0.3697863  -2.28  0.002398884    1.374    0.272
        21 -10.7533     70.2355     15.7701   6.8184916576e+01   6.3640826158e+01     0.585767    0.2380063 -16.43  0.001349899    3.548    0.718
        22 -10.5519     73.6637      9.5436   6.4091475742e+01   6.3706073211e+01    0.4860189     0.183546 -18.97  0.001962544    3.082    0.676
        23 -10.4360     74.1966      3.1972   6.0893845012e+01   6.4233418602e+01    0.3111406    0.2452206 -60.62  0.001336124    2.022    0.505
        24 -11.0688     55.0560     12.4661   7.2303322906e+01   6.6635924853e+01    0.4132161    0.2148114 -37.61  0.001587077    2.083    0.520
        25 -11.3093    131.4828     10.7444   5.0116468755e+01   5.0809580147e+01    0.5426711    0.3749525  85.04      0.00278    1.683    0.406
        26 -10.3795    117.3728      9.1516   5.2317013701e+01   5.4348494508e+01    0.3087286     0.172847 -36.69  0.001144306    1.988    0.497
        27 -10.4361     99.8893     12.4891   5.7743424620e+01   5.8018183869e+01    0.2625364    0.1804458  26.65 0.0008061238    1.423    0.297
        28 -11.9034    235.2990      9.6387   3.7129940156e+01   2.5378804184e+01    0.3590983    0.1967297  83.22  0.001876237    1.768    0.434
        29  -9.6837     50.3480     11.3615   7.3681288967e+01   6.7510898435e+01     0.279732    0.1479176  -3.25  0.001250241    2.568    0.611
        30  -9.5547     42.4116      7.4997   7.5133045279e+01   6.9166185389e+01    0.1965663    0.1089905  39.46 0.0007446686    1.880    0.468
        31 -10.2716      6.4840      8.2067   9.4012859863e+01   7.3018450632e+01    0.1644164    0.1534223 -22.27 0.0005511618    1.503    0.335
        32  -9.9883    122.0604      6.8459   5.0482060319e+01   5.3442537198e+01    0.3267548    0.1870419 -44.22  0.001569418    2.096    0.523
        33 -11.2993     92.6911      5.5239   5.6633851526e+01   6.0243695685e+01     0.428658    0.2416301  19.08  0.002086474    2.018    0.505
        34 -10.5478     81.1707      6.4550   6.0286349451e+01   6.2550246578e+01    0.2081515    0.1626578  -6.88 -5.433311e-06    1.244    0.196
        35  -9.5103     67.4509      7.5497   6.5240447672e+01   6.5071620015e+01     0.128487    0.1019586  15.02 6.931788e-05    1.058    0.055
        36 -10.0794    164.9464      5.6837   4.3203181179e+01   4.2902152208e+01    0.1941756    0.1608783  76.05 0.0007019298    1.085    0.078
        37 -11.4810    241.0173      2.4460   3.5102683912e+01   2.4875078159e+01    0.5153877    0.1983398 -68.11   0.00208071    3.109    0.678
        38 -11.1331    236.8721      2.2761   3.5356555253e+01   2.5813188939e+01    0.2842515    0.2044706 -53.62  0.001769567    1.202    0.168
        39  -9.3352    175.4774      5.5650   4.1858289293e+01   4.0254214123e+01    0.1343805    0.1185708  79.98 3.606439e-05    1.014    0.013
        40  -9.9887    118.5217     12.5215   5.3371229103e+01   5.3759072261e+01    0.2252279    0.1341603 -15.27 0.0004924118    1.865    0.464
        41 -11.9187     31.6324      2.0752   7.7263015658e+01   7.1299142140e+01    0.2503703    0.1786015   6.34 0.0008994523    1.174    0.149
        42 -11.3395     26.1405      2.9978   8.0529848390e+01   7.1862293213e+01    0.2531358    0.2023384  32.30  0.001233834    1.614    0.381
        43 -10.5445    112.8875      2.6215   5.0702162934e+01   5.5964559498e+01    0.2221739    0.1878252 -62.70 0.0004556477    1.459    0.314
        44 -10.8665    146.1653      7.5615   4.6493390096e+01   4.7464242811e+01    0.2878095    0.2546574 -59.83  0.001517422    1.228    0.186
        45  -9.5962    180.2935      7.3726   4.1812129227e+01   3.8869726671e+01    0.1379947   0.09497098  37.01 6.174117e-05    1.731    0.422
        46 -10.9021     17.5810      6.1210   8.6743630660e+01   7.2365202173e+01    0.2728316     0.195689 -36.44 0.0009335044    1.409    0.290
        47 -10.3668    175.4662    202.7477   9.2511866759e+01   6.2863489496e+00    0.2468554    0.1953524  48.92 0.0005496376    1.283    0.220
        48 -10.6200    249.9911    246.7018   8.6150060589e+01  -1.1477737052e+01     0.215643    0.1406413  -8.96  0.001466409    1.397    0.284
        49 -10.0881     72.6509    250.0791   1.1864792896e+02   1.4339317970e+01    0.1692527    0.1507457  26.37  0.001260335    1.605    0.377
        50 -12.6518     29.0703    248.2194   1.2596650174e+02   1.9998206460e+01     1.265063    0.3737757  67.83  0.005046168    4.535    0.779
        51 -10.6714      5.5548    235.3172   1.2919514618e+02   2.4764650391e+01    0.3169508    0.1597317  57.54  0.001719628    1.468    0.319
        52 -13.3012      6.1291    244.7647   1.2950231560e+02   2.3006876023e+01     1.000039     0.692007  32.17  0.005995507    1.952    0.488
        53 -12.0706     22.0627    248.9213   1.2714408866e+02   2.0638203748e+01    0.4086987    0.2047095  49.94  0.001903321    1.522    0.343
        54 -10.7497     17.5047    247.4835   1.2780948619e+02   2.1373486818e+01    0.1822963    0.1402415  83.53 0.0005396442    1.243    0.196
        55  -9.1101    243.3004    202.3033   7.9594514333e+01  -5.1156736882e+00     0.128467    0.0831373   3.96 0.0002393925    1.589    0.370
        56  -9.4095    223.5943    201.7851   8.3008274370e+01  -1.9048428500e+00    0.1647923    0.1175626 -42.97 0.0005361547    1.682    0.406
        57  -9.5737      9.7895    202.3947   1.2680302850e+02   3.0758867557e+01    0.1285586    0.1051503  31.75 0.0009488598    1.656    0.396
        58  -9.7503     37.9362    217.4931   1.2250418555e+02   2.4767811546e+01    0.1616799    0.1003107  42.32 0.0007219901    1.559    0.359
        59  -9.6227     34.3094    201.5172   1.2201074010e+02   2.8448709688e+01    0.1306402    0.1119498  37.66 0.0009164579    1.479    0.324
        60 -10.4130     19.6733    200.6739   1.2481712201e+02   3.0162533515e+01    0.2193375    0.1196196 -57.38  0.001005117    2.165    0.538
        61 -10.1503    215.4974    194.9017   8.3213931650e+01   4.9680176178e-01    0.1885093    0.1245059 -31.45 0.0004075661    1.522    0.343
        62  -9.6706    211.3198    188.4966   8.2771095047e+01   2.2412902590e+00    0.2379547    0.1541733 -12.92 0.0009120157    1.818    0.450
        63  -9.1775      1.6011    188.2109   1.2754628643e+02   3.4438655470e+01    0.1503906   0.08201679 -74.10 0.0005114147    1.554    0.356
        64 -11.0065     16.5073    183.5002   1.2425510857e+02   3.4131180389e+01    0.2919046    0.1824233  84.29  0.001840506    1.295    0.228
        65 -10.3082     15.3217    180.6821   1.2429464528e+02   3.4856822268e+01    0.2019397    0.1370561  67.68 0.0009832236    1.251    0.200
        66 -10.0258    167.1452    183.6234   9.0781600363e+01   1.1296316098e+01    0.2097946    0.1257919  31.85 0.0008114736    1.726    0.421
        67  -9.4743     58.8164    182.1724   1.1499561835e+02   2.9745538668e+01    0.1635053     0.147323 -61.50 0.0006090013    1.316    0.240
        68  -9.3290      1.7067    180.3325   1.2705772360e+02   3.6110567999e+01    0.1209174   0.06321239  69.93 0.0004000128    1.635    0.389
        69 -10.1569    244.2729    178.3476   7.4766802878e+01  -1.8494126876e+00    0.2420758     0.140314 -21.00 0.0009305877    1.720    0.419
        70 -10.4279    224.0533    178.4436   7.8380088242e+01   1.5974095851e+00    0.2383045    0.1851446 -36.03 0.0004474623    1.332    0.249
        71  -8.9335     36.3251    178.3184   1.1959690771e+02   3.3281810064e+01    0.1163411   0.08832324 -48.70  0.000704533    1.675    0.403
        72  -9.4629     70.1860    177.6125   1.1185428806e+02   2.9260203194e+01    0.1636107    0.1271809  25.44 0.0005626149    1.625    0.385
        73  -9.9932     46.5012    177.2306   1.1722249160e+02   3.2378738682e+01    0.2276077    0.1678877  45.85  0.001394412    1.382    0.276
        74  -9.8658    200.5629    176.2544   8.2423939044e+01   6.2710461589e+00    0.1953621    0.1292846 -24.79 0.0009444936    1.623    0.384
        75 -11.1909     18.0415    173.2256   1.2314380415e+02   3.6258282911e+01    0.3270418    0.1829263  65.95  0.001871516    1.644    0.392
        76  -9.6020      4.6942    168.6645   1.2567206676e+02   3.8421008212e+01    0.1120937    0.0742273 -57.18 0.0003789215    1.670    0.401
        77 -12.0264     37.2441    163.1634   1.1785067986e+02   3.6656083155e+01    0.5407675    0.4368526 -65.90   0.00329663    1.248    0.199
        78 -11.7186     36.8920    157.8141   1.1734281091e+02   3.7945606298e+01    0.2475809    0.1864108 -89.19 0.0002897416    1.123    0.109
        79  -9.6290     67.1855    165.1747   1.1091112118e+02   3.2552569260e+01    0.1945501    0.1412766  71.89 0.0008968073    1.359    0.264
        80 -11.7748     51.0442    162.6458   1.1449330693e+02   3.5214428204e+01    0.6322424    0.4261831  72.55  0.003151994    1.466    0.318
        81 -10.7376     44.6755    162.4689   1.1600471743e+02   3.5999938071e+01    0.3394649    0.1642406 -73.92  0.001629666    1.859    0.462
        82  -9.2097    200.4815    162.5822   7.9575500532e+01   8.7216213161e+00     0.141901    0.1344868   7.02  0.000207669    1.053    0.050
        83 -11.8229     21.9935    157.1413   1.2082982171e+02   3.9563573627e+01    0.4659618    0.4389807  86.79  0.003388196    1.260    0.206
        84  -9.6872    247.6343    158.3035   7.0045105260e+01   6.3662331260e-01    0.1251704    0.1063697 -67.35 0.0007035751    1.739    0.425
        85 -10.2272     11.7719    153.4454   1.2288859336e+02   4.1294854009e+01    0.2400906    0.1236721  22.16  0.001292972    2.597    0.615
        86 -10.2779    178.0107    151.4491   8.1786959547e+01   1.5421777756e+01    0.2750625    0.2538756 -72.56 0.0009688336    1.238    0.193
        87 -11.6153     11.7407    145.6158   1.2218165210e+02   4.3109084993e+01    0.3936317    0.2607946  58.53  0.002233466    1.512    0.339
        88 -10.2088    207.1342    146.2220   7.4638323310e+01   1.0362100207e+01    0.2239631    0.1935317   7.28 0.0007351448    1.178    0.151
        89  -9.6778    220.4589    143.9784   7.1624485436e+01   8.0703202173e+00    0.2172715    0.1329059 -36.55 0.0006710637    1.534    0.348
        90 -10.5059      2.7705    143.5593   1.2416530999e+02   4.4246228833e+01    0.2335674    0.1298254 -76.23  0.001376918    1.382    0.277
        91  -9.9554     49.4360    141.8936   1.1211133169e+02   4.0366138496e+01    0.1996189    0.1727474 -45.98  0.000313947    1.316    0.240
        92 -10.5279     19.6035    140.2369   1.1967599670e+02   4.3733968397e+01    0.2444638    0.1014194 -77.21  0.001127148    2.073    0.518
        93 -10.2172     15.1601    140.0027   1.2077779842e+02   4.4152114789e+01    0.2690663    0.1299382  11.33  0.001259009    3.463    0.711
        94 -11.1732      9.0743    137.9254   1.2210126907e+02   4.5102941165e+01    0.3889075    0.1376689 -74.42   0.00103486    2.216    0.549
        95 -10.1574     57.2258    138.7294   1.0953954139e+02   4.0197908409e+01    0.2871305    0.1850577  56.95 0.0006891293    1.686    0.407
        96 -10.6826      3.2489    136.0102   1.2337963995e+02   4.5956751941e+01    0.4515593    0.1526717 -56.67  0.002091702    2.564    0.610
        97 -10.7289     21.9605    135.9970   1.1858760953e+02   4.4540104575e+01     0.259786    0.1851204  49.55   0.00160312    1.514    0.340
        98  -9.4042    122.5569    135.4833   9.1313772296e+01   3.0382953818e+01    0.1514977    0.1471728 -68.37 8.806551e-05    1.014    0.014
        99 -10.1744    249.7254    134.0115   6.4418807203e+01   4.1130101238e+00    0.1966169    0.1594793 -26.85 0.0005779957    1.070    0.065
       100 -10.2073    107.2531    133.2777   9.4856561966e+01   3.3806467419e+01    0.2545678    0.2330575 -12.71  0.001356708    1.266    0.210
       101  -9.8366     79.5841    133.2092   1.0241621736e+02   3.8459984500e+01    0.1966112    0.1244309 -50.69 0.0003509395    1.517    0.341
       102 -10.1925     55.3870    132.9821   1.0910912787e+02   4.1825228896e+01    0.2926125    0.1756882  44.81  0.001416853    1.783    0.439
       103 -11.2165     37.7404    130.5616   1.1362699740e+02   4.4380905431e+01    0.4884724    0.2859542  20.78    0.0020826    2.245    0.555
       104 -10.7256     38.2703    127.0220   1.1295448617e+02   4.5184762696e+01    0.2040821    0.1881442 -30.13 0.0003408474    1.315    0.239
       105 -10.8775     74.1553    129.5180   1.0321984051e+02   4.0164155110e+01    0.2812657     0.253378  72.07  0.000889385    1.138    0.121
       106  -9.0323      9.3244    129.2991   1.2115495014e+02   4.7105667256e+01    0.1211061   0.07609211 -50.32 0.0002983669    1.630    0.387
       107 -10.6504     13.9728    126.0045   1.1954481682e+02   4.7547088088e+01    0.2884544    0.2145624  34.80  0.001786502    1.610    0.379
       108 -11.5134     10.4759    122.8265   1.2012733359e+02   4.8548683637e+01    0.3175596    0.2584432 -33.14  0.002145188    1.525    0.344
       109 -11.2046      2.2837    124.2871   1.2249408477e+02   4.8744286800e+01    0.3932019    0.1392539 -67.30  0.001512874    2.045    0.511
       110  -9.3465    113.6676    129.7003   9.2334087906e+01   3.3451600704e+01    0.1522892    0.1220464 -10.67  0.000343783    1.649    0.394
       111 -10.1344    219.9819    124.2889   6.7121705477e+01   1.1642083881e+01    0.2005493    0.1912261  -7.46 0.0005115161    1.053    0.050
       112 -10.7112     21.5611    121.1873   1.1683852006e+02   4.8106693757e+01    0.1865278    0.1802062  24.19 -2.259529e-06    1.312    0.238
       113 -11.1391     24.7181    108.3725   1.1403857929e+02   5.0912789156e+01    0.3603797    0.2022262  60.62  0.001791623    2.299    0.565
       114 -11.9697     13.2131    104.0000   1.1689271947e+02   5.2803193710e+01    0.3535503    0.2435083  36.01    0.0021955    1.745    0.427
       115 -11.4930     17.4248    114.7248   1.1714803306e+02   4.9968015785e+01     0.336996    0.2295851 -57.00   0.00108944    1.282    0.220
       116 -12.4465     15.0163    109.0495   1.1706994988e+02   5.1488135055e+01    0.5690523    0.3845291 -39.95   0.00271802    1.609    0.378
       117  -9.8263    219.9084    116.8433   6.5342457240e+01   1.2975127142e+01     0.252767    0.2095646  59.80  0.001332283    1.362    0.266
       118 -10.0726    249.8203    118.6093   6.0936371946e+01   6.5801738139e+00    0.1733248    0.1354297  69.72 0.0009415481    1.671    0.401
       119  -9.0521    179.3219    116.6801   7.3119702579e+01   2.2104806268e+01     0.159064    0.1244481 -77.57 0.0007044528    1.671    0.402
       120  -9.0260    201.2756    117.3182   6.8854598205e+01   1.6983705618e+01    0.1511007    0.1179505   1.12 0.0004755454    1.571    0.363
       121 -10.7533     35.6453    102.7652   1.0965886337e+02   5.1290220825e+01    0.3032613    0.2309379  -5.52  0.001332816    1.697    0.411
       122 -11.7966     36.0129    108.9867   1.1067471440e+02   4.9765543837e+01    0.4293184    0.2695392  79.71  0.001441378    2.027    0.507
       123 -10.6683    248.9612    112.1704   5.9591437304e+01   7.7882995213e+00    0.2164588    0.1746223 -52.24 0.0007908696    1.286    0.222
       124 -12.7387     55.2781    110.3260   1.0497622884e+02   4.7353208208e+01    0.3023275    0.2604832 -60.54 0.0004385306    1.017    0.017
       125  -9.5787    103.7173    107.9752   8.9796470540e+01   4.0407566099e+01     0.212677     0.184271 -49.37  0.000195592    1.097    0.089
       126  -9.8943     91.5113    108.0243   9.3389370776e+01   4.2588903433e+01    0.2216507    0.1390392 -51.49 -0.0001009154    1.486    0.327
       127 -10.4795     61.9332    106.8798   1.0217860989e+02   4.7343422988e+01     0.222394    0.1726503 -36.22 0.0008251474    1.354    0.262
       128  -9.5650      2.8251    112.5989   1.2107813087e+02   5.1437687539e+01    0.1803932    0.1363897  77.07 0.0005929586    1.325    0.245
       129 -10.9402    243.9202    104.3416   5.8514365500e+01   1.0066627748e+01    0.2651986    0.1863027 -20.21 0.0007047512    1.507    0.337
       130 -10.8674    247.1562    102.1670   5.7538923396e+01   9.7637793749e+00    0.2549267    0.1880098  63.29  0.001067354    1.610    0.379
       131  -9.6704    223.3092    103.9765   6.1621222907e+01   1.4484459985e+01     0.212102    0.1716049 -36.26 0.0004487631    1.133    0.118
       132 -12.0506      3.0092    106.4570   1.2029077176e+02   5.2858673071e+01    0.3608933    0.2781141 -75.19  0.001008463    1.030    0.029
       133 -11.1381    162.2401     99.6249   7.2300626710e+01   2.9512511102e+01    0.5598288    0.3261813 -35.74  0.002265429    1.740    0.425
       134  -9.9740    119.3140    101.9780   8.3770034978e+01   3.8682567716e+01    0.2321055    0.1977723 -38.59  0.001156884    1.152    0.132
       135 -11.9922      3.1238     99.6621   1.1938351219e+02   5.4431169450e+01    0.4225016    0.2366967  84.43 0.0005330072    1.941    0.485
       136 -11.2176    145.3696     98.1322   7.5865891507e+01   3.3771333730e+01    0.6670445    0.4282923  48.91  0.002858469    1.587    0.370
       137  -9.8088     91.4780    100.5088   9.1462363407e+01   4.4343583697e+01     0.149207    0.1390395 -45.77 4.446595e-05    1.007    0.007
       138 -11.1836     62.2790     98.6287   1.0018300095e+02   4.9261516046e+01    0.3216178    0.3137706  35.31 0.0008934063    1.156    0.135
       139 -11.7864     17.3342     98.1392   1.1470021269e+02   5.3897020231e+01    0.2916793    0.2155553  77.82  0.001788553    1.511    0.338
       140 -11.4342     20.4223     95.8775   1.1332401241e+02   5.4204081587e+01    0.5089388    0.2037877 -75.14  0.002134143    2.599    0.615
       141  -9.8342     35.3775    114.2318   1.1176676681e+02   4.8563486232e+01    0.2721504    0.1638065 -86.36  0.001358808    1.818    0.450
       142  -9.9905    250.1460     95.8575   5.5655555818e+01   1.0169767644e+01    0.2123303    0.1691163 -52.48 0.0006131451    1.224    0.183
       143 -10.8920     66.8448     97.4767   9.8426803395e+01   4.8912473356e+01    0.4727433    0.1676841 -52.39   0.00170244    2.424    0.587
       144  -9.0734     27.9875     95.9722   1.1086532461e+02   5.3584152815e+01    0.1487816    0.1207605 -61.53 0.0009299618    1.005    0.005
       145  -9.3018     77.2426     94.9426   9.4431709204e+01   4.7971215838e+01    0.1930571    0.1141386 -53.39 0.0004146205    1.560    0.359
       146 -10.9881    162.5134     92.4121   7.0206630122e+01   3.0868846050e+01    0.3203304    0.2684642 -13.08 0.0005316255    1.347    0.258
       147 -11.6340    158.3227     90.1910   7.0513719178e+01   3.2308683282e+01    0.5203265    0.3158212 -28.96  0.002106742    1.836    0.455
       148 -12.5671    164.3578     85.0965   6.7693161267e+01   3.1818812577e+01     1.248659    0.6905807  57.62  0.001824728    1.925    0.480
       149 -10.9315     25.7612     91.2682   1.1071345283e+02   5.4870018790e+01    0.2909878    0.2413193 -10.67  0.001562449    1.443    0.307
       150 -11.0861     22.8811     86.9394   1.1085341418e+02   5.6101578447e+01     0.309099    0.1894468 -48.02  0.000891044    1.396    0.284
       151 -11.4699     11.3493     90.9782   1.1547391469e+02   5.5964005947e+01    0.3929662    0.2395948  39.48  0.001498501    2.001    0.500
       152  -9.7780    127.5164     92.5154   7.8830922922e+01   3.8972016387e+01    0.1552431     0.150978 -26.62 2.857429e-05    1.009    0.009
       153 -10.8169    103.9914     91.8132   8.5276365148e+01   4.4000101355e+01    0.2974172    0.2037753 -44.24            0    1.390    0.281
       154  -9.5271     47.5976     91.5735   1.0338718709e+02   5.2707684306e+01    0.2878267   0.07271627 -48.22 0.0009519473    3.359    0.702
       155 -10.0056    109.3583     91.2969   8.3548287896e+01   4.3054706141e+01     0.157052    0.1203525  -1.05 0.0007033872    1.703    0.413
       156  -9.4441     37.2602     91.6003   1.0689417072e+02   5.3775496134e+01    0.1665063    0.1243979  -3.67  0.000947061    1.680    0.405
       157  -9.4623    135.4662     90.4922   7.6145054619e+01   3.7614005212e+01    0.1566535    0.1511871 -11.43 0.0004652342    1.045    0.043
       158 -10.3451    112.3483     86.1681   8.1153961061e+01   4.3541422030e+01    0.3743079    0.1771109 -49.69  0.001391118    2.206    0.547
       159 -11.1095     67.1571     84.8532   9.5030387663e+01   5.1771901596e+01    0.3555252    0.2319606 -29.69 0.0009746733    1.711    0.416
       160 -11.5560      4.4787     85.0158   1.1679999650e+02   5.7729222129e+01    0.5946267    0.2436702 -65.20  0.002529126    1.788    0.441
       161 -12.3643      6.4109     73.6180   1.1412834173e+02   6.0199877753e+01    0.7567803    0.5332282   7.08  0.004941319    1.778    0.438
       162 -12.6618     16.4118     67.9429   1.0918352677e+02   6.0855215996e+01    0.6527935    0.2162052 -58.54  0.002928399    2.202    0.546
       163 -11.4898     21.3754     66.3475   1.0688088083e+02   6.0852654237e+01    0.4050572    0.3048322  77.92  0.001806631    1.852    0.460
       164 -11.0991     13.1293     81.2166   1.1315133576e+02   5.8094486904e+01    0.2797337    0.1858356 -87.42 0.0006314316    1.669    0.401
       165 -10.6911     12.5116     77.5697   1.1267339674e+02   5.8959891075e+01    0.2235768    0.1772916 -69.30 0.0005896234    1.142    0.124
       166 -10.6806     87.8395     83.1846   8.7714755541e+01   4.8859384420e+01    0.3424053     0.222831 -66.54 0.0006015203    2.068    0.516
       167 -10.6295     43.9333     83.0714   1.0262541407e+02   5.5070511977e+01    0.4173689    0.2055376  38.71  0.001795979    2.373    0.579
       168  -9.2298    112.5937     94.5691   8.3565694564e+01   4.1690511368e+01    0.1516608    0.1447388 -40.71  5.68465e-05    1.013    0.013
       169  -9.4255     51.6431     93.7288   1.0252786271e+02   5.1741081729e+01     0.137799   0.09573019 -28.45 0.0002049883    1.643    0.391
       170 -10.1729    132.9920     83.1288   7.4568389739e+01   3.9663020097e+01    0.2316695    0.2227317 -60.65 0.0006484497    1.080    0.074
       171  -9.3630    117.5293     83.5300   7.8872420519e+01   4.3002877598e+01    0.1527391    0.1472103 -22.06 5.599821e-05    1.004    0.004
       172 -11.0020     75.3831     82.8010   9.1679354847e+01   5.1002170798e+01    0.3014446    0.2600082  86.11  0.001648735    1.465    0.318
       173 -11.0203     31.2530     81.3199   1.0672479687e+02   5.6705491913e+01    0.4367693    0.2047424 -37.46  0.001821987    2.273    0.560
       174 -10.6629     31.3932     93.0314   1.0916669244e+02   5.3982059852e+01    0.2252554    0.1773826  77.92 0.0004877674    1.493    0.330
       175  -9.3075    146.3112     81.6422   7.0789836263e+01   3.6838652321e+01    0.1636281    0.1232531 -73.06  0.000704299    1.738    0.425
       176 -10.4091     21.6994     81.0187   1.1007377837e+02   5.7550442017e+01    0.3159782    0.1661992 -21.70  0.001370344    2.629    0.620
       177 -11.4905     20.6182     77.6699   1.0975919518e+02   5.8390669819e+01    0.4439229    0.2650714 -34.44  0.001638321    1.706    0.414
       178  -9.9771    112.0965     79.1489   7.9056785077e+01   4.5043597248e+01    0.2081064    0.1783667 -63.04 0.0006763674    1.315    0.240
       179 -10.5607     54.4478     74.0283   9.6437292770e+01   5.5874494692e+01    0.3068908    0.2093292 -56.58  0.001630867    1.394    0.282
       180 -11.8910     58.7494     74.7649   9.5098319298e+01   5.5160572498e+01    0.6798735    0.4255124 -59.10   0.00292495    1.632    0.387
       181 -11.4452     62.3201     71.5875   9.2867510530e+01   5.5362342442e+01    0.2908889    0.2724224 -79.61 0.0005646025    1.282    0.220
       182 -10.7950     91.2186     76.6796   8.4631695809e+01   4.9640322692e+01    0.4476772    0.3270372 -54.78  0.002207062    1.457    0.314
       183 -12.2048     45.1129     75.3612   1.0021703100e+02   5.6678553161e+01    0.3329778    0.2668382  48.91 0.0004866465    1.551    0.355
       184 -12.7327    149.9487     72.1468   6.7019675728e+01   3.7722522756e+01    0.4350744    0.3593493  39.10 0.0005151406    1.245    0.197
       185 -11.8711    101.7169     72.2397   7.9918272160e+01   4.8545287458e+01    0.4473323    0.3387691  77.77  0.002067538    1.978    0.494
       186  -9.7031    128.9224     71.6987   7.2032468348e+01   4.2798767514e+01    0.2091662    0.1897863  45.87 0.0003160981    1.112    0.101
       187 -10.8284     77.1683     70.9960   8.7467741644e+01   5.3245921589e+01    0.4961432    0.3328696 -86.53  0.001913395    3.407    0.707
       188 -10.1057     38.6890     72.4155   1.0181085969e+02   5.8006037111e+01    0.2320658    0.1712946 -40.05 0.0005570445    1.182    0.154
       189 -10.5413     36.8445     68.4119   1.0143046799e+02   5.9066166808e+01    0.3410992    0.2262313 -38.01  0.001734425    1.345    0.256
       190 -11.3112    167.5639     69.9937   6.2559072615e+01   3.3738891115e+01    0.2658706    0.2191969  57.35 0.0004481693    1.215    0.177
       191 -11.4235     49.9673     68.3864   9.6441079708e+01   5.7642550114e+01     0.381716    0.2809332  -8.84  0.001588609    1.552    0.356
       192 -10.6778     50.9985     63.7155   9.4624998846e+01   5.8504176496e+01     0.339535    0.1983394 -49.19  0.000807817    1.501    0.334
       193 -11.8110     46.3957     57.4315   9.4404138733e+01   6.0349458404e+01    0.4385532    0.3214445  47.26  0.001106343    1.804    0.446
       194 -10.8146     31.0598     67.8950   1.0351635841e+02   5.9721281278e+01    0.4066891    0.2079364 -37.86   0.00203071    1.852    0.460
       195  -9.7192    137.6562     74.1382   7.0583314304e+01   4.0310511165e+01    0.2471905    0.1943332 -56.87 0.0006854865    1.413    0.292
       196 -11.4034     94.1983     66.1592   8.0231201366e+01   5.1201148750e+01    0.6445075    0.2559561 -41.52  0.002397978    2.409    0.585
       197 -10.5365     68.7139     67.0873   8.9158731464e+01   5.5379560775e+01    0.3959155    0.1667755 -44.98  0.001406426    2.132    0.531
       198  -9.9228    180.2921     67.5692   5.9382478919e+01   3.0955811698e+01     0.228871     0.182008 -26.85   0.00112113    1.318    0.241
       199 -11.3574      5.2994     58.9620   1.1152215367e+02   6.3466613419e+01    0.3519236    0.2478648 -73.21 0.0003882035    1.404    0.288
       200 -10.3993      6.8011     67.8614   1.1284772544e+02   6.1454743083e+01    0.2105277    0.1462952 -34.75 0.0006142301    1.387    0.279
       201 -11.8268      3.0397     64.2421   1.1355196467e+02   6.2439985391e+01    0.3718591    0.2925827 -74.93  0.001537174    1.262    0.208
       202 -10.6212     77.3261     64.2930   8.5202193759e+01   5.4579602431e+01    0.3550324    0.2483655 -44.90  0.001739409    1.361    0.265
       203  -9.3880    150.4763     64.5227   6.4509026490e+01   3.8926185121e+01     0.235956    0.1389832  43.76 -9.969539e-07    1.753    0.430
       204 -10.7852    155.4309     60.6905   6.2220727999e+01   3.8335691325e+01    0.3975462    0.2882107   4.90  0.001654643    1.877    0.467
       205 -10.8173     84.9933     61.8365   8.1747219456e+01   5.3735876979e+01    0.4232722    0.2731296  35.45   0.00205846    1.621    0.383
       206 -10.7404     86.5411     57.9485   7.9859662375e+01   5.4188072651e+01    0.4189545    0.3533734 -15.10  0.002337709    1.140    0.122
       207 -10.6699     11.2894     62.4985   1.0993179116e+02   6.2369312669e+01     0.201059    0.1634139 -56.55  0.000316215    1.086    0.079
       208 -10.6356    201.3411     61.6998   5.4168823694e+01   2.6652133611e+01    0.2464468    0.2390968   9.45 0.0002945364    1.154    0.133
       209 -11.6555     63.8831     60.2491   8.8641771614e+01   5.7479969217e+01    0.2851364    0.2340992  37.38 0.0007640205    1.381    0.276
       210 -10.9752     29.9014     60.8258   1.0204187218e+02   6.1344883126e+01    0.5695282    0.2399715  14.23  0.002298651    3.340    0.701
       211 -12.9533     37.0168     50.4780   9.5922119743e+01   6.2783511950e+01    0.9545296    0.6521166  -3.30  0.005510184    1.646    0.392
       212  -9.2846    183.9689     60.2383   5.6604759950e+01   3.1212317452e+01    0.1992481    0.1249418  61.95 0.0008779328    1.604    0.377
       213 -10.4382     26.7414     49.2869   9.9895414958e+01   6.4005786124e+01    0.2866115    0.1861868 -53.33  0.001302553    1.365    0.267
       214  -9.9528    147.0630     56.9577   6.2840938108e+01   4.1022787777e+01      0.22207    0.2195236 -51.91 0.0003132686    1.035    0.034
       215 -11.8289     75.3497     56.0812   8.3028239599e+01   5.6494299937e+01    0.2439115    0.2167684 -28.85 0.0002840484    1.076    0.070
       216 -11.0125     70.5798     50.7342   8.2784760658e+01   5.8265248118e+01    0.4620966    0.3589498  72.39  0.001964782    2.165    0.538
       217 -10.1666    129.8523     55.7519   6.6490021847e+01   4.5385553481e+01    0.2543907    0.2000652 -17.75  0.000576372    1.362    0.266
       218 -11.7842    129.1162     49.5171   6.4521873083e+01   4.6556388631e+01      0.65364    0.3977614  -4.54  0.002156764    2.536    0.606
       219  -9.2026    119.6706     56.7396   6.9470011359e+01   4.7575879197e+01    0.1504609    0.1114132  20.09 0.0002558451    1.566    0.361
       220 -10.1077     99.7491     55.5703   7.4782535120e+01   5.2063786805e+01    0.2800254    0.1346865  41.41   0.00113676    2.116    0.527
       221 -10.5340     61.7238     53.6328   8.7142066055e+01   5.9083790799e+01    0.3017335    0.1488654 -39.00  0.001314114    1.840    0.457
       222  -9.5414    120.1841     52.8594   6.7973339192e+01   4.8104424965e+01     0.203267     0.166101  17.28  0.000283864    1.311    0.237
       223 -10.5478     87.2985     52.4997   7.7626278315e+01   5.5033176280e+01    0.2516446    0.1845353 -35.53 0.0007538209    1.306    0.234
       224 -10.9367     12.3677     51.2502   1.0666119956e+02   6.4686002050e+01    0.2659624    0.2149175 -73.64 0.0005798461    1.417    0.295
       225 -11.1267     11.8591     44.3727   1.0493102294e+02   6.6120822542e+01    0.3923031    0.2415878 -40.79  0.001824641    1.270    0.213
       226 -11.0626      5.6600     51.9203   1.0970071544e+02   6.4937393057e+01    0.3472162    0.1774696 -45.11  0.001238531    1.501    0.334
       227 -10.4010      3.7921     47.1736   1.0929730102e+02   6.6017426446e+01    0.2183742    0.1448085 -33.26 0.0006610713    1.332    0.249
       228 -10.9799    104.0491     48.6178   7.0945856386e+01   5.2347573123e+01    0.4777679    0.2477508 -38.37  0.002057616    1.924    0.480
       229 -10.8564     78.2691     47.9783   7.8997246828e+01   5.7459875682e+01     0.416817    0.2204282 -26.51   0.00181239    2.099    0.524
       230 -10.5677     53.4780     50.0195   8.9039230326e+01   6.0918817167e+01     0.195252    0.1678719   6.62 0.0005453514    1.179    0.152
       231  -9.9908    149.1498     40.8534   5.7105911978e+01   4.2913576832e+01    0.4129051    0.1780269 -37.87  0.001591877    2.329    0.571
       232 -10.2063    155.8443     47.0331   5.7787270261e+01   4.0348111475e+01    0.3386142    0.2591371   1.92 0.0009535686    1.621    0.383
       233 -10.8448    152.0018     47.4410   5.8691071105e+01   4.1257102480e+01    0.4300803    0.3323267 -14.66  0.001189401    1.459    0.315
       234 -11.6508     91.7413     43.7576   7.2869519051e+01   5.5649700878e+01     0.908314      0.35392 -49.18  0.002896602    4.207    0.762
       235  -9.6022    166.9566     48.7693   5.6216602434e+01   3.7272969661e+01    0.1971391    0.1197603  59.75 0.0004822297    1.594    0.373
       236 -10.3762    113.6021     47.5341   6.7835481209e+01   5.0442947191e+01     0.349971    0.2809399  89.91  0.001366838    1.734    0.423
       237  -9.0255     19.3735     48.2734   1.0277349420e+02   6.4809621621e+01    0.1279049   0.07303611 -29.15 0.0007001531    1.685    0.407
       238 -11.3058    119.9948     46.9750   6.5926843561e+01   4.9081374260e+01    0.2511393    0.2061131  37.20 0.0003289184    1.183    0.155
       239 -10.3806    142.7995     45.7293   6.0061798423e+01   4.3804974565e+01    0.3045457    0.2358083 -73.65   0.00101686    1.612    0.379
       240 -10.1377     51.0940     44.9569   8.8126575179e+01   6.2179181351e+01    0.2214197    0.1611241 -28.17 0.0003924787    1.201    0.167
       241 -11.6137     51.1436     40.1979   8.6270875487e+01   6.3028860286e+01    0.2935694    0.2462224  15.58 0.0004146282    1.226    0.184
       242 -10.1932     32.1789     44.4541   9.5929043603e+01   6.4451723189e+01    0.3268784    0.1770185 -13.18  0.001396857    2.502    0.600
       243  -9.5892    175.1234     44.1993   5.3391775335e+01   3.5844207302e+01    0.2020003    0.1643366 -62.80 0.0009476377    1.282    0.220
       244 -11.5250     62.2239     40.9507   8.2150507271e+01   6.1305521725e+01    0.4096191    0.3075882  67.42  0.001614675    2.405    0.584
       245 -10.0232     71.3110     41.2761   7.8865774763e+01   5.9792478193e+01    0.2049328    0.1510005  17.88 0.0002239251    1.386    0.278
       246 -11.6442     69.1251     38.3740   7.8497923847e+01   6.0634220671e+01    0.5497716    0.3145702 -14.07  0.001589509    2.284    0.562
       247 -11.7529     23.7071     41.9866   9.8833011337e+01   6.5707008256e+01    0.5331138    0.3730558  85.78  0.002701323    3.113    0.679
       248 -12.0478     27.7190     38.0333   9.5619573853e+01   6.6098992524e+01     0.416963    0.2684183 -28.81 0.0003337221    1.348    0.258
       249 -11.6363     24.3282     35.0841   9.6092743805e+01   6.6957478927e+01    0.3284738    0.2018541   0.76  0.000367834    1.830    0.453
       250 -10.9081      7.0259     41.2155   1.0619287987e+02   6.7046460455e+01    0.2314617    0.1210958 -50.55 0.0004793198    1.418    0.295
       251  -9.0196    163.2840     42.2929   5.4871405299e+01   3.9132448785e+01    0.1455548    0.1104857  28.77 0.0002515191    1.537    0.350
       252 -10.2911    111.2707     41.8496   6.6371689123e+01   5.1831558816e+01    0.4093378    0.1838894  52.17  0.001639475    2.190    0.543
       253 -10.5233     41.5020     41.0105   9.0637028517e+01   6.4094414909e+01    0.3863149    0.2491595  29.35  0.002223249    1.703    0.413
       254 -10.6176     42.4479     37.1579   8.8734568290e+01   6.4675148865e+01    0.4371645    0.3157468  55.16  0.002417288    2.327    0.570
       255  -9.6196    120.8439     40.7954   6.3468870381e+01   4.9805301066e+01    0.2089102    0.1871566  47.09 0.0005809933    1.094    0.086
       256  -8.9544    123.6487     38.7059   6.2011696276e+01   4.9444665148e+01    0.1537486    0.1041883  26.33 0.0007031627    1.680    0.405
       257 -10.2583     96.4026     40.7682   7.0254711544e+01   5.5178219720e+01    0.6050082    0.2271028 -34.93  0.002209073    2.619    0.618
       258 -11.0949    100.9807     37.5912   6.7648008039e+01   5.4695450031e+01    0.4160424    0.2829645  10.30 0.0008403377    1.776    0.437
       259 -10.3476    104.9884     34.4611   6.5281475781e+01   5.4275923353e+01    0.2962824    0.2377651 -79.42 0.0009348436    1.814    0.449
       260 -11.5197    101.6370     29.6683   6.4324844836e+01   5.5648514505e+01     0.385848    0.2961732 -38.68  0.002110728    1.430    0.301
       261 -11.1292     98.2504     31.5888   6.6065650720e+01   5.6116505827e+01    0.5928811    0.3007853  24.92  0.002276446    2.881    0.653
       262  -9.1615    188.4471     39.4890   4.9921982473e+01   3.3098387939e+01    0.1445794     0.132128 -75.69 4.820617e-05    1.042    0.041
       263 -11.5979     81.3725     35.1921   7.2850232608e+01   5.8969164784e+01    0.5006594    0.3406862 -22.72  0.002039212    1.431    0.301
       264 -11.1586     78.7927     31.8065   7.2318595535e+01   5.9948257590e+01    0.6458082    0.3391759   0.53   0.00221078    4.137    0.758
       265 -11.0039     57.4424     34.8079   8.1522766939e+01   6.3053366437e+01    0.2559933    0.2168112 -36.12  0.001605926    1.275    0.216
       266 -12.0346    232.6406    245.7700   8.8939671851e+01  -9.0217435709e+00    0.4256195    0.1912396 -21.53  0.002149505    2.761    0.638
       267 -11.8230    224.8017    246.7809   9.0455985588e+01  -8.0319019529e+00    0.4304879    0.1962401 -23.22  0.002189001    2.737    0.635
       268 -11.3407     10.2490     33.5570   1.0224848371e+02   6.8336962759e+01    0.5179976    0.3028697  29.07  0.003178044    2.107    0.525
       269 -11.4305     37.6449    243.9512   1.2429243058e+02   1.9787873535e+01    0.4490479    0.2476008 -88.69  0.002821391    1.668    0.400
       270 -11.2697    193.1684     32.8160   4.7377189483e+01   3.2775832188e+01    0.4083863    0.2483642  38.74 0.0004255039    2.086    0.521
       271 -10.7278    247.3564     33.1716   4.1452133055e+01   1.9893834540e+01    0.2323814    0.1703136  89.83 0.0004826102    1.354    0.262
       272  -9.6749    125.3768     32.8697   5.9470660477e+01   4.9820963323e+01    0.1986177    0.1712875  63.56 0.0005860227    1.195    0.163
       273 -10.3388    177.4001     31.7154   4.9299687300e+01   3.6915675660e+01    0.2565143    0.1301611 -33.86  0.000930312    1.968    0.492
       274  -9.7376    166.8139     32.5980   5.1233281138e+01   3.9511790013e+01    0.2067983    0.1336827  79.05 0.0009483769    1.676    0.403
       275  -9.9339    145.1291     31.8159   5.4875616185e+01   4.5114015108e+01    0.2112368    0.1884175 -80.92 0.0004225103    1.218    0.179
       276 -11.2104     49.2573     30.7584   8.3174785127e+01   6.4881138932e+01    0.3603678    0.2234105 -21.41  0.001272084    1.556    0.357
       277 -10.2044    224.3349     30.6655   4.3114013702e+01   2.5435592218e+01    0.2263413    0.1335501 -64.32  0.000847547    1.754    0.430
       278  -9.9879    139.2311     30.3513   5.5551061634e+01   4.6766603829e+01    0.2227735     0.185008  -0.55 0.0003530847    1.330    0.248
       279 -10.3231    152.4899     28.3729   5.2345416171e+01   4.3680913747e+01     0.307175     0.195491 -52.50  0.001430363    1.804    0.446
       280 -10.5240     35.4989    239.5134   1.2439233293e+02   2.0838773184e+01    0.2500804    0.1844125 -57.84  0.001786345    1.895    0.472
       281  -9.7356     66.8654     13.5145   6.8321698697e+01   6.4513249879e+01    0.1756572    0.1144768  41.09 0.0002957828    1.471    0.320
       282  -9.8702    147.6684    245.6759   1.0439756648e+02   3.9561411349e+00    0.1185912   0.08774839  13.34 0.0007050454    1.704    0.413
       283 -10.3133    215.1764     27.1374   4.3207791399e+01   2.8053707437e+01    0.1945584    0.1421974 -64.16 0.0005697511    1.296    0.228
       284 -11.0793    112.0085     24.8879   5.9681230589e+01   5.3937887341e+01    0.2609172    0.1944123 -26.86 0.0003428773    1.395    0.283
       285 -10.5801    132.4524     25.5328   5.5249152028e+01   4.9015315629e+01    0.5476877    0.2470814  34.89  0.002009323    2.908    0.656
       286 -12.2235     74.4400    238.8962   1.1740647765e+02   1.6074290463e+01    0.6085932    0.3596718 -60.43  0.003719703    1.971    0.493
       287 -10.0067    105.0388     25.6488   6.1782814752e+01   5.5413844990e+01    0.1886439    0.1609613  43.10 0.0003065688    1.115    0.103
       288 -10.2340     88.9044    241.1972   1.1493968990e+02   1.3645854938e+01    0.1960204    0.1481035 -36.96  0.001223501    2.139    0.532
       289 -10.3325     70.4572     25.9777   7.2739971231e+01   6.2278795524e+01    0.2517001    0.1830973  37.32 0.0007509972    1.363    0.266
       290 -10.2992    156.4917    241.5053   1.0219223873e+02   3.1897791540e+00     0.123942    0.1008605  37.22 -0.0001211292    1.019    0.019
       291 -10.4497    236.8867     24.7568   4.0474308875e+01   2.3270760549e+01    0.2766077    0.1248649 -54.13  0.001242087    2.123    0.529
       292 -10.1915    195.4446    238.7437   9.4490386874e+01  -2.6144807451e+00    0.2456166    0.1652769  23.96  0.001493318    1.317    0.241
       293  -9.9052    134.9081    238.5291   1.0592930768e+02   7.1138168616e+00    0.2488179      0.13433 -37.46  0.001229042    2.800    0.643
       294 -10.5840     86.8133     24.2074   6.6457432215e+01   5.9438599148e+01    0.3752797    0.2647159 -76.56  0.001681806    3.023    0.669
       295 -10.3318     82.8305     20.1669   6.5961434149e+01   6.0730235903e+01    0.4145334    0.2156551  62.03  0.001226699    2.799    0.643
       296 -10.4990     10.2426     24.9916   9.9158840623e+01   6.9916883381e+01     0.235012    0.1449804  -3.46 0.0005763274    1.700    0.412
       297 -10.0920     34.6128     22.9996   8.6285224873e+01   6.7981516251e+01    0.2587488    0.1472175  15.51 0.0007602238    1.933    0.483
       298 -10.2271    161.8992     20.1528   4.8127258610e+01   4.2229177855e+01    0.2060129    0.1907135  75.94  0.000284749    1.013    0.013
       299  -9.8037    244.3803    238.6973   8.5795802343e+01  -9.8373171892e+00    0.1005044   0.08835232  45.03 0.0007024211    1.775    0.437
       300 -11.7266     30.0967    233.6057   1.2497256700e+02   2.2539250595e+01    0.4001138    0.1886173  87.35  0.002328918    1.991    0.498
       301 -10.2052    159.8841    235.8840   1.0077965866e+02   3.5067390457e+00     0.193508    0.1521352  21.32 0.0006108338    1.293    0.226
       302 -10.0366    177.6663    234.8130   9.7228829175e+01   7.7726174003e-01    0.1817294    0.1456443  -3.04 0.0009946775    1.400    0.286
       303 -10.5667     26.5289     14.1176   8.6065761555e+01   7.0262922587e+01    0.1864059    0.1375454  -1.81  0.001264465    1.184    0.155
       304 -10.0046    167.1929    233.7920   9.9079565930e+01   2.6367761294e+00     0.166848    0.1346863  13.31 0.0007781733    1.311    0.237
       305 -10.6868    153.8586    233.6946   1.0163867754e+02   4.8351208049e+00    0.1953967    0.1683447 -18.17 0.0008869279    1.411    0.291
       306 -10.6675     86.5696    233.2064   1.1461537789e+02   1.5418866223e+01    0.2392681    0.1140516  50.29 0.0007968768    1.735    0.424
       307  -9.8674     24.0932    232.3463   1.2593861816e+02   2.3428882375e+01    0.1700494    0.1217747 -83.98 0.0006152558    1.326    0.246
       308  -9.1347    231.6984    231.6962   8.6824716205e+01  -7.2076136067e+00    0.1220924   0.07669782   8.15 0.0002544253    1.592    0.372
       309  -9.5974    185.5957     21.2244   4.5107750533e+01   3.6078666238e+01    0.1773986    0.1368019 -11.81 0.0005139902    1.570    0.363
       310  -9.6756    108.6037     17.7026   5.7685325564e+01   5.5528725368e+01    0.2438754    0.1399855  45.46 0.0008164251    1.566    0.361
       311  -9.4132    213.3618     17.2955   4.0907930813e+01   2.9648944470e+01    0.1328178   0.09595167  42.92 0.0007031719    1.709    0.415
       312 -10.0794    109.7872    243.2697   1.1124717759e+02   1.0220311126e+01    0.2461148    0.1572172  72.71  0.001144906    1.807    0.447
       313 -10.0738    190.5417    227.1628   9.3608466610e+01  -1.9336400634e-01    0.3440578    0.1240507 -42.40  0.001472557    3.208    0.688
       314  -9.5254    130.6777    227.3428   1.0533634415e+02   9.6918454536e+00    0.1314017   0.08839256  66.86 0.0007050404    1.728    0.421
       315 -11.1136    120.2380    226.3573   1.0728622855e+02   1.1551628775e+01    0.1967693    0.1740357  73.51 0.0006480673    1.141    0.123
       316 -10.0459    242.3209     15.3400   3.7861767802e+01   2.3168168020e+01    0.1180634   0.09610312  35.80 0.0007050247    1.717    0.418
       317  -9.5297    233.5873     14.7837   3.8449002892e+01   2.5192501383e+01    0.1771057    0.1006407 -45.66 0.0009292219    1.547    0.354
       318  -9.7401     50.8634     15.4186   7.5469346939e+01   6.6910909204e+01    0.2344357    0.1657721  51.86  0.001355561    2.025    0.506
       319 -10.6496      4.7003    226.1573   1.2892903783e+02   2.6551536315e+01     0.275268    0.0924343  53.76  0.001371999    2.216    0.549
       320 -10.7261    155.7239     21.7446   4.9623146515e+01   4.3625345520e+01    0.2714349    0.2058212 -68.15 0.0008582061    1.487    0.328
       321  -9.5330     15.2441     14.0588   9.1907383302e+01   7.1378212235e+01    0.1560957    0.1141004 -29.07 0.0003611134    1.094    0.086
       322 -10.3778     26.6557    224.7924   1.2505027203e+02   2.4590494846e+01     0.147298    0.1164765  71.49 0.0006549217    1.128    0.113
       323 -10.2306    123.4416    222.2730   1.0612649328e+02   1.1774524923e+01    0.2066525    0.1234807 -51.80 0.0007054373    1.943    0.485
       324 -10.1298    179.3204    243.6791   9.8204001158e+01  -7.6202960893e-01    0.1154774   0.08810627  59.71 0.0007044182    1.670    0.401
       325 -10.0658    141.6643    221.0498   1.0228361338e+02   8.9787638149e+00    0.2368426    0.1694022  21.53  0.001306577    1.642    0.391
       326  -9.6117    173.7613    219.7722   9.5680458056e+01   3.7444536295e+00    0.2129724   0.08888389  47.92 0.0008848819    2.444    0.591
       327 -11.3951      9.6384    217.1017   1.2763659519e+02   2.7823530616e+01    0.2838745    0.1590119  64.87    0.0011856    1.377    0.274
       328 -11.2585    235.9123    214.9033   8.3188153675e+01  -5.6820222736e+00    0.4376757     0.227714 -15.67  0.001707381    2.341    0.573
       329 -10.8950    241.0217    211.5584   8.1693337746e+01  -6.0118911692e+00    0.4213913    0.3460957  53.03  0.002672323    1.834    0.455
       330 -11.2122     30.4357    215.9513   1.2379825925e+02   2.5915882663e+01    0.3012857    0.1756911  29.72   0.00180013    2.182    0.542
       331  -8.8619    201.6684    215.6772   8.9595975547e+01  -3.2828250123e-01    0.1343858    0.0899668   8.38 0.0007050023    1.701    0.412
       332  -9.7436    194.5047    215.4783   9.0931678852e+01   9.0079753192e-01    0.1308556    0.1103793  20.86 -7.19671e-05    1.015    0.014
       333  -9.2680    136.6723    215.7108   1.0253955482e+02   1.0775299763e+01    0.1259204   0.09995394  10.58 0.0006586685    1.617    0.381
       334 -10.3017     66.4752    226.2586   1.1780165678e+02   1.9506442878e+01    0.2591414    0.1376943  45.27 0.0008819163    1.593    0.372
       335 -10.9190     21.3566    212.4460   1.2525485677e+02   2.7582313643e+01    0.3125618    0.1311936  54.45  0.001735727    1.958    0.489
       336 -10.1345    208.9616    212.0573   8.7588663090e+01  -1.0008769344e+00    0.1974567    0.1627292  13.04 0.0004955762    1.050    0.048
       337  -9.4716     76.3332    212.2979   1.1452593868e+02   2.0914210173e+01    0.1095201   0.09969737 -17.73 0.0007030624    1.647    0.393
       338 -10.1459      2.2956    212.3213   1.2869211424e+02   2.9448269010e+01    0.1879378    0.1315149  65.36 0.0008634157    1.137    0.120
       339 -11.7191      4.6790    207.8168   1.2804026784e+02   3.0128667897e+01    0.5503228    0.2243222  82.49  0.002959771    2.183    0.542
       340  -8.9649    188.3093    209.6478   9.1139590828e+01   2.8734555586e+00    0.1248292    0.1047103  75.01 0.0004030816    1.719    0.418
       341 -10.7675     10.8081    208.6284   1.2696937435e+02   2.9395253700e+01    0.2004118    0.1534746 -83.24 0.0004860126    1.269    0.212
       342 -11.3651     18.1935    203.5996   1.2529092850e+02   2.9703174486e+01    0.2988513    0.1715583  47.00  0.001856966    1.584    0.369
