#   1 NUMBER                 Running object number                                     
#   2 MAG_AUTO               Kron-like elliptical aperture magnitude                    [mag]
#   3 X_IMAGE                Object position along x                                    [pixel]
#   4 Y_IMAGE                Object position along y                                    [pixel]
#   5 X_WORLD                Barycenter position along world x axis                     [deg]
#   6 Y_WORLD                Barycenter position along world y axis                     [deg]
#   7 A_WORLD                Profile RMS along major axis (world units)                 [deg]
#   8 B_WORLD                Profile RMS along minor axis (world units)                 [deg]
#   9 THETA_WORLD            Position angle (CCW/world-x)                               [deg]
#  10 FWHM_WORLD             FWHM assuming a gaussian core                              [deg]
#  11 ELONGATION             A_IMAGE/B_IMAGE                                           
#  12 ELLIPTICITY            1 - B_IMAGE/A_IMAGE                                       
         1 -13.3261    229.2572     20.3979   1.4031774844e+01   2.5293248523e+01    0.8723869    0.7428691 -71.62   0.00530859    1.029    0.028
         2 -11.5493     83.4883    197.7030   8.4166705221e+01   2.3441226536e+01    0.5008519    0.2384579 -69.40   0.00162895    2.167    0.539
         3 -15.7194    121.9579    234.3430   8.0739933571e+01   1.0285875262e+01     3.623417     2.856006  73.54    0.0118578    1.231    0.188
         4  -9.7066     68.3640    247.2521   9.1634273137e+01   1.6170443259e+01   0.09627631   0.08254738  39.22 0.0006957988    1.621    0.383
         5  -9.8734     78.9475    243.2406   8.9482005803e+01   1.5385829736e+01    0.1502936    0.1124032  63.64 0.0002513838    1.036    0.035
         6 -10.9422     45.8851    241.1168   9.5028033682e+01   2.0191369766e+01     0.173583    0.1141588 -88.90  0.001228766    1.365    0.267
         7 -10.2607     37.4300    192.4883   9.3075815403e+01   3.0692500036e+01    0.2229457    0.1931142 -80.88  0.001612767    1.329    0.248
         8  -9.4888     37.1615    242.4646   9.6561587860e+01   2.1014463075e+01    0.1390451   0.08443698  49.75 0.0009593443    1.396    0.283
         9 -10.7016     44.6083    206.6959   9.2818070730e+01   2.6909912749e+01    0.3795317    0.1481083  67.39  0.001483208    2.860    0.650
        10 -10.2273     52.9366    204.5069   9.1029567632e+01   2.6312569369e+01    0.2599505    0.1297195  69.05  0.001004004    1.924    0.480
        11 -10.1674     54.1482    190.1407   8.9469312458e+01   2.9160152044e+01    0.1692169      0.14579  86.24 0.0002964486    1.183    0.155
        12 -12.0232     48.1992    185.7632   9.0285945511e+01   3.0846369877e+01    0.3538359    0.3069126   8.39  0.001212462    1.860    0.462
        13 -10.6377     75.3568    181.7660   8.4022132138e+01   2.8065961214e+01    0.3921414    0.1922945  71.47  0.001640059    2.683    0.627
        14 -11.8681     99.0316    180.8695   7.8645745036e+01   2.4553301198e+01    0.3068902    0.2496848  65.30 0.0006479031    1.074    0.069
        15 -12.4020     60.6934    174.3184   8.6386999361e+01   3.1763349365e+01    0.6025834    0.5281043  88.83  0.003980539    1.145    0.126
        16 -11.5726     72.9964    175.4185   8.3762510302e+01   2.9812907305e+01    0.3056982    0.2620687 -37.51  0.001374304    1.656    0.396
        17 -12.3316     53.5674    237.7501   9.3494605755e+01   1.9822798191e+01    0.3145552    0.2683816  87.62  0.001309213    1.366    0.268
        18 -11.8451     45.0494    176.1913   9.0024962963e+01   3.3313402333e+01    0.3769557    0.1929159  40.04     0.001013    1.961    0.490
        19 -18.5600     13.0275    199.2827   9.8221543784e+01   3.1878866213e+01     11.46383     2.625085 -78.19   0.04712906    3.793    0.736
        20 -10.4206     59.8308    230.4308   9.1856646218e+01   2.0344357846e+01     0.581642    0.4400958  40.88  0.004017939    1.551    0.355
        21 -11.8684     85.5676    170.1101   8.0181124379e+01   2.9113755872e+01    0.3526256    0.2025029 -47.95  0.001494101    2.131    0.531
        22 -11.3727     79.5616    172.1744   8.1850121299e+01   2.9571004521e+01    0.2454588    0.1974654  70.72 0.0004201012    1.088    0.081
        23 -11.5869    103.7986    171.4660   7.6161503480e+01   2.5810174433e+01     0.287959    0.2046801  78.90  0.001475563    1.491    0.330
        24 -10.3811     26.7452    250.3328   9.8656090950e+01   2.0852380595e+01    0.1168409   0.09675279  77.82 0.0005038444    1.392    0.281
        25 -12.7179     34.7474    170.7937   9.1735613253e+01   3.5673714222e+01    0.3668211    0.2358496 -69.28  0.001368463    1.419    0.295
        26 -11.1421    110.5349    167.3152   7.3928357625e+01   2.5548077831e+01    0.2728855    0.2130255  86.17 0.0006768081    1.306    0.234
        27 -15.2950     70.0075    145.0217   8.0229377122e+01   3.7225066778e+01     2.169401     1.125749 -81.33  0.003210821    2.331    0.571
        28 -12.7885     72.4882    163.5333   8.2322252093e+01   3.2572428892e+01    0.4958742    0.3348607 -57.12  0.002700573    1.538    0.350
        29 -12.1368     76.7265    159.4401   8.0735488578e+01   3.2894208399e+01    0.3420546    0.2792385  32.54 0.0009884725    1.478    0.323
        30 -10.5298    246.7743    163.0215   4.4724722229e+01  -8.1292754116e-01    0.1754574    0.1027383 -33.79 0.0003960235    1.634    0.388
        31  -9.7228     94.7717    158.7864   7.6278211980e+01   3.0204852731e+01    0.1998571    0.1487062  76.21 0.0005072308    1.355    0.262
        32 -14.2477     59.4120    136.7875   8.1686078900e+01   4.0587783962e+01    0.9593801    0.5082509 -75.07 0.0006466251    1.872    0.466
        33 -11.8180     73.1188    230.0639   8.9419721182e+01   1.8587017869e+01    0.4224995    0.1667282 -68.94  0.001683813    2.664    0.625
        34 -11.9138     83.8598    151.8625   7.7832050584e+01   3.3567067852e+01    0.5350866    0.2646955  60.18  0.002093983    2.463    0.594
        35 -13.4601     54.3344    147.7475   8.4564885992e+01   3.8655465071e+01    0.5359813    0.4237742 -62.58  0.003276343    1.259    0.206
        36 -10.8744    134.1297    146.8561   6.4498883009e+01   2.5588451203e+01    0.5209152    0.1038683 -53.01  0.001206139    6.077    0.835
        37 -12.2209     90.9160    146.7353   7.5204352078e+01   3.3635331329e+01     0.517254    0.3924815 -19.61  0.001938218    2.119    0.528
        38 -11.4409    105.0752    132.1311   6.8767795618e+01   3.4602678455e+01    0.5415053    0.3200126 -46.40  0.001983681    1.785    0.440
        39 -11.5785     91.8238    133.3497   7.2511213822e+01   3.6629341226e+01    0.2510034    0.2403768 -64.06 0.0002903701    1.139    0.122
        40  -9.7771    142.1667    134.1926   5.9821193990e+01   2.6708245180e+01    0.2131377    0.1779468 -89.62 0.0003929041    1.321    0.243
        41 -12.0739     76.5202    125.0284   7.5052997329e+01   4.1009756112e+01    0.4639432    0.2687133 -40.41  0.001689361    2.139    0.532
        42 -12.1604     47.9145    124.3197   8.2826119290e+01   4.4907545980e+01    0.2621868    0.1684022 -61.53 0.0008011787    1.355    0.262
        43 -10.1955     99.9515    122.0506   6.7999047141e+01   3.7879745687e+01    0.2236203     0.181665 -16.53 0.0008948348    1.677    0.404
        44 -12.6778     53.6544    116.0891   7.9842401647e+01   4.6177706421e+01    0.3470851    0.2462309  43.49  0.001611219    1.537    0.349
        45  -9.8491    159.2137    115.4334   5.1258714288e+01   2.6926807346e+01    0.2176302    0.1490071  62.30 0.0006785242    1.595    0.373
        46  -9.6564    156.3008    111.6715   5.0985024320e+01   2.8398151739e+01    0.1621321    0.1242862 -83.87 0.0004863277    1.643    0.391
        47  -9.6352    205.4122    110.2340   4.0216332216e+01   1.6961619189e+01    0.2099051    0.1396805 -48.60 0.0006674394    1.529    0.346
        48  -9.2863    108.5040    116.5279   6.4419006428e+01   3.7585120495e+01    0.1496677    0.1413801 -83.71 0.0001090427    1.008    0.008
        49 -11.5563     62.4577    102.1083   7.4512739444e+01   4.8346573858e+01    0.3163844    0.1861751  55.06 0.0009694714    2.097    0.523
        50 -11.0545     90.1980    227.1641   8.5975388211e+01   1.6617587032e+01    0.1764501    0.1473075  60.15 0.0005750732    1.161    0.139
        51 -10.3727     80.5623    200.5679   8.5095698149e+01   2.3287905700e+01     0.281214     0.154979 -81.10  0.001028944    1.941    0.485
        52 -11.4065     39.4298     71.1200   7.5000415309e+01   5.7888276574e+01    0.2109815    0.1792023  36.33  0.000537753    1.387    0.279
        53 -11.7066    183.1214     60.8587   3.1219387301e+01   3.1312718732e+01    0.3469214    0.3128747  89.10  0.000754885    1.081    0.075
        54 -13.4419    199.7123     48.4086   2.4954106404e+01   2.8949447777e+01     1.191515    0.8293119  38.43  0.004431325    1.764    0.433
        55 -12.4667    205.4847     43.3914   2.2746283883e+01   2.8195514277e+01    0.4993622    0.4879207  76.46  0.001095813    1.142    0.125
        56 -11.0462     33.2954    248.2036   9.7508980479e+01   2.0464109345e+01    0.2030889    0.1228828  69.83 0.0007482877    1.177    0.150
