#   1 NUMBER                 Running object number                                     
#   2 MAG_AUTO               Kron-like elliptical aperture magnitude                    [mag]
#   3 X_IMAGE                Object position along x                                    [pixel]
#   4 Y_IMAGE                Object position along y                                    [pixel]
#   5 X_WORLD                Barycenter position along world x axis                     [deg]
#   6 Y_WORLD                Barycenter position along world y axis                     [deg]
#   7 A_WORLD                Profile RMS along major axis (world units)                 [deg]
#   8 B_WORLD                Profile RMS along minor axis (world units)                 [deg]
#   9 THETA_WORLD            Position angle (CCW/world-x)                               [deg]
#  10 FWHM_WORLD             FWHM assuming a gaussian core                              [deg]
#  11 ELONGATION             A_IMAGE/B_IMAGE                                           
#  12 ELLIPTICITY            1 - B_IMAGE/A_IMAGE                                       
         1 -11.3759     32.9796     23.3479   5.6607585157e+01   7.0176075541e+01    0.4422893     0.273703 -61.18 0.0008942111    2.276    0.561
         2 -11.9900     34.3972     16.6040   5.2183004815e+01   7.1206762224e+01    0.5705379    0.3879865  56.61  0.002938736    2.537    0.606
         3 -11.6996     36.7759     12.7033   4.8573094310e+01   7.1522218323e+01    0.4065275    0.2888525  61.11   0.00211572    2.547    0.607
         4 -10.5359     35.8911      8.1691   4.6246559322e+01   7.2357886219e+01    0.2088636    0.1574395 -24.26  0.000308099    1.149    0.130
         5 -11.9312     24.2746     17.9353   5.8871429908e+01   7.2214027473e+01    0.2523855    0.1861316 -19.12 0.0001935306    1.246    0.197
         6 -10.4672     25.7782     13.5961   5.5539060403e+01   7.2828605517e+01    0.2459034    0.1731694 -48.68  0.001175532    1.500    0.333
         7 -10.8968    100.6151     22.1237   2.8643104090e+01   5.7591941518e+01    0.4879218    0.4041417 -63.82  0.002587603    1.471    0.320
         8 -11.7167     91.1449     10.5462   2.5614492447e+01   6.1197143787e+01    0.3992659    0.3230188  -4.23            0    1.223    0.182
         9 -10.5499     96.3750     10.7587   2.4336314476e+01   5.9935564072e+01    0.4192267    0.2718974 -30.93  0.002085978    1.562    0.360
        10 -12.6015     55.0024      9.9265   3.7863040292e+01   6.8911739073e+01    0.4594338    0.2637961  25.30  0.002219879    1.969    0.492
        11 -10.2656    226.0577     11.5380   6.7900841640e+00   2.6977470356e+01     0.229082    0.1484472 -41.97 0.0006550916    1.308    0.235
        12 -10.6650    185.1093     12.0071   1.0410360775e+01   3.6888073241e+01     0.207558    0.1868529 -59.40 0.0003229477    1.029    0.028
        13 -11.7001    126.0293     10.8504   1.7991457710e+01   5.2487612210e+01    0.2511337    0.2404968  88.69 0.0002460729    1.075    0.070
        14 -10.0495     43.8403      3.6425   3.9080933389e+01   7.1716311000e+01    0.2566369    0.1980621  64.07 0.0008348802    1.980    0.495
        15 -10.1203     48.2899      4.4307   3.7456696823e+01   7.0839175200e+01    0.2214946    0.2103602   7.71 0.0008572168    1.253    0.202
        16 -10.0430     49.4897      1.4595   3.4953123983e+01   7.0981182448e+01    0.2066175    0.1780307  -1.40 0.0005416241    1.066    0.062
        17 -10.0564    101.6454     10.8715   2.3082723242e+01   5.8649274353e+01    0.3113034    0.1448268  61.71 0.0006169106    2.093    0.522
        18 -10.8971      9.1074      9.8216   6.4567176901e+01   7.5200296423e+01    0.3494516    0.2303303  59.36 0.0008957059    3.252    0.692
        19 -10.3380    132.9510     10.2786   1.6561579766e+01   5.0737256152e+01    0.2022432    0.1780759  66.52 0.0004004334    1.095    0.087
        20  -9.6222    168.4696      9.4464   1.1373204775e+01   4.1452320626e+01     0.141037    0.1295777 -71.85 1.035394e-05    1.032    0.031
        21 -10.3214    116.6476      9.0721   1.8995329379e+01   5.5076763433e+01    0.3205233    0.2021098  63.71  0.001538379    1.518    0.341
        22  -9.7716     17.1755      9.1412   5.8501385538e+01   7.4575155194e+01    0.1493354    0.1409748 -21.85  0.001061403    1.321    0.243
        23 -12.6251     29.5772      5.1845   4.7961779993e+01   7.3718031532e+01    0.3146809    0.2243724 -24.79 0.0003043613    1.190    0.160
        24 -10.4039     29.9864      1.0000   4.4830336205e+01   7.4268563964e+01    0.2001678    0.1367133  30.50 0.0005925795    1.489    0.329
        25  -9.7608    247.1724      5.8675   4.0473929733e+00   2.2914237659e+01    0.1840095    0.1303735 -53.09 0.0003033727    1.161    0.139
        26 -10.4550    221.9140      6.1958   5.6912183400e+00   2.8471439100e+01    0.2066006    0.1477997 -56.15 0.0003804773    1.223    0.183
        27 -11.5866     43.7629     10.6852   4.3636262187e+01   7.0756998235e+01    0.4504941      0.29605  -7.61  0.001864128    1.620    0.383
        28 -10.5348     66.9503      5.7555   3.0596797570e+01   6.7075710484e+01    0.2015942    0.1734679   8.89 0.0002936449    1.026    0.025
        29 -11.1574     70.8878      5.0137   2.8784181700e+01   6.6328250522e+01    0.2386001    0.1808394  43.21 0.0002877064    1.256    0.204
        30  -9.6468    190.2474      3.6362   7.3885168314e+00   3.6392087780e+01    0.1754709    0.1575051  22.87  0.001041502    1.315    0.240
        31 -10.0829     55.3161      3.9371   3.4022221542e+01   6.9601154831e+01    0.3844229    0.1992823  23.26  0.001700193    2.406    0.584
        32 -11.7972     19.9886      2.5058   5.2310825698e+01   7.5376160980e+01    0.3141213     0.197667 -11.94  0.001307898    1.627    0.385
        33 -11.2073    194.0012      4.8222   7.4224965383e+00   3.5338681026e+01    0.2381914    0.2183172  76.71 0.0003053916    1.136    0.119
        34 -10.5521     39.2394      3.6622   4.1454127782e+01   7.2479406714e+01    0.1906887    0.1713768  -8.51 0.0004682658    1.188    0.158
        35 -10.2144    224.8273      2.9436   4.6579855820e+00   2.8118721609e+01    0.1791218    0.1684084  24.42 0.0006508438    1.328    0.247
        36 -11.0667    148.5405      2.4013   1.1281316368e+01   4.7338743477e+01    0.2565674    0.2325791 -81.74 0.0003316242    1.078    0.072
        37 -10.4306      1.4898      2.4638   6.6210688243e+01   7.7156058281e+01    0.1960583    0.1005483 -42.25  0.001128151    1.485    0.327
        38 -10.4107    210.8500      2.0319   5.3443139564e+00   3.1476537791e+01    0.1964971    0.1646358 -57.22 0.0003478133    1.037    0.035
        39 -10.1020    138.1929      1.9270   1.2462944316e+01   5.0106752415e+01    0.2051003    0.1802827 -59.89 0.0003995974    1.176    0.150
        40 -10.1171    108.8147      2.1077   1.7393284588e+01   5.7689612366e+01    0.1995429    0.1836652 -63.43 0.0004674064    1.206    0.171
        41  -9.8759     11.7685      2.1712   5.7975137139e+01   7.6333778855e+01    0.1664405    0.1330249  82.90 0.0009438506    2.778    0.640
        42 -10.1361    245.1690      1.3955   3.1003566661e+00   2.3780076428e+01    0.1578592      0.11144  88.18  0.000447694    1.457    0.314
        43 -11.0661     24.2389    120.6596   8.5430761378e+01   4.7921863123e+01    0.2608231    0.2075254  53.83 0.0009326753    1.299    0.230
        44  -9.1807    247.6747    250.6892   5.5569626699e+01  -7.4602879994e+00    0.1078276   0.05776371   9.56 0.0007039655    1.658    0.397
        45  -9.6121    109.9828    250.7808   7.9040729693e+01   1.0489076004e+01    0.1464794   0.06999649  37.97 0.0003987192    1.603    0.376
        46 -11.1510      1.4602    233.8111   9.7422662070e+01   2.5587431390e+01    0.3122622   0.08283649 -87.56   0.00152153    3.632    0.725
        47 -11.6531     24.4225    248.8821   9.4018253116e+01   2.0869187126e+01    0.3126469    0.1291594  52.58   0.00201152    1.663    0.399
        48 -12.2234     17.4959    248.3772   9.5163968306e+01   2.1635720354e+01    0.5525759    0.2697113  18.85  0.002800404    4.270    0.766
        49 -12.4693      9.9145    244.9194   9.6318547070e+01   2.2929043129e+01    0.4122692    0.2195508  86.19   0.00298278    1.690    0.408
        50 -12.8160      5.3977    242.4449   9.6999972928e+01   2.3759467971e+01    0.6455116    0.2706102  88.21  0.004135916    2.185    0.542
        51 -11.4181     12.3788    119.8732   8.8920704022e+01   4.9056748684e+01    0.5735975    0.2743308 -27.78  0.002346404    3.960    0.747
        52 -10.9400     69.4451    115.3466   7.0567231589e+01   4.4068813027e+01     0.290824    0.2384888  51.25 0.0001365918    1.271    0.213
        53 -10.5080     59.6078    115.1711   7.3603713719e+01   4.5472698955e+01    0.2645786      0.22435 -17.34 0.0007225656    1.504    0.335
        54  -9.6676     37.9959    116.0000   8.0557139591e+01   4.7795349625e+01    0.2019572    0.0780316  26.87  0.000806159    2.968    0.663
        55 -11.5422      5.7970    113.7165   9.0336682193e+01   5.1023419560e+01    0.3396993    0.1680403 -56.22  0.001130646    1.900    0.474
        56 -11.5472     23.4853    113.0626   8.4742648108e+01   4.9890382326e+01     0.288127    0.2024745 -54.78  0.000903542    1.400    0.286
        57  -9.3210    127.5130    112.4672   5.3111596373e+01   3.4331516578e+01    0.1546991     0.147925 -16.86 6.835635e-05    1.089    0.082
        58  -9.9518    115.7504    114.0723   5.6664091925e+01   3.6360021706e+01     0.278476    0.2006854  10.66  0.001062536    2.040    0.510
        59  -9.4601     81.9920    108.0108   6.5070455862e+01   4.3952564010e+01     0.166973    0.1610943  79.27            0    1.071    0.066
        60 -10.6784      1.3645    104.0590   9.0844272730e+01   5.3670789554e+01    0.2115047   0.09268037 -74.67  0.000347803    1.758    0.431
        61  -9.1409     67.7080    104.2807   6.8778678648e+01   4.7086118867e+01    0.1428736    0.1079699  77.45 0.0002056737    1.530    0.346
        62  -9.9535     44.6245    103.9087   7.6391667650e+01   5.0149864796e+01    0.1969337    0.1595104 -73.51   0.00042151    1.079    0.073
        63 -11.1632    112.6504    102.1711   5.4424877763e+01   3.9702541789e+01    0.2594764     0.257141  43.66 0.0002376899    1.054    0.051
        64 -11.1477     21.9201     99.9716   8.3494180588e+01   5.3320816283e+01    0.3712357    0.2858432 -69.46  0.002234745    1.089    0.082
        65 -11.1231     18.7491     93.9837   8.3728759026e+01   5.5076453455e+01    0.4605335    0.2980044 -60.36  0.002575264    1.314    0.239
        66  -9.8923    217.9933     98.3093   3.0603379785e+01   1.7118880973e+01    0.1896284    0.1795082  13.46 0.0005290608    1.129    0.114
        67  -9.5836    139.8152     97.9137   4.6009492481e+01   3.4795080594e+01    0.2129381    0.1832811 -72.35 0.0003606952    1.317    0.240
        68 -10.4217     37.8170     97.2239   7.7503909604e+01   5.2575003657e+01    0.2024944    0.1698602  89.06 0.0005119928    1.158    0.136
        69 -10.5096     92.2535     93.0923   5.8019375071e+01   4.5765774719e+01    0.2831198     0.255888  -8.71 0.0008317118    1.256    0.204
        70 -12.5291     57.8817     91.6286   6.9206685590e+01   5.1619445070e+01    0.3415838    0.3031994 -72.60  0.000336903    1.065    0.061
        71 -11.0255     74.6203     92.9871   6.3752564620e+01   4.8825726626e+01    0.2414883    0.2155762  42.65 0.0003807629    1.214    0.176
        72 -10.0294    125.2046     93.0906   4.8379002078e+01   3.9068221245e+01    0.2231032    0.2053853  -9.71 0.0002979933    1.166    0.143
        73 -11.3423     66.6738     91.7287   6.6146950344e+01   5.0355352150e+01    0.2486682     0.224133 -62.57 0.0003023904    1.013    0.012
        74  -9.6554      7.7937     91.1412   8.7254220062e+01   5.6519207861e+01    0.1707459    0.1205318 -56.80 0.0004463337    1.293    0.226
        75 -10.2463      1.5292     89.8495   8.9338345975e+01   5.7182935029e+01    0.2588772   0.08727402 -69.75 0.0009989915    2.162    0.538
        76  -9.7185     46.6842     90.2906   7.2923377257e+01   5.3357872741e+01    0.1391419    0.1022529  74.33 0.0004397651    1.594    0.373
        77  -9.9922    104.0832    100.9052   5.6557810161e+01   4.1694249458e+01     0.240289    0.1881359 -14.44  0.001083629    1.658    0.397
        78 -10.2247    159.9726     88.8959   3.8699262432e+01   3.1918164567e+01    0.2325433    0.2205961 -29.11 0.0003761447    1.017    0.016
        79  -9.6874     91.8269     87.7884   5.6636654082e+01   4.7086466464e+01    0.1980546    0.1729152  79.96  0.000296966    1.305    0.234
        80 -13.8464     65.2354     81.9927   6.4069756025e+01   5.2947004811e+01    0.5555231    0.5136644 -86.33 0.0009422021    1.147    0.128
        81  -9.4973     30.9404     87.4299   7.8151970056e+01   5.5719522338e+01    0.1607284    0.1356703  25.33  0.000115914    1.408    0.290
        82 -10.0913     27.0013     82.9832   7.8790144153e+01   5.7187788547e+01    0.1996271     0.161376 -59.40 -0.007547014    1.080    0.074
        83  -9.9706      3.3033     82.6600   8.7821327503e+01   5.8876792469e+01    0.1293503   0.08161397  71.17 0.0004074898    1.675    0.403
        84  -9.1679     80.7650     79.9642   5.7970765908e+01   5.0908931488e+01      0.18562    0.1179231 -49.31 0.0002301911    1.451    0.311
        85 -10.0792     47.2954     79.0541   7.0025988063e+01   5.6082914998e+01    0.2627193    0.1857772  29.87  0.001376537    1.616    0.381
        86  -9.4548     24.2880     79.6696   7.9203735047e+01   5.8244513307e+01    0.2455329    0.1219645  75.21 0.0008484556    3.361    0.703
        87  -9.7727     22.4249     76.2321   7.9268388595e+01   5.9250608949e+01    0.1852159    0.1121343 -80.86 0.0003735306    1.622    0.383
        88 -10.2312    176.8510     76.8209   3.1713149433e+01   3.0037817646e+01    0.2775093    0.2174128  65.32  0.001345157    1.404    0.288
        89 -10.6918     75.0740     76.8420   5.9006006621e+01   5.2611309228e+01    0.2269321    0.2145065 -60.25 0.0002596963    1.062    0.059
        90 -11.1211     11.4733     76.5325   8.3738290772e+01   5.9941467610e+01    0.2012998    0.1528218  40.92 2.261957e-05    1.551    0.355
        91 -11.1051     14.7019     74.9960   8.2167984172e+01   6.0116870583e+01    0.2129597    0.1929608 -18.78 0.0009063259    1.311    0.237
        92 -11.5473      5.1375     73.2000   8.5764012183e+01   6.1123400056e+01    0.2129486    0.1734178 -88.29  0.000218206    1.167    0.143
        93  -9.8424    105.8160     71.7984   4.7170268192e+01   4.7824976486e+01    0.2007995    0.1774911  80.37 0.0005494193    1.317    0.241
        94  -9.5581     75.0555     71.4586   5.7302845119e+01   5.3855508971e+01    0.2076701    0.1485967  36.81 0.0004768094    1.523    0.344
        95  -9.7016      1.4547     70.4763   8.6863036550e+01   6.1971585560e+01    0.1275342   0.09931777 -70.22 6.882942e-05    1.004    0.004
        96 -12.5680     81.1536     66.9217   5.3585494104e+01   5.3791255195e+01    0.3440351    0.2794266 -43.26 0.0004252298    1.140    0.123
        97  -9.4887    131.7260     68.6993   3.8929644531e+01   4.2532005363e+01    0.1540925    0.1232113   6.15 0.0002163196    1.534    0.348
        98 -10.8162      7.4793     63.2616   8.3065438799e+01   6.3435648998e+01    0.2772414     0.105203 -57.52 0.0008157637    1.939    0.484
        99 -12.0321     16.1941     65.0846   7.9584656929e+01   6.2456721614e+01    0.3659981    0.3007282 -45.69  0.002322416    1.166    0.142
       100 -11.8168     11.6862     59.6191   8.0427243058e+01   6.4076211406e+01    0.2528858    0.2260903 -30.70 0.0002652362    1.233    0.189
       101  -9.3032     69.0305     65.9644   5.7711439609e+01   5.6108719558e+01    0.1689385    0.1567068 -39.11            0    1.025    0.024
       102 -10.6830     51.7336     64.2616   6.4020833397e+01   5.9074323121e+01     0.386433    0.1800215 -43.97  0.001220877    1.993    0.498
       103 -10.1213     58.9755     65.0744   6.1337045862e+01   5.7871675758e+01    0.2087013     0.185518 -42.57 0.0003500287    1.016    0.015
       104  -9.2377    166.4916     64.4850   2.9886926240e+01   3.4676109569e+01    0.1537955    0.1481382 -24.50 0.0008101679    1.037    0.035
       105  -9.9661    128.5185     63.6908   3.8016956811e+01   4.4239867819e+01    0.1997303    0.1460884 -46.58 0.0002988757    1.371    0.271
       106  -9.6373     86.2092     62.6224   5.0284924322e+01   5.3762352235e+01    0.2041795    0.1417419  29.97 0.0004557689    1.641    0.391
       107 -10.1237     97.5452     60.8926   4.5873340391e+01   5.1821760131e+01    0.2107129      0.20643  29.97 0.0004614217    1.077    0.071
       108 -11.4988     77.2670     58.4791   5.1950631463e+01   5.6317787402e+01     0.397586    0.3059619  29.67  0.001073148    1.421    0.296
       109 -10.4850     42.3493     59.8779   6.6624874787e+01   6.1277744857e+01    0.3971308     0.212524 -67.76  0.001725674    2.140    0.533
       110  -9.9333     37.2178     60.1836   6.8980864551e+01   6.1786556877e+01    0.2362245    0.1161917 -30.56 0.0009397577    2.759    0.638
       111 -12.9085     21.1171     57.8717   7.5654020925e+01   6.3837978302e+01    0.4030581    0.2170185 -56.74   0.00161779    1.472    0.320
       112 -11.1493     58.5311     58.9514   5.9435250072e+01   5.9326436305e+01    0.2435894    0.2059829  28.48 0.0005703396    1.307    0.235
       113 -10.0713    216.9909     58.3344   2.0201963205e+01   2.3347002417e+01    0.1847425    0.1753256 -60.11 0.0004200726    1.092    0.084
       114  -9.4306    130.7900     57.0097   3.5078289816e+01   4.4889809653e+01    0.1959486    0.1223444 -34.60 0.0003960445    1.557    0.358
       115  -9.8081     71.7484     57.0684   5.3496166266e+01   5.7599893475e+01    0.2039234    0.1609458 -46.10 0.0003258277    1.183    0.155
       116  -9.6834     30.2657     56.8271   7.1126784993e+01   6.3287312492e+01    0.1752146    0.1342367 -31.04 0.0003825593    1.315    0.240
       117  -9.9391     67.5930     52.4990   5.3367716477e+01   5.9276839933e+01    0.3068961      0.18805  24.28  0.001177464    2.039    0.510
       118 -12.6838     62.0632     49.7910   5.4545289248e+01   6.0758776453e+01    0.4499997    0.2452488 -47.01 0.0004782922    1.682    0.405
       119  -9.7641    182.1169     54.4655   2.4021061554e+01   3.2320468196e+01    0.2083616    0.1494712  63.92 0.0003718472    1.467    0.318
       120 -11.7301    115.3621     53.1270   3.7642210417e+01   4.9297429112e+01    0.2957282    0.2749897  26.41   0.00101559    1.098    0.090
       121 -10.3326     86.4485     54.1682   4.7010211826e+01   5.5443756443e+01     0.300435    0.2082614  26.74 0.0007646974    1.689    0.408
       122  -9.4957    229.4379     56.4764   1.8219214893e+01   2.0807550168e+01    0.1400656    0.1198226 -39.42   0.00013248    1.010    0.010
       123  -9.9545    225.1521     51.7659   1.7466626246e+01   2.2393428981e+01    0.2173508     0.168699 -51.45 0.0005315832    1.203    0.169
       124 -10.3672    105.0985     51.7485   4.0046779303e+01   5.1919383976e+01     0.274974    0.2098791 -26.48  0.000732199    1.313    0.239
       125 -10.4686      4.0038     51.8176   8.2375456566e+01   6.6365407275e+01    0.2141753    0.1033331 -38.11   0.00107639    2.028    0.507
       126  -9.3214    178.6977     51.2643   2.3572745843e+01   3.3657158469e+01    0.1506929    0.1104344 -64.44 0.0002244866    1.521    0.342
       127 -10.6826     13.9088     49.4339   7.6901559807e+01   6.6358946114e+01    0.3334743    0.1380142 -58.56 0.0009459567    1.820    0.451
       128 -10.5445    138.4694     50.2063   3.0827887885e+01   4.4115101471e+01    0.2576942    0.2144362  54.71 0.0004668637    1.221    0.181
       129 -11.3298     78.3336     50.0114   4.8257492779e+01   5.7847588731e+01    0.2463235    0.2145373  36.48 0.0002607578    1.220    0.180
       130  -8.9931    159.2589     48.7152   2.6085527343e+01   3.9018120103e+01    0.1510763    0.1123882 -60.18 0.0001666271    1.481    0.325
       131 -10.1186     83.5114     50.5272   4.6592673410e+01   5.6742194124e+01    0.1476756    0.1378928 -27.71 7.691674e-05    1.028    0.028
       132 -11.7427    102.5289     42.7936   3.7198523480e+01   5.4071677509e+01    0.6455508    0.2732348 -34.03 0.0007529791    2.299    0.565
       133 -10.6531      9.5434     46.1148   7.8233555694e+01   6.7409932619e+01    0.3551776    0.1371697 -52.13  0.001265086    1.925    0.481
       134 -10.1113      2.2786     45.6817   8.1874367410e+01   6.7892514070e+01    0.1720735    0.1440336   5.79 0.0006846156    1.460    0.315
       135  -9.6809     18.0634     45.5198   7.3674751781e+01   6.6969744239e+01    0.1663191    0.1273284  15.02  0.001013137    1.537    0.349
       136 -11.7827     85.8648     42.7257   4.2514893863e+01   5.7722730915e+01    0.2601745    0.2386065   4.19  0.000273969    1.072    0.067
       137 -10.3073     27.4418     42.5966   6.7879762786e+01   6.6817465463e+01    0.2787606    0.1595014  29.77  0.001446505    2.008    0.502
       138 -11.2765     92.0127     41.0507   3.9731716079e+01   5.6712899828e+01    0.4164969    0.2560587 -45.26 0.0008017884    1.697    0.411
       139 -10.9499    184.5220     40.7686   1.9422366361e+01   3.3651857892e+01    0.4313994    0.2636605  85.19  0.001762001    1.986    0.496
       140 -12.1791    141.3474     40.8642   2.6801764977e+01   4.4814296537e+01    0.3386096    0.2449718  76.02 0.0006434236    1.557    0.358
       141  -9.9977    116.7597     40.4088   3.2281089104e+01   5.1085135312e+01    0.2882478    0.1689975 -42.38 0.0006917334    1.738    0.425
       142 -10.3811    109.4603     40.9390   3.4443975653e+01   5.2759850414e+01    0.2844567    0.2179381  76.22  0.001355513    1.622    0.383
       143  -9.8697     50.9427     39.5433   5.5143231567e+01   6.4578981423e+01    0.2719474    0.1760305  11.94  0.001306644    2.003    0.501
       144 -10.0411      2.4373     39.7235   8.0328373813e+01   6.9265872861e+01    0.2281194     0.133439  32.55  0.001290981    2.125    0.529
       145  -9.4257    168.8357     39.0139   2.1197077891e+01   3.7923194564e+01    0.1872478    0.1062817 -28.80 0.0003588625    1.715    0.417
       146 -10.5004     81.1701     38.8388   4.2464366094e+01   5.9372801501e+01    0.2041224    0.1892949 -41.26 0.0002869705    1.149    0.130
       147 -12.3272    121.5857     37.4426   2.9884283902e+01   5.0344367035e+01     0.342739    0.2773459 -17.93  0.001727566    1.266    0.210
       148 -11.2599     37.9402     41.6021   6.2211564174e+01   6.5895191159e+01    0.3197821    0.2475124  29.36 0.0009233878    1.467    0.318
       149 -10.6573     30.4847     37.2209   6.4258452143e+01   6.7676340051e+01    0.2264141    0.1638314 -21.85 0.0006473246    1.406    0.289
       150 -10.4287     22.3828     36.2996   6.8244009609e+01   6.8674195788e+01    0.4230568     0.144578 -45.67  0.001338033    2.356    0.576
       151 -11.4197     66.8740     35.5050   4.6401268732e+01   6.2715742299e+01    0.3482416    0.2732076  67.43 0.0008580529    1.818    0.450
       152 -11.0837    112.6234     34.4905   3.0914473414e+01   5.2990814512e+01    0.3374426     0.240662 -49.73 0.0001608381    1.557    0.358
       153 -10.1744      6.5743     34.4659   7.6504395920e+01   7.0243075514e+01    0.2185342    0.1282106 -52.65  0.001245224    1.304    0.233
       154 -10.0113     15.1629     32.8078   7.0989666029e+01   7.0035611931e+01    0.1740147    0.1301695 -47.15 0.0003427788    1.067    0.063
       155 -12.3354     10.4778     29.6220   7.2567321438e+01   7.1066055435e+01    0.3290624    0.2078935  33.54   0.00191326    1.962    0.490
       156  -9.5455     99.4722     30.5207   3.2793466153e+01   5.6708347236e+01    0.1466866    0.1369316   7.18 -4.294811e-05    1.021    0.020
       157 -10.0510     40.0835     29.7120   5.5944687420e+01   6.8045362713e+01    0.2931539    0.1554289  24.18 0.0007993226    2.245    0.555
       158 -10.6770    135.7376     29.0638   2.3474736713e+01   4.7890678837e+01    0.2275312    0.2075446  65.39 0.0003223963    1.097    0.088
       159 -11.0967     79.7560     27.4266   3.7641736622e+01   6.1536957492e+01    0.3933274    0.3663161  29.29  0.001920962    1.113    0.101
       160  -9.3534     69.7427     28.9644   4.2120967995e+01   6.3304616179e+01    0.1749442    0.1131425 -31.76 0.0002829333    1.450    0.310
       161  -9.5415    144.8008     27.8827   2.1325229855e+01   4.5671143565e+01    0.2037544    0.1661894 -62.86 0.0004325286    1.314    0.239
       162  -9.6650    117.4883     28.4612   2.7174881549e+01   5.2634443289e+01    0.1459496    0.1417609  19.06 2.825631e-05    1.006    0.006
       163 -10.7412     48.8050     28.1504   5.0840677925e+01   6.7080405529e+01    0.4000681    0.2178435  46.24 0.0007407703    2.262    0.558
       164 -11.3233     47.6576     23.6001   4.9062575091e+01   6.8064796086e+01    0.3492218    0.2378145  -0.17  0.001772637    1.739    0.425
       165 -12.1055     91.1626     26.4215   3.3393352228e+01   5.9204274353e+01    0.3329436    0.2356832 -36.99 0.0004849877    1.424    0.298
       166 -12.0924    216.9355     25.6978   1.1298599391e+01   2.7548291833e+01    0.2406828     0.216238 -57.52 0.0003005608    1.037    0.035
       167 -11.8929    213.0211     23.9326   1.1178516837e+01   2.8678993884e+01    0.2872031    0.2124414 -55.69  0.000292065    1.244    0.196
       168 -10.3279    183.0559     25.5561   1.4862839330e+01   3.5937716723e+01    0.2387149     0.223249   7.29 0.0003052315    1.196    0.164
       169  -9.5893    131.8137     26.5554   2.3273126124e+01   4.9227550061e+01    0.1882116     0.142596  84.64 0.0004520295    1.499    0.333
       170 -10.2128     59.9220     25.9766   4.4663058587e+01   6.5613899916e+01    0.2025136    0.1822899 -15.96 0.0003307739    1.061    0.057
       171  -9.3341    161.5029    249.4520   6.9672789734e+01   3.6984597022e+00    0.1119499   0.08444486  31.07 4.927244e-05    1.007    0.007
       172 -10.5461     31.8797    247.7941   9.2704578557e+01   2.0285926682e+01    0.1446263    0.1152324  55.73 0.0004958142    1.197    0.164
       173 -10.1366    229.9832    247.2776   5.7837655505e+01  -5.0406195628e+00    0.1485497     0.100664  19.05 0.0004643421    1.075    0.070
       174  -9.9895    131.5089    247.1469   7.4791445636e+01   8.1151191107e+00    0.1319625    0.1127958 -56.28  0.001009795    1.522    0.343
       175 -10.0796     21.8487     22.3633   6.2594664248e+01   7.1619338870e+01    0.2725703    0.1277697  23.50  0.001147455    2.444    0.591
       176 -10.1912     26.5079     21.4394   5.9348903092e+01   7.1304135673e+01    0.2049171    0.1478584 -24.33 0.0005066956    1.251    0.200
       177 -10.0012    116.4364    246.9465   7.7514549930e+01   1.0188766458e+01     0.139474    0.1102136 -70.33  0.001028698    1.622    0.384
       178  -9.6261     70.3135    246.3306   8.5852798601e+01   1.6202290232e+01   0.09252517   0.08225551   5.00 0.0004501863    1.676    0.403
       179  -9.7008    243.4772    244.5032   5.5322653815e+01  -6.4013948542e+00    0.1085087   0.07246742  10.79 9.069807e-05    1.085    0.078
       180 -11.1507    130.6721     22.0171   2.1688948455e+01   5.0075226371e+01    0.4002416    0.2537071  28.03  0.001759737    1.896    0.473
       181  -9.1795    119.2728     23.6598   2.4740518056e+01   5.2802888987e+01    0.1495776    0.1086592 -56.62 0.0003423686    1.610    0.379
       182  -9.9080     52.1282     23.5006   4.6874455740e+01   6.7363646914e+01    0.1889058    0.1301253  36.77  0.001015551    1.539    0.350
       183 -10.8129    163.1917     20.3820   1.5742691364e+01   4.1704835534e+01    0.3031542    0.2483872  11.34 0.0009679497    1.414    0.293
       184 -10.3338     15.8548     21.6810   6.5976555176e+01   7.2315419180e+01    0.2432489     0.158195 -53.74  0.001234834    1.384    0.277
       185  -9.3722    107.2434     21.2524   2.6524485822e+01   5.6099069422e+01    0.1375228     0.103633  24.43 -0.000275831    1.409    0.290
       186 -10.2882     64.3298     21.1475   4.0282673533e+01   6.5571178500e+01    0.2316392    0.1753305  27.58 0.0007061263    1.322    0.244
       187 -10.6201     70.4128     18.3842   3.6421798267e+01   6.4780608480e+01    0.2436934    0.2205591 -23.59 0.0007308844    1.144    0.126
       188 -10.5009    123.1415     17.9034   2.1493382302e+01   5.2493438289e+01    0.2699432    0.1917413  43.57 0.0008882934    1.392    0.282
       189 -10.3268    147.9081     16.5306   1.6589613882e+01   4.6161308225e+01     0.226634    0.1847752 -40.65 -5.081233e-05    1.231    0.187
       190  -9.6357    250.8069     23.4056   7.9842517827e+00   2.0294055113e+01    0.1361137   0.06763608 -44.78 0.0003536031    1.622    0.384
       191  -9.9880     14.5963     15.7581   6.3911153769e+01   7.3595972819e+01    0.2461955    0.1605687   6.81 0.0009635318    1.700    0.412
       192 -10.5228     52.4226    244.0800   8.8920798121e+01   1.8664362524e+01    0.1820841    0.1270755 -55.76  0.001303658    2.014    0.504
       193  -9.6842    147.3373    243.3292   7.1498233900e+01   6.4556327588e+00    0.1125127   0.07789329  11.18 0.0007051958    1.732    0.423
       194 -10.1477    153.4436     12.7594   1.4406848170e+01   4.5086198999e+01    0.2545616    0.1911515  72.05 0.0005448014    1.293    0.226
       195  -9.7624     66.2895     12.9604   3.5006212821e+01   6.6341226951e+01    0.1872576     0.164037   2.97 0.0004587327    1.006    0.006
       196  -9.7609     38.4320    242.2431   9.1307559852e+01   2.0514464106e+01    0.1434588   0.07675008  75.78 0.0009358393    1.741    0.426
       197 -11.0778      2.5457    248.2063   9.7626791451e+01   2.3064062008e+01    0.2678955    0.2063038  74.52  0.002360128    1.249    0.199
       198  -9.9861     31.7787    233.0331   9.2049552334e+01   2.2797503315e+01    0.2529935    0.1021692  36.30  0.001451336    2.076    0.518
       199 -11.3527     25.3958    232.7526   9.3187070823e+01   2.3502296831e+01    0.2864562    0.1716249  27.26  0.001455549    1.997    0.499
       200 -10.2721     55.1491    231.1807   8.7633117853e+01   2.0540812227e+01     0.155181     0.125676  52.49   0.00036746    1.143    0.125
       201  -9.4404    242.5130    230.5399   5.3378937008e+01  -4.9193492874e+00     0.110345   0.07868855   9.74 0.0001217787    1.008    0.008
       202  -9.1873    208.5255    123.4724   3.8387993767e+01   1.5000593107e+01    0.1434279    0.1283396 -15.83 0.0001205524    1.010    0.009
       203 -11.8699      2.6982    221.0028   9.6827330311e+01   2.7761290469e+01    0.3363108    0.1441783  76.82  0.001704025    1.941    0.485
       204 -10.5189      7.6084    221.7393   9.5964409317e+01   2.7187280205e+01    0.1834884   0.08288105 -80.90  0.001131262    2.072    0.517
       205  -9.6255    210.3857    215.7994   5.6366743572e+01   1.0308928446e+00    0.1551624   0.09750234 -16.52 0.0006112173    1.655    0.396
       206  -9.2233     80.3125     10.3319   2.8675273375e+01   6.3693692735e+01    0.1476471   0.09536584  22.14 0.0003524495    1.677    0.404
       207  -9.4422     85.6341    215.1413   8.0379097220e+01   1.9585858833e+01    0.1346711    0.1077923 -58.02 0.0001080836    1.509    0.337
       208  -9.2781     39.4933    207.5466   8.9153727552e+01   2.6695150991e+01    0.1166458   0.08859006  64.02 0.0001197758    1.012    0.012
       209 -10.1791      4.5349    206.2970   9.5988870987e+01   3.0371642525e+01    0.2900248   0.06394565  54.61  0.001304386    3.108    0.678
       210  -9.8799    237.6538    186.7721   4.6757163415e+01   6.9858591355e-01     0.187478    0.1226434  -7.62 0.0009434554    1.405    0.288
       211  -9.8819      2.1695    169.8223   9.4969918274e+01   3.8108309037e+01    0.1522724       0.1197 -74.25 0.0004970098    1.345    0.257
       212  -9.2637    229.4870    165.4981   4.4007438344e+01   4.7768732825e+00    0.1295055    0.1069667  -2.93 8.784226e-06    1.009    0.009
       213 -10.7816     13.6030    164.7859   9.2072578204e+01   3.8294290796e+01    0.2105209    0.1417975  49.56 0.0004066537    1.361    0.265
       214  -9.6046    213.2380    155.2331   4.4691196936e+01   9.0351457967e+00    0.1684864    0.1549229 -37.26  0.001037906    1.309    0.236
       215 -10.3147      7.0392    153.9620   9.2981959554e+01   4.1293627477e+01    0.1870497    0.1421304  79.47 0.0004541666    1.021    0.021
       216 -11.1554      5.2182    145.4531   9.2909423312e+01   4.3406215955e+01    0.3206457    0.2432813  18.55  0.001398834    1.724    0.420
       217  -9.2693    206.5278    145.4344   4.3787923597e+01   1.1797324652e+01    0.1387963    0.1223035  -3.46 0.0001408559    1.010    0.010
       218  -9.3124     32.2211    140.9868   8.5389539219e+01   4.2167781478e+01    0.1640383   0.09223886 -76.56 -0.000430966    1.544    0.352
       219  -9.7077     54.2216    140.0098   7.9194467262e+01   3.9973862705e+01    0.1788419    0.1574182 -89.04 0.0003027373    1.028    0.027
       220  -9.0683    235.3129    137.6594   3.7193720401e+01   7.7737752750e+00     0.127161    0.1003712 -53.45 0.0005574535    1.699    0.411
       221  -9.6799     16.4602    137.4618   8.9353920998e+01   4.4440944908e+01    0.1280932    0.1006021  83.35 1.214444e-05    1.040    0.038
       222 -10.3098     21.4584    135.9029   8.7841097499e+01   4.4399697213e+01    0.2166997    0.1462989  57.34 0.0003563685    1.410    0.291
       223  -9.5453     96.4632    134.9639   6.6621360526e+01   3.5014535758e+01    0.2101522    0.1260355 -84.35 0.0008093747    2.551    0.608
       224  -9.8571     70.5949    130.1771   7.3005436829e+01   4.0220681852e+01    0.2064337    0.1190899 -53.01  0.000943181    1.695    0.410
       225  -9.4439     92.4594    129.4621   6.6632344370e+01   3.6998377673e+01    0.1473919    0.1357132  88.86 -2.062284e-05    1.046    0.044
       226  -9.3588     28.2664    129.6986   8.5273161902e+01   4.5314192843e+01    0.1319694   0.08424378  71.75 0.0006929621    1.522    0.343
       227 -10.6195      2.6814    125.6442   9.2234118705e+01   4.8303654961e+01    0.2418706    0.1474963  77.27  0.000569529    1.415    0.293
       228 -10.3875     27.0579    116.9706   8.4115649954e+01   4.8599110644e+01    0.1955082     0.163125 -83.06 0.0003241925    1.010    0.010
