#   1 NUMBER                 Running object number                                     
#   2 MAG_AUTO               Kron-like elliptical aperture magnitude                    [mag]
#   3 X_IMAGE                Object position along x                                    [pixel]
#   4 Y_IMAGE                Object position along y                                    [pixel]
#   5 X_WORLD                Barycenter position along world x axis                     [deg]
#   6 Y_WORLD                Barycenter position along world y axis                     [deg]
#   7 A_WORLD                Profile RMS along major axis (world units)                 [deg]
#   8 B_WORLD                Profile RMS along minor axis (world units)                 [deg]
#   9 THETA_WORLD            Position angle (CCW/world-x)                               [deg]
#  10 FWHM_WORLD             FWHM assuming a gaussian core                              [deg]
#  11 ELONGATION             A_IMAGE/B_IMAGE                                           
#  12 ELLIPTICITY            1 - B_IMAGE/A_IMAGE                                       
         1 -13.4852    218.3638    123.1935   6.9985788040e+01   1.1883356012e+01     3.378451     2.303862   5.04   0.01478382    2.045    0.511
         2  -9.2517    197.1607     26.1701   4.7404586256e+01   3.2366356700e+01    0.2117602    0.1856935  50.96 0.0006987351    1.216    0.178
         3 -10.0070    223.2777     20.3425   4.2906090499e+01   2.6511003149e+01    0.3429606    0.2939481 -78.57  0.001623707    1.045    0.043
         4 -10.1100     87.4651     18.0501   6.6629606843e+01   6.0230130896e+01    0.4605331    0.2398399 -42.01  0.002096871    2.360    0.576
         5  -9.8520    155.3170     16.4635   5.0487639325e+01   4.4343585911e+01    0.3292398    0.2302431   4.10  0.001001557    1.781    0.438
         6 -10.0514    102.4800     13.9050   6.0540285804e+01   5.7504100586e+01    0.2757557    0.2151973  -7.06 0.0006225848    1.291    0.225
         7  -9.6268     25.0741      8.7948   8.7558472335e+01   7.1200393242e+01    0.3613328    0.1866224 -10.09   0.00184045    2.434    0.589
         8 -10.6577      9.3816     14.0165   9.8371731003e+01   7.1766677424e+01    0.4247653    0.2878932 -63.00  0.002669885    2.106    0.525
         9 -10.6737     18.6966     10.7110   9.1848168905e+01   7.1540811401e+01    0.2701778    0.2231617  47.77 0.0005521912    2.083    0.520
        10 -10.8629     11.5478      7.3811   9.4133149500e+01   7.2680064893e+01    0.4019875    0.3098217 -43.15  0.001785783    1.440    0.305
        11 -10.5257      6.8965      3.4731   9.4863914866e+01   7.3652229048e+01    0.2275771    0.1978624  -8.41 0.0008487855    1.352    0.260
        12 -10.5479    181.9548     13.7750   4.5776403893e+01   3.7694222846e+01      0.54152    0.3654138  64.29  0.001977284    1.354    0.261
        13  -9.2772    187.2714     10.0283   4.4033131748e+01   3.6703166228e+01    0.3972546     0.289914  -6.57   0.00209194    1.720    0.419
        14  -9.4246     34.3930     14.7152   8.5858983067e+01   6.9280145102e+01    0.2492975    0.1542558 -14.56 0.0007558002    1.533    0.348
        15 -10.2671    121.5599     12.3380   5.5358726545e+01   5.3238430333e+01    0.5160578    0.2656514  37.20  0.002281523    1.986    0.496
        16  -9.3788     93.5147     10.8602   6.1655033504e+01   5.9772505957e+01    0.2503577    0.1945362 -35.41  0.001447169    1.474    0.322
        17  -9.6751    209.9169      9.4853   4.1450180378e+01   3.1007724669e+01    0.3030257    0.2144082 -35.53  0.001246801    1.434    0.303
        18 -10.6415     41.7687      9.7945   7.9951946436e+01   6.9042874903e+01    0.3732426     0.255046  40.02 0.0009738355    1.753    0.430
        19  -9.1784     37.8270      4.8065   7.9164693881e+01   7.0224517301e+01    0.1481072    0.1414603 -22.66  0.001080805    1.602    0.376
        20 -10.1124     16.3476      4.1598   8.9840504256e+01   7.2749757026e+01    0.2780311     0.204936 -34.41   0.00198904    1.317    0.241
        21  -9.0251    227.1058      7.9196   3.9488597048e+01   2.6977382459e+01    0.2067513    0.1489304 -64.39 0.0004747375    1.250    0.200
        22  -9.0987    215.5582      8.3608   4.0623025025e+01   2.9729592950e+01    0.2118272    0.1374514  55.27  0.001109033    1.630    0.386
        23  -9.3039     78.7214      7.1327   6.4365411841e+01   6.3180048785e+01    0.2467272    0.1578277   4.94  0.001012297    1.623    0.384
        24  -8.5441     73.5050      8.5451   6.6753267909e+01   6.4031939285e+01    0.1288387    0.1078536  13.71 0.0001662082    1.016    0.016
        25  -8.9008    158.7022      6.9623   4.6833026171e+01   4.4400938616e+01    0.1848738    0.1757184  88.23  0.000447274    1.074    0.069
        26  -9.1790    175.0470      4.9335   4.4010320021e+01   4.0356209616e+01    0.2027126    0.1826617  89.51 0.0005489388    1.043    0.041
        27  -9.5056    128.0275      4.8171   5.1167336713e+01   5.2358773911e+01    0.4324358    0.1553625  42.22  0.001613516    2.788    0.641
        28  -8.9084     54.7125      3.4320   7.1085564018e+01   6.7886188246e+01    0.2695014    0.1736471 -53.81  0.001301956    3.293    0.696
        29  -8.7804     48.9687      3.8668   7.3679669177e+01   6.8744190008e+01    0.2685339    0.1344294  50.19  0.001334644    2.647    0.622
        30  -8.8400     30.7492      3.9365   8.2128830951e+01   7.1236221713e+01    0.1671029    0.1207042 -18.15 0.0007497746    1.118    0.106
        31  -9.2170     21.9551      3.4749   8.6428117170e+01   7.2292085070e+01    0.1783389    0.1277534 -31.72  0.001232356    1.311    0.237
        32 -10.2214     57.9471     13.9301   7.5117289615e+01   6.6105280408e+01     0.344081    0.2291766  36.97  0.001573011    1.503    0.335
        33  -8.7823     42.0241      2.0280   7.5724902743e+01   6.9986847343e+01     0.142258    0.1046166 -11.53  0.000391161    1.130    0.115
        34  -8.5167    242.4443      1.4622   3.6793537586e+01   2.4085805889e+01    0.1271893    0.1036819 -68.64 7.542895e-05    1.010    0.010
        35  -8.2643    170.5190      1.3877   4.3494861380e+01   4.1845346512e+01    0.1372521    0.1181464  70.18 -9.546457e-05    1.043    0.041
        36  -8.9657    137.0715      1.4159   4.8306395260e+01   5.0397301018e+01    0.2081245    0.1208586  67.00 0.0004143803    1.558    0.358
        37  -8.2955     64.0648      1.0000   6.6275393390e+01   6.6541631365e+01    0.1816806   0.06400346  49.91 0.0002987324    2.742    0.635
        38  -9.5203     57.9369    117.4456   1.0825290862e+02   4.5244185875e+01    0.2496843    0.1654873 -48.14  0.000782438    1.471    0.320
        39 -10.2446    102.9491    249.4174   1.1542920929e+02   1.0862152298e+01    0.2790338    0.1656522  43.33  0.001736074    1.376    0.273
        40 -10.2168     11.3410    115.2731   1.2126573669e+02   5.0187990952e+01    0.2610922    0.1886374 -37.13  0.001028894    1.660    0.398
        41  -8.7903      1.9278    114.7166   1.2378144692e+02   5.0914882416e+01    0.1521756    0.1319002 -84.95 0.0006471272    1.154    0.133
        42  -9.4409     50.0342    112.2139   1.0960707122e+02   4.7435306470e+01      0.22089    0.1721449  61.98 0.0004264939    1.429    0.300
        43 -10.6211     16.4711    104.6419   1.1839641872e+02   5.2303566261e+01     0.238995    0.1816211 -67.91 0.0006139817    1.045    0.043
        44 -10.5237     14.5659    110.1715   1.1971407962e+02   5.1150288548e+01    0.3521043    0.1805656  69.80   0.00130758    2.506    0.601
        45 -11.2285     19.6328    109.0890   1.1809810680e+02   5.1033796522e+01    0.4957327    0.2447163  20.94  0.002574243    2.617    0.618
        46  -8.7501     89.9704    111.4144   9.7576251230e+01   4.2021394786e+01    0.2970181    0.1282348  47.01  0.001105287    2.600    0.615
        47  -8.4809     62.5318    111.5161   1.0573409560e+02   4.6081953345e+01    0.1390289    0.1221594 -63.48 0.0001034759    1.012    0.012
        48  -8.4859      1.3582    111.4769   1.2358949262e+02   5.1689156207e+01    0.1193979    0.0859711 -73.28 0.0001696501    1.059    0.056
        49  -8.7588    127.9431    109.7522   8.6537783027e+01   3.5135243507e+01    0.2137177    0.1996658  38.71 0.0004434019    1.099    0.090
        50  -9.4508     34.8430    107.6707   1.1335786859e+02   5.0086185840e+01    0.3023437    0.1488465 -66.90  0.001283708    1.698    0.411
        51  -9.8702      6.7415    108.2318   1.2170733883e+02   5.2114731114e+01    0.2107317    0.1535621 -65.79 0.0002917687    1.120    0.107
        52  -9.1177    118.9030    107.7624   8.8446164910e+01   3.7465597319e+01    0.2256261    0.2092406   5.66 0.0004827937    1.183    0.155
        53  -9.9165     71.8958    107.7296   1.0210126135e+02   4.5704510454e+01     0.255391     0.187819 -61.27 0.0003439227    1.245    0.197
        54  -9.6248     27.8354    109.3086   1.1571808471e+02   5.0323836752e+01    0.2297475    0.1528522 -80.90  0.001318549    1.373    0.272
        55 -10.2227     80.2693    103.4316   9.8553484293e+01   4.5465559746e+01    0.3272001    0.2738836 -27.58  0.001517717    1.319    0.242
        56 -10.0893      8.5266    103.7936   1.2063152925e+02   5.3027728618e+01    0.1969559    0.1694506 -81.35  0.000508522    1.126    0.112
        57  -8.4305      7.6811    100.2690   1.2041592600e+02   5.3891104324e+01    0.1581749   0.08372266 -71.94 0.0002441886    1.463    0.317
        58  -9.6450    109.5013    102.9748   8.9796083449e+01   4.0422957663e+01     0.282396    0.2276514  40.34 0.0005238325    1.295    0.228
        59 -10.0341     53.1347     99.5017   1.0611390985e+02   5.0099042032e+01    0.4149947    0.2084954 -60.58  0.001661223    1.734    0.423
        60  -9.3608    102.5885     98.4354   9.0566797652e+01   4.2771924489e+01    0.4389004    0.1837816 -60.54  0.001300706    3.831    0.739
        61  -9.8871     69.1000     96.2198   1.0027376339e+02   4.8807667678e+01    0.2421423    0.2118972 -75.53 0.0005404251    1.185    0.156
        62  -8.3066     97.5269     96.4450   9.1523864660e+01   4.4157563095e+01    0.1495716    0.1393597 -31.97 0.0001337638    1.068    0.064
        63  -9.4466     79.3914     95.0767   9.6727954739e+01   4.7541691715e+01    0.3174193    0.2276773 -67.40  0.001569422    1.514    0.339
        64  -8.9777     15.8760     95.2200   1.1716228157e+02   5.4531040356e+01    0.1638558    0.1188068 -46.04 0.0005424199    1.340    0.253
        65  -8.8017     37.9454     93.9695   1.0985072435e+02   5.3018350466e+01    0.1539194      0.12908 -59.79 0.0009609048    1.011    0.011
        66  -9.8385      2.9758     91.2342   1.2062270315e+02   5.6221479677e+01    0.4307589    0.1458174 -52.14  0.002061225    2.324    0.570
        67  -8.7268    153.2149     93.1659   7.5523373924e+01   3.2893316947e+01    0.2115117    0.1852759 -72.85 0.0004096869    1.280    0.219
        68  -8.5391      9.1602     93.4144   1.1899680438e+02   5.5376205421e+01    0.1429302    0.1045416  47.74 0.0004848961    1.647    0.393
        69 -12.7687    229.3603    136.2214   7.1111593606e+01   7.3331494475e+00     1.043802    0.6927058  45.29  0.004515233    1.579    0.367
        70  -8.8849     82.7826     91.8664   9.4809726144e+01   4.7734148955e+01    0.2205258     0.186382 -19.61 0.0006783166    1.300    0.231
        71 -10.0672     56.4332     89.1639   1.0267520217e+02   5.2113557759e+01    0.3787828    0.2092069 -65.92  0.001741871    1.886    0.470
        72 -10.4760     51.8748     91.3458   1.0470515016e+02   5.2153883550e+01    0.3850932    0.2329043 -52.17  0.001024071    1.408    0.290
        73  -9.6979     43.4175     91.3819   1.0751196881e+02   5.3074505442e+01    0.2768814    0.2135513  53.08  0.001142665    1.547    0.354
        74  -9.3104     31.7313     91.4567   1.1138757823e+02   5.4173851277e+01    0.2355562    0.1314466  19.56   0.00122278    2.274    0.560
        75 -10.4644    124.7624     85.6932   8.0566532028e+01   4.0987482928e+01    0.6427963    0.4219431   1.89  0.001340878    2.735    0.634
        76 -10.0868    119.3007     85.6462   8.2062811856e+01   4.2183275242e+01    0.4005545    0.2943715 -67.06  0.001794508    1.732    0.423
        77  -9.6490    131.4298     87.5460   7.9334153693e+01   3.9119230485e+01     0.274075    0.2482676 -33.81  0.000591855    1.091    0.083
        78  -9.9792     26.5289     85.3230   1.1191810325e+02   5.6024854018e+01    0.3552113    0.1709735 -43.27    0.0013948    1.974    0.493
        79 -10.4406     46.4798     84.5169   1.0491872077e+02   5.4332391801e+01    0.3009742    0.2327016  39.04  0.001196403    1.512    0.338
        80 -10.3474    135.2180     82.6795   7.6864439836e+01   3.9232877497e+01    0.3833544    0.2638164 -23.85            0    1.681    0.405
        81  -9.6655    139.2067     83.2105   7.6005389703e+01   3.8197511357e+01    0.3186281    0.2551479  29.56 0.0007092432    1.359    0.264
        82 -10.1844    143.0482     81.9551   7.4658493716e+01   3.7534384201e+01    0.3402167    0.2902277  -4.91 0.0008095599    1.324    0.245
        83 -10.3714     76.0051     83.1151   9.4570088554e+01   5.0770721840e+01    0.3765509    0.3018419  60.08  0.001575364    1.536    0.349
        84  -9.5009     80.5591     82.1601   9.2801222849e+01   5.0261292062e+01     0.357419    0.2118285 -58.09  0.001087724    1.797    0.443
        85  -8.5463     65.9853     84.7714   9.8359234592e+01   5.1867382323e+01    0.1647926    0.1173622  31.24 0.0003843183    1.575    0.365
        86  -9.2525    149.2406     84.0544   7.3784337441e+01   3.5641375227e+01    0.2191607    0.2049344 -39.73 0.0003285291    1.065    0.061
        87  -8.2302     34.2797     84.3267   1.0906448141e+02   5.5591139509e+01    0.1335026   0.08060656 -40.78 0.0006996833    1.595    0.373
        88 -11.2432      6.2245     80.1223   1.1787160819e+02   5.8560533131e+01    0.3919949    0.2679416 -83.24  0.002488927    1.404    0.288
        89 -11.7147    105.2134     79.0339   8.4108627992e+01   4.6470795465e+01    0.5213133    0.4843509 -38.27 0.0007063965    1.044    0.043
        90  -9.2238     37.8881     80.7577   1.0701245204e+02   5.6067645663e+01    0.3189889    0.1234844  37.84  0.001062726    3.009    0.668
        91  -9.6482     22.2031     80.7779   1.1249741954e+02   5.7394640904e+01    0.2472834    0.1816271 -58.04 0.0006706435    1.079    0.073
        92  -9.9394     20.9887     75.3415   1.1181039959e+02   5.8708988515e+01     0.255951    0.1723422 -69.49 0.0009639135    1.331    0.249
        93  -9.4915    154.0251     80.0018   7.1427550587e+01   3.5247678942e+01    0.2514625    0.1961377 -79.97   0.00112279    1.654    0.396
        94  -9.5111     28.2715     78.2640   1.0984047444e+02   5.7489567110e+01    0.2050237    0.1486504 -46.12 0.0002954622    1.195    0.163
        95 -11.4407     97.3052     71.2950   8.4056135332e+01   4.9596463367e+01    0.9235582     0.258029 -46.05  0.001161131    3.569    0.720
        96 -10.8165     77.0018     75.4285   9.1977379528e+01   5.2290425985e+01    0.5433234    0.2686021  31.31  0.002089284    2.351    0.575
        97  -9.9582     83.7262     73.3914   8.9103132487e+01   5.1618115090e+01    0.3843211    0.2903659  27.78  0.001997722    1.438    0.305
        98  -9.8685     53.4883     75.5059   1.0016098414e+02   5.5556731795e+01    0.3203465     0.174061 -27.46  0.001387389    2.465    0.594
        99  -9.8351     64.2465     70.7777   9.4970381192e+01   5.5185535011e+01    0.4640642    0.2294711  39.91  0.002081441    2.283    0.562
       100  -9.9955     58.2597     71.0258   9.7181533079e+01   5.5937659678e+01    0.3612426    0.2449991  -7.91  0.001588005    1.941    0.485
       101 -10.2854     51.0519     81.4708   1.0259152289e+02   5.4511763659e+01    0.2341026    0.1706319 -53.91 0.0003349434    1.180    0.152
       102  -9.1844    109.9808     71.7257   8.0349005639e+01   4.6975491473e+01    0.2059654    0.1958967  30.95 0.0004176174    1.079    0.073
       103  -8.6602     42.6122     71.8107   1.0309263907e+02   5.7595470746e+01    0.1873922    0.1129843 -65.31 0.0009479884    1.702    0.412
       104 -10.2757    157.5032     73.2550   6.8568717744e+01   3.5623420879e+01     0.433045    0.1541419 -35.84  0.001383555    2.809    0.644
       105  -9.7362     75.0821     71.0443   9.1273585739e+01   5.3522965760e+01    0.2060512    0.1825993 -32.48 0.0002785396    1.016    0.016
       106 -10.9884    163.2224     67.3190   6.5490028443e+01   3.5220330190e+01    0.5481027    0.3240075  35.90  0.002172091    2.034    0.508
       107  -9.9057    159.5004     66.4641   6.6019960241e+01   3.6311229361e+01    0.2327445    0.1881574 -74.56 0.0005817905    1.471    0.320
       108 -10.7528    141.9717     69.3541   7.0967525927e+01   4.0158776747e+01    0.3934356    0.2972224  66.54  0.001821619    1.491    0.329
       109  -9.7998    136.1293     70.1349   7.2671622054e+01   4.1419570687e+01    0.2385717     0.207137  15.65 0.0004958742    1.244    0.196
       110  -9.3498    197.2782     68.2368   5.9295682019e+01   2.6374704154e+01    0.2679934    0.1828041 -31.98   0.00122471    1.465    0.317
       111  -8.4772    119.6938     69.6669   7.6888243707e+01   4.5285073877e+01    0.1573845    0.1189543   4.55 0.0002844767    1.665    0.400
       112 -11.1927    151.7329     66.1761   6.7650262675e+01   3.8316031046e+01    0.4346037    0.3453892  65.18  0.002089009    1.331    0.249
       113  -8.8556    105.2499     67.4011   8.0320980226e+01   4.8794548716e+01    0.1899939    0.1435163  55.05 0.0001563171    1.499    0.333
       114  -8.9757    126.6859     65.6264   7.3638934507e+01   4.4456312079e+01    0.2743933    0.1865808 -23.19 0.0008384581    1.635    0.388
       115  -9.2410     88.5972     65.5088   8.4924719844e+01   5.2371257850e+01    0.2869456    0.1925505   3.24 0.0007198371    2.146    0.534
       116 -10.6333    152.2962     73.9941   6.9982264775e+01   3.6785398786e+01    0.3349212     0.322473 -20.35  0.001176009    1.045    0.043
       117 -10.6433     44.3592     63.4074   1.0008603083e+02   5.9225556126e+01    0.3763329    0.3392207  82.07  0.002266719    1.437    0.304
       118 -10.6382    109.8370     62.3770   7.7242194019e+01   4.8788159701e+01    0.5781236    0.3687619 -45.17  0.002628497    1.614    0.380
       119  -9.2451    112.0063     56.0048   7.4375658301e+01   4.9464543067e+01    0.2575455    0.2090286 -13.02 0.0003133795    1.284    0.221
       120  -9.9588     32.6102     63.1659   1.0453965609e+02   6.0446934909e+01    0.3622676    0.2729506  83.20   0.00209077    1.925    0.481
       121  -9.3072    172.8039     62.0729   6.1936076613e+01   3.3640121569e+01    0.2878556    0.2214346   0.59  0.001323028    1.643    0.391
       122  -9.5222    132.0333     62.8988   7.1329821679e+01   4.3695004314e+01    0.3671435    0.2229889  64.62  0.001147406    2.041    0.510
       123  -9.3643     75.1005     62.9003   8.8618673439e+01   5.5191867951e+01    0.2085908    0.1835951 -16.25 0.0004601831    1.077    0.072
       124  -9.7402     66.7221     63.0511   9.1645738794e+01   5.6445691673e+01    0.2431712    0.1580182 -51.92 0.0007735965    1.516    0.340
       125 -10.1723     69.2313     57.0934   8.8720564901e+01   5.7259783386e+01    0.5123538    0.2648635 -27.11  0.001485803    2.425    0.588
       126 -11.0612      3.1178     61.5522   1.1559130418e+02   6.2811032420e+01    0.5145701    0.1515911 -47.96   0.00239213    2.447    0.591
       127  -8.5854     10.6126     62.4867   1.1290493560e+02   6.2213799302e+01    0.1203491   0.09108879 -56.53 0.0001248477    1.033    0.032
       128  -9.1644    162.4965     60.9525   6.3657922765e+01   3.6471496251e+01    0.2346521    0.1526861 -33.09  0.000797701    1.559    0.358
       129  -9.1611    120.8648     60.9461   7.3622199827e+01   4.6627815548e+01    0.2383741    0.1966075  11.00 0.0007567133    1.332    0.249
       130 -10.7140    159.0590     57.6532   6.3329503694e+01   3.7886556468e+01     0.637156      0.38236 -15.94  0.002526873    2.194    0.544
       131  -9.6341    162.0102     53.4900   6.1395684320e+01   3.7785689831e+01    0.3468625    0.2585449  -3.61 0.0009074837    1.674    0.403
       132  -9.0040     88.4733     60.4622   8.3231724883e+01   5.3375518787e+01    0.2419752    0.1364214  53.12  0.001024444    2.267    0.559
       133  -9.3330     80.7250     59.8634   8.5629821280e+01   5.4859801449e+01    0.2354464    0.1810303  19.80   0.00065345    1.400    0.286
       134 -10.1517     50.1054     60.0198   9.6853134286e+01   5.9278270591e+01    0.1938978    0.1737015 -24.24 0.0003155057    1.083    0.077
       135  -8.9122    183.6902     59.0226   5.8998403443e+01   3.1316490023e+01    0.2926264    0.1451712 -24.45   0.00107762    2.384    0.581
       136 -11.1028    200.0143     56.9081   5.5664056212e+01   2.7453084685e+01    0.6879714    0.4901843   1.31  0.003088053    1.976    0.494
       137 -10.6999    203.9876     51.4421   5.3533926931e+01   2.7254443292e+01    0.4788217    0.3739877  89.18  0.001991493    1.357    0.263
       138  -9.7685    207.3152     49.6630   5.2561394825e+01   2.6670133706e+01    0.2918153     0.197082 -71.67 0.0009606741    1.718    0.418
       139  -9.7888    150.7354     57.9382   6.5216771993e+01   3.9954325212e+01    0.2643391    0.2199414  59.55 0.0002344526    1.203    0.169
       140  -9.9344     96.1642     55.9708   7.9146216293e+01   5.2754234012e+01    0.4012351    0.2679206  -8.52  0.001350231    1.964    0.491
       141  -9.5119     34.3527     57.7651   1.0232950819e+02   6.1431125287e+01    0.2018377     0.168841 -61.58  0.000624385    1.260    0.206
       142  -8.7193    127.6890     56.9748   7.0432568858e+01   4.5743946340e+01    0.2668993    0.1580746  50.86   0.00114291    1.671    0.402
       143  -9.0845    104.8716     56.4765   7.6640854741e+01   5.0901625995e+01    0.2354346    0.1904835  -6.25  0.000808192    1.315    0.240
       144 -10.0696     79.4628     55.2930   8.4446696427e+01   5.5947757614e+01    0.6033387    0.3100901 -15.75  0.001868834    4.588    0.782
       145  -9.5309     86.6140     54.9066   8.1869587740e+01   5.4756873387e+01    0.2405431    0.2016841  44.90  0.000115026    1.322    0.244
       146 -10.1258    173.9761     52.8290   5.8887233576e+01   3.4788057793e+01    0.3407877    0.2115157 -37.01  0.001499544    1.607    0.378
       147 -10.1248    135.0970     53.4720   6.7359926888e+01   4.4554836437e+01    0.4398424    0.2267313 -34.68  0.001773988    1.949    0.487
       148 -10.2040    179.3172     52.7981   5.7914452073e+01   3.3404998016e+01    0.2682317    0.2520362 -37.18 0.0003318203    1.086    0.079
       149  -9.7743    144.9613     53.0798   6.4905553414e+01   4.2185910370e+01    0.2249816    0.2168581  15.72 0.0004074775    1.036    0.035
       150 -10.2509    233.8735     51.0104   4.9443718422e+01   1.9999816440e+01    0.2289399    0.2129619 -48.77            0    1.077    0.072
       151  -8.6741     29.4588     52.5788   1.0277277466e+02   6.2951875487e+01    0.1240395    0.1005664 -40.72 7.159178e-05    1.018    0.017
       152  -9.6380     14.8457     51.9521   1.0866158670e+02   6.4194477263e+01    0.2229172    0.1558537 -11.61 0.0003945506    1.596    0.373
       153  -9.2907     18.7245     51.0519   1.0679631690e+02   6.4118006836e+01    0.2338956    0.1554822 -70.57  0.001139739    1.659    0.397
       154  -9.5624     21.3102     49.3121   1.0520967206e+02   6.4286548506e+01    0.1951866    0.1392705 -32.67 0.0006486246    1.235    0.190
       155  -9.4543    212.2374     50.6042   5.2126513408e+01   2.5301070349e+01    0.2654755    0.1759503  55.55 0.0009126221    1.546    0.353
       156  -9.2867    126.3096     50.7721   6.8618006088e+01   4.7093301903e+01    0.2678861    0.1818283 -34.39   0.00113481    1.483    0.326
       157  -9.1241    115.9361     50.9413   7.1447886208e+01   4.9454053148e+01     0.215426    0.1782484 -69.03 0.0003045464    1.561    0.360
       158 -11.5348     59.0428     48.0431   8.9298082320e+01   6.0485376557e+01     0.467766     0.310284  16.51 0.0006814144    1.714    0.416
       159  -9.7078     49.2393     49.8518   9.3812665318e+01   6.1425375774e+01    0.2249784    0.1727381  -0.32 0.0005283537    1.378    0.274
       160  -8.8676     97.0565     48.9777   7.6289460846e+01   5.3804482620e+01    0.2105693    0.1587217   8.73  0.000292205    1.485    0.327
       161  -9.4444     48.4582     36.9580   8.9318200277e+01   6.3921775184e+01    0.1811246    0.1728738 -27.67 0.0005942518    1.304    0.233
       162  -9.2106     41.9735     44.7894   9.4994608107e+01   6.3254176984e+01    0.1992896    0.1582045 -31.45 0.0004287145    1.034    0.033
       163 -10.2949     45.0168     40.6828   9.2208755223e+01   6.3674090506e+01    0.3537576    0.2169273 -42.72  0.001463033    1.415    0.293
       164  -9.2837    220.9567     47.9500   5.0261704859e+01   2.3525026542e+01    0.2267308    0.1534113 -64.47 0.0005065848    1.571    0.364
       165 -11.5015    167.7738     43.9254   5.7250550294e+01   3.7708475099e+01    0.5550634    0.4152195 -54.33  0.001038151    1.443    0.307
       166  -8.4851     10.2388     48.2396   1.0961845810e+02   6.5247774305e+01    0.1618516   0.08315914  32.33 0.0008996501    2.464    0.594
       167  -9.9777     84.9162     46.9163   7.9460053379e+01   5.6491702654e+01    0.3047556    0.1991698  39.54 0.0009659561    1.567    0.362
       168 -10.7359    143.0945     43.5256   6.2075102743e+01   4.4105107356e+01    0.6236613    0.3761444  23.33  0.002483908    2.339    0.573
       169  -9.0534     67.4914     46.5047   8.5505176625e+01   5.9520630394e+01    0.2261459    0.1307353  37.01  0.001113853    1.844    0.458
       170  -9.6315     35.2732     46.7895   9.8502120563e+01   6.3573971049e+01    0.3589685    0.1824574 -40.74  0.001125242    1.637    0.389
       171  -8.1636    156.6578     45.7003   5.9952971362e+01   4.0335433051e+01    0.1591569    0.1117338  29.35 0.0007036265    1.671    0.402
       172  -8.8226    187.0138     43.6805   5.3904248213e+01   3.2724718669e+01    0.2123998    0.1875401  69.64  0.001016414    1.098    0.090
       173  -8.8799    160.5050     44.0754   5.8664881249e+01   3.9576107719e+01    0.2151337     0.150338 -27.50 0.0005579486    1.503    0.335
       174  -9.5402    107.9383     43.9850   7.1130390245e+01   5.2341615723e+01    0.3284345    0.1955522  41.56 0.0009455914    1.651    0.394
       175  -9.2285    206.0507     41.9868   5.0630054245e+01   2.8063279159e+01    0.4196301    0.1240505  54.14 0.0009581398    3.232    0.691
       176  -8.8437     99.4843     42.4470   7.3046122479e+01   5.4379678601e+01    0.1428149    0.1302411   6.11 0.0008080675    1.006    0.006
       177  -9.6902     56.1330     41.9451   8.8139335170e+01   6.2011262878e+01    0.2625757    0.1949921  10.46  0.001313853    1.409    0.290
       178 -10.4160     31.6552     40.7388   9.7972483734e+01   6.5102393099e+01    0.3751918    0.1633129 -44.11  0.001862727    1.835    0.455
       179  -8.6529    196.7752     41.4240   5.1773904250e+01   3.0509520047e+01    0.2109412    0.1262893  53.14 0.0009419229    1.677    0.404
       180  -9.4758    149.4715     39.7374   5.9424404402e+01   4.3026196366e+01    0.3916162    0.1454136 -30.05  0.001367196    2.762    0.638
       181  -8.3141    118.3292     41.3217   6.7261963790e+01   5.0417357931e+01    0.1553144    0.1076548  19.72 0.0007048861    1.693    0.409
       182 -10.6219    127.4547     37.3023   6.3468321373e+01   4.8842586745e+01    0.3939371    0.3031777 -44.45  0.001805369    1.427    0.299
       183  -9.2451    227.8119     39.2903   4.7204693245e+01   2.3045592397e+01    0.2784272     0.166819 -87.69  0.001275307    1.959    0.489
       184  -9.0614    157.0634     37.9355   5.7317311614e+01   4.1319759879e+01    0.2261779    0.2145729  33.99  0.001255267    1.069    0.064
       185 -10.0974     82.0321     37.2078   7.6602140025e+01   5.8624335508e+01     0.338184    0.2343287 -22.69  0.001785715    1.393    0.282
       186 -10.9419     78.7221     31.3077   7.5288977417e+01   6.0134786499e+01    0.3676935     0.284484 -38.14 0.0004285083    1.388    0.280
       187 -10.0009     81.1873     27.0279   7.2607550295e+01   6.0294976244e+01     0.444886    0.3011521  42.00  0.002183793    1.464    0.317
       188  -8.7518     75.2269     38.1782   7.9383928314e+01   5.9683830878e+01     0.164771    0.1553958 -44.27 0.0004367587    1.312    0.238
       189  -9.1993    162.2047     37.3451   5.6162767402e+01   4.0064634781e+01    0.2021428    0.1913824   0.33 0.0007797815    1.130    0.115
       190  -8.7057    102.0039     37.0279   7.0169807583e+01   5.4678053575e+01     0.220516    0.1581543  12.45 0.0005028626    1.564    0.361
       191 -10.2325     62.2091     36.3724   8.3515881854e+01   6.2098229496e+01     0.351616    0.2005555  20.42  0.001123333    2.107    0.525
       192  -9.4536    247.0666     35.3243   4.4208374197e+01   1.9076757716e+01     0.331458    0.1741705 -65.35  0.001500996    2.151    0.535
       193  -9.7058    192.0153     35.0000   5.0617355014e+01   3.2592870833e+01    0.3446122    0.2145093  47.13   0.00158265    1.714    0.417
       194  -8.9169    194.2459     32.0675   4.9462410048e+01   3.2390903365e+01    0.2375379    0.1925671 -15.69 0.0002738461    1.419    0.295
       195  -9.2785    215.6709     35.4440   4.7635071252e+01   2.6519040895e+01    0.2928805    0.1304342  65.93  0.001050651    2.186    0.543
       196  -8.5619     93.9923     35.7456   7.2090815158e+01   5.6533136618e+01    0.1686137    0.1152733  43.95 0.0002953165    1.446    0.308
       197  -9.4519     33.6056     34.8011   9.4920045807e+01   6.6018660964e+01    0.2096669    0.1700846  23.03  0.001397903    1.423    0.297
       198 -11.0649    237.1273     32.1950   4.4444537345e+01   2.1759510795e+01    0.4654329    0.3782107 -73.47  0.001791426    1.138    0.121
       199  -8.9462    237.5001     27.4461   4.3260063251e+01   2.2267439868e+01    0.1319958    0.1185923 -68.83 -0.002054126    1.052    0.050
       200 -10.3820    238.5966     22.9428   4.2079105525e+01   2.2560735162e+01    0.3352841    0.2853984 -57.60  0.001059628    1.052    0.049
       201  -8.9490    149.7452     34.0262   5.7428933144e+01   4.3722897816e+01    0.2017418    0.1864372 -19.57 0.0004805372    1.138    0.121
       202  -9.4957    185.2318     33.4409   5.1149304778e+01   3.4556856002e+01    0.2048195    0.1358157  83.27 0.0009171639    1.628    0.386
       203  -9.5909    142.5069     32.2963   5.8296515123e+01   4.5789576614e+01    0.3216068    0.2510915  52.70  0.001028843    1.199    0.166
       204  -9.2246    203.9170     32.0117   4.8167423877e+01   2.9916722857e+01     0.239042    0.1531611 -66.53 0.0006288573    1.716    0.417
       205  -8.6773    120.4998     32.4332   6.3356333787e+01   5.1162752631e+01    0.1432981    0.1331879  30.71 0.0001002887    1.019    0.018
       206  -9.8137    111.9532     30.8820   6.4956851733e+01   5.3347797330e+01    0.4030829    0.2842522 -75.72  0.001626131    2.391    0.582
       207  -8.7460     11.9627     32.7819   1.0422407052e+02   6.8213215735e+01    0.1280598   0.08928215   5.94  0.000229486    1.599    0.374
       208  -8.8535    222.8334     31.6680   4.5825568790e+01   2.5240205802e+01    0.3558554    0.1289815  80.44  0.001105624    4.212    0.763
       209 -10.5718    181.8567     28.4166   5.0149643398e+01   3.6064581729e+01    0.5579847     0.354686  25.51  0.002442681    2.200    0.545
       210  -8.9990     20.2605     31.0130   9.9653934548e+01   6.7937224329e+01    0.1934888    0.1132496 -25.97 0.0004082774    1.585    0.369
       211 -10.5355     17.0813     27.2087   9.9759577027e+01   6.8885080501e+01     0.249261     0.182798 -26.38  0.000502096    1.118    0.106
       212  -8.8287    125.6881     30.0417   6.1196532198e+01   5.0237595133e+01    0.1958404    0.1756846   7.58 0.0003949134    1.116    0.104
       213  -9.3485    105.2631     29.2586   6.6132745098e+01   5.5059898221e+01    0.2817006    0.2052907  30.24  0.001402078    1.337    0.252
       214  -9.9559     47.7373     28.9050   8.6289849816e+01   6.5389643388e+01    0.3894816    0.2043563  45.05   0.00190713    2.602    0.616
       215  -8.8116    215.5589     28.2041   4.5744519263e+01   2.7463642719e+01    0.1847566    0.1363999 -11.97 0.0009454442    1.695    0.410
       216  -9.0393    117.3360     27.9818   6.2437441062e+01   5.2482666138e+01    0.2857735     0.187618  12.11 0.0009522632    1.869    0.465
       217  -9.4664    120.9911     26.2664   6.0880432491e+01   5.1834322766e+01    0.2856452    0.1982917  48.34  0.001074142    1.329    0.247
       218  -8.9347    222.1255     26.8470   4.4671528132e+01   2.6013332389e+01    0.1728124    0.1625032  32.55 0.0003910548    1.287    0.223
       219 -11.4913     69.0392    218.0237   1.1877511302e+02   2.1269382979e+01    0.4613028    0.2946549  56.61  0.001627406    1.279    0.218
       220  -9.0972     50.7505     25.4138   8.3474312824e+01   6.5541212515e+01    0.3327926    0.0899363 -35.53  0.001185845    3.590    0.721
       221 -10.1095     30.1428     24.0971   9.2177430921e+01   6.8254017256e+01    0.3939755    0.2100922 -47.85  0.002166022    1.820    0.451
       222  -8.3770    155.6624    215.2702   1.0126484129e+02   7.9904411151e+00    0.1300733    0.0922787  62.12 0.0003948809    1.600    0.375
       223 -11.1398    163.8845     22.4630   5.1059664407e+01   4.1463198019e+01    0.4922543    0.2683426  51.11   0.00141407    1.730    0.422
       224  -8.4655     98.4949     24.4182   6.6068969638e+01   5.7154434814e+01    0.1375747    0.1226061  20.37 0.0001235202    1.018    0.018
       225 -10.0876    228.5829     24.1021   4.3316477760e+01   2.4784496046e+01    0.4074752     0.205021 -68.75  0.001324795    2.385    0.581
       226  -9.5293    178.6794     22.7063   4.8890179450e+01   3.7569621138e+01    0.3373479    0.2195904 -62.53  0.001585824    1.733    0.423
       227  -9.2163      6.9344     23.2012   1.0333429764e+02   7.0318593125e+01     0.272514    0.1455858  13.05  0.001665436    2.128    0.530
       228  -9.7478      1.8111     21.9507   1.0551879775e+02   7.0841743309e+01    0.2493038    0.1173263 -49.79  0.001249457    1.552    0.356
       229  -9.1292    141.6867     21.9795   5.4822505373e+01   4.7240252846e+01     0.272909    0.1702645  39.09  0.000738094    1.636    0.389
       230  -9.3913    132.3944     21.1762   5.6404681827e+01   4.9659616404e+01    0.3740271    0.2114323 -46.71  0.001645823    2.126    0.530
       231  -8.8837     92.0121     22.5443   6.7195807703e+01   5.8751490856e+01    0.2495479    0.1334577  56.22 1.604534e-05    2.068    0.516
       232  -9.2053     81.2522    209.9812   1.1559529511e+02   2.1129142603e+01     0.169762    0.1372951  72.63 0.0003706046    1.046    0.044
       233 -10.2785    111.0787     19.4201   6.0614749593e+01   5.4957944545e+01    0.2987138    0.2637089  73.54  0.000921332    1.314    0.239
       234  -9.5428     53.0999     20.2450   8.0122015640e+01   6.5983538179e+01    0.2701094    0.1704816  19.83 0.0008556114    1.620    0.383
       235  -8.1587     54.6967     26.6787   8.2389251263e+01   6.4782269131e+01    0.1322364   0.08678113  -5.82 0.0007028905    1.632    0.387
       236  -8.9904    119.4583     19.7368   5.8714762778e+01   5.2963096349e+01    0.1905161    0.1319279  -1.48 0.0009449043    1.630    0.387
       237 -10.0153    149.5013     18.1807   5.2055800016e+01   4.5661906210e+01    0.3553472    0.2792067 -29.79  0.001428622    1.363    0.266
       238  -9.3201     28.7866     18.3383   9.0282377503e+01   6.9342655225e+01    0.1854408    0.1585211 -23.19 0.0007057517    1.218    0.179
       239 -10.1687    129.8367    206.0925   1.0516500799e+02   1.4128561654e+01    0.3842671    0.1641377  43.05  0.001684262    2.022    0.506
       240  -9.4939    101.9068     17.3033   6.2127407345e+01   5.7261311684e+01    0.3363525    0.2272511  88.77 0.0009767861    2.623    0.619
       241  -9.3221    124.0233    205.9898   1.0635484184e+02   1.5144496254e+01    0.1859288     0.160552  51.26  0.001152082    1.046    0.044
       242  -8.4204     24.3144     17.3668   9.2058010198e+01   6.9950863146e+01    0.2087415    0.1139137 -30.94 0.0007175077    1.516    0.340
       243  -9.9685     20.4918     15.7307   9.3258996226e+01   7.0576845303e+01    0.3134758    0.1680651  11.24 0.0006495626    2.104    0.525
       244  -8.9416    216.3420    187.6762   8.4529006085e+01   1.4921374085e+00    0.1247769    0.1100053  83.25 0.0007050813    1.730    0.422
       245  -9.7692      1.4435    185.8527   1.2935823025e+02   3.5264348620e+01    0.2866109   0.08367416 -78.88  0.001353783    2.727    0.633
       246 -11.1251      6.2025    168.9886   1.2737467794e+02   3.8433410624e+01    0.2929309    0.1678287  58.40  0.001503574    1.570    0.363
       247 -10.9464     19.3685    160.0525   1.2384568967e+02   3.9272148890e+01    0.2195227    0.1885239 -68.33  0.001575038    1.306    0.234
       248 -10.2321      4.6967    150.6587   1.2636427805e+02   4.2578052292e+01    0.2130705    0.1329577 -70.36  0.001356839    1.346    0.257
       249  -8.9879     67.9726     25.2658   7.6536508969e+01   6.2907047835e+01    0.1780803    0.1491119   6.96 0.0003373529    1.057    0.054
       250 -10.4421      7.4952    156.9543   1.2622792101e+02   4.0964024410e+01    0.1782181    0.1597762 -38.91 0.0006576451    1.573    0.364
       251 -11.2076      2.2618    154.2515   1.2717783126e+02   4.1961194522e+01    0.4262539    0.1786717 -72.63 0.0009736308    1.836    0.455
       252  -8.6197     16.6687    143.3043   1.2292581147e+02   4.3304193977e+01    0.1253773   0.07404084  70.24   0.00035391    1.657    0.396
       253  -9.1819    144.1603     14.2206   5.1627529496e+01   4.7439348669e+01     0.217189    0.1752429  40.06 0.0006416687    1.204    0.169
       254 -12.9970     76.5489    219.1751   1.1744149649e+02   2.0012948623e+01     1.791533    0.5987476  48.82  0.002768542    2.465    0.594
       255 -13.1975    234.3619    128.3869   6.8426850610e+01   7.6169301295e+00     1.161179     1.063112 -16.82  0.006651534    1.017    0.017
       256  -8.1570     66.6750     12.7067   7.1175985030e+01   6.4795293363e+01    0.1331126   0.08482888  13.94 0.0003599505    1.619    0.382
       257  -9.1253     21.4698    141.9901   1.2162391487e+02   4.3201137838e+01    0.1689924    0.1452944  81.55 0.0005775078    1.135    0.119
       258 -10.7642      6.8490    140.2407   1.2499885030e+02   4.4763478174e+01    0.3587899    0.1902021 -43.83  0.001082881    2.451    0.592
       259  -9.5144     28.8053    138.0363   1.1934880818e+02   4.3463431067e+01    0.1885266    0.1427274  83.89 0.0005187571    1.180    0.152
       260  -8.8017      1.0000    137.0069   1.2611868816e+02   4.5900944635e+01    0.1938649   0.05135871 -76.12 0.0007250822    2.884    0.653
       261  -8.6793     39.6912    131.2968   1.1563156912e+02   4.3989636851e+01       0.1306   0.08703578  74.04 0.0002283095    1.592    0.372
       262  -9.5220     32.8751    127.9911   1.1700717950e+02   4.5448368764e+01    0.3310344    0.1272681 -59.19  0.001311583    2.116    0.527
       263  -9.3661     38.8279     17.7582   8.5228816184e+01   6.8286139893e+01    0.1904514    0.1450972 -23.29            0    1.107    0.097
       264 -10.0902     29.7827    124.8258   1.1741657617e+02   4.6484163012e+01    0.3060009    0.2074962  -0.99  0.001349283    2.289    0.563
       265 -10.7166     12.8211    125.5297   1.2204718404e+02   4.7704664458e+01    0.4506094    0.1492081 -68.63  0.001751979    2.237    0.553
       266  -9.0317     37.5836    126.7163   1.1554914464e+02   4.5292943149e+01    0.1780572    0.1071342 -80.24  0.000680891    1.536    0.349
       267  -9.2528     52.7720    126.0476   1.1124527962e+02   4.3801886577e+01    0.1861994    0.1515205 -68.93 0.0003391381    1.064    0.060
       268  -8.6932      5.3028    129.3395   1.2437394029e+02   4.7354892448e+01    0.1196996    0.0707798 -53.86 0.0007038639    1.672    0.402
       269  -9.9019     93.2702    122.7016   9.9208250817e+01   3.8798070655e+01    0.2449548    0.2244112 -54.25 0.0001831595    1.074    0.069
       270  -9.8209     90.2785    122.2945   9.9957041572e+01   3.9395471576e+01    0.2227164     0.203018 -87.46 0.0002019675    1.087    0.080
       271  -9.1780     74.4001    122.3220   1.0445488224e+02   4.1856999739e+01    0.3602759    0.1944758  52.84  0.001565467    2.179    0.541
       272  -8.7379     76.4543    119.5290   1.0329878456e+02   4.2225229111e+01    0.2472769     0.201498 -19.57 0.0007744725    1.564    0.361
       273  -9.4000     30.8339    115.8200   1.1583772278e+02   4.8521835613e+01    0.2360357    0.1570065  62.83            0    1.695    0.410
       274 -10.5202     20.9750    118.9912   1.1906267582e+02   4.8608231919e+01    0.3182414    0.1746083 -51.91            0    1.720    0.419
       275 -10.6888     24.7263    116.5136   1.1767844914e+02   4.8885905954e+01     0.382931    0.2450278  25.84  0.001128698    1.935    0.483
       276 -10.4640     69.7891    118.2966   1.0497147548e+02   4.3479306526e+01    0.3455219    0.2619414 -81.17  0.001031999    1.367    0.268
       277  -8.9717     97.9339    118.0093   9.6840891387e+01   3.9100761023e+01    0.2268508    0.1818752  -8.30 0.0009177015    1.669    0.401
