#   1 NUMBER                 Running object number                                     
#   2 MAG_AUTO               Kron-like elliptical aperture magnitude                    [mag]
#   3 X_IMAGE                Object position along x                                    [pixel]
#   4 Y_IMAGE                Object position along y                                    [pixel]
#   5 X_WORLD                Barycenter position along world x axis                     [deg]
#   6 Y_WORLD                Barycenter position along world y axis                     [deg]
#   7 A_WORLD                Profile RMS along major axis (world units)                 [deg]
#   8 B_WORLD                Profile RMS along minor axis (world units)                 [deg]
#   9 THETA_WORLD            Position angle (CCW/world-x)                               [deg]
#  10 FWHM_WORLD             FWHM assuming a gaussian core                              [deg]
#  11 ELONGATION             A_IMAGE/B_IMAGE                                           
#  12 ELLIPTICITY            1 - B_IMAGE/A_IMAGE                                       
         1 -14.4185     68.4562    145.3533   8.9583341872e+01   3.7373096701e+01     2.739795     1.546523  79.29   0.01164463    2.448    0.591
         2 -13.1532    199.8880     46.6812   3.3911473347e+01   2.9091501414e+01     0.990601    0.9213973 -37.83  0.003219777    1.048    0.046
         3 -13.3266    208.3028     39.1157   3.0950250846e+01   2.8106567669e+01    0.8176364    0.7080775  24.67  0.001395396    1.379    0.275
         4 -11.9868    236.3391     16.8681   2.3099363952e+01   2.4505341713e+01    0.6743174    0.4155893  43.32  0.003482032    2.199    0.545
         5 -12.6005    233.3124     11.1996   2.1916168991e+01   2.5665371729e+01    0.7612172    0.5958722  34.46  0.004870069    1.695    0.410
         6 -10.4343     19.6126      6.8003   7.5140268183e+01   7.6914826081e+01    0.1814759    0.1198554 -59.92 0.0009628308    1.734    0.423
         7 -10.7735     53.2444      3.0093   4.8811156842e+01   7.1721752386e+01    0.4526561    0.1862781  65.82  0.001435301    4.382    0.772
         8 -10.0765     71.9189    243.3669   9.7903938480e+01   1.7896649957e+01     0.321699    0.2108267  70.34  0.001638496    1.767    0.434
         9 -11.3893    139.8853    249.1785   8.4983620465e+01   9.0984225865e+00    0.3053983    0.2112607  35.49  0.002244042    1.208    0.172
        10 -15.9862     36.9712    187.4018   1.0225429621e+02   3.1756120899e+01     10.07409     3.441907  62.72   0.02713612    3.382    0.704
        11  -9.0508    167.3038    226.3488   7.7187754723e+01   8.5680020990e+00    0.1158798   0.07310504   4.61 0.0007040701    1.697    0.411
        12 -10.1364    135.6439    214.1780   8.1910072183e+01   1.4463123310e+01    0.1504596    0.1064079 -31.14 0.0005390617    1.725    0.420
        13  -9.9965     72.8510    203.7585   9.4758653236e+01   2.4505724226e+01    0.3532907    0.2529377 -35.01  0.001957041    1.975    0.494
        14  -9.3015     86.2032    204.1368   9.1682755227e+01   2.2765111928e+01     0.170931    0.1490467  26.33 0.0003669931    1.166    0.142
        15  -9.3964     89.9808    201.9509   9.0588043407e+01   2.2671903093e+01    0.2125854    0.1584643  23.19 0.0003623473    1.293    0.226
        16 -10.6859    192.6920    194.4494   6.7883590548e+01   9.2685259929e+00     0.634609    0.3819401 -59.46  0.002717876    4.907    0.796
        17  -9.8802     56.1673    192.4545   9.7836037919e+01   2.8660825642e+01      0.21945    0.1546758  60.18 0.0006511937    1.297    0.229
        18  -8.6134    163.2907    192.3159   7.3185677707e+01   1.3808173895e+01    0.1242066   0.08500366   3.74            0    1.595    0.373
        19  -9.7403    126.9975    190.5344   8.0688184410e+01   1.9506118695e+01    0.1976909    0.1073899  34.12 8.100471e-05    1.530    0.346
        20  -9.5449     82.5969    194.6713   9.1592453881e+01   2.4988891617e+01    0.2720438    0.1916836  32.34 0.0009082098    1.210    0.174
        21 -10.3858    109.7901    189.0035   8.4449620356e+01   2.2303558349e+01    0.2029992    0.1420612 -18.24  0.001083309    2.017    0.504
        22 -12.6727     56.4641    179.9003   9.6729220432e+01   3.1198473033e+01    0.7598608    0.6913794 -27.76  0.003832924    1.408    0.290
        23 -11.0794     99.1128    181.3362   8.6036806863e+01   2.5291746230e+01    0.3901578    0.2766112 -58.54  0.001059563    1.646    0.393
        24  -9.9045     74.7027    180.8618   9.2119447231e+01   2.8743527416e+01    0.5251615    0.2652364  85.19  0.002188637    3.256    0.693
        25 -11.2132    120.6755    180.5278   8.0725150361e+01   2.2233971061e+01    0.2964702    0.2371929 -89.62 0.0008280335    1.708    0.415
        26 -11.5662    239.7392    171.0941   5.6133821581e+01   5.6835098349e+00    0.3626301    0.1594194  23.14  0.001791592    2.713    0.631
        27 -10.5943    104.9854    248.0084   9.1618195337e+01   1.3422800648e+01     0.199488    0.1675819  48.22 0.0006247936    1.278    0.218
        28  -9.9355    179.0392    169.0205   6.6157217398e+01   1.4882589297e+01    0.2016055    0.1704548  12.79  0.001291474    1.006    0.006
        29  -8.5461    144.5107    168.5203   7.3326535108e+01   2.0595311310e+01    0.1346223    0.1166902  24.10 4.921084e-05    1.003    0.003
        30  -9.5052    110.6318    167.7511   8.1270660284e+01   2.6222474610e+01    0.2566823    0.1908521  69.05  0.001363443    1.674    0.402
        31 -12.9723     99.1560    169.5463   8.4445769884e+01   2.7626109794e+01     1.976508    0.4456237  44.30    0.0055623    4.372    0.771
        32 -11.0004    230.4076    166.7257   5.6768518753e+01   7.4605538109e+00     0.327244    0.1569592 -41.03   0.00169658    2.534    0.605
        33  -9.0223    101.1015    162.8100   8.2964431782e+01   2.8709091654e+01    0.2113755    0.1663838  57.67 0.0007309444    1.299    0.230
        34 -10.0066    106.6560    236.8508   9.0315499123e+01   1.4825924579e+01    0.1324051    0.1050952  87.20 0.0009482847    1.763    0.433
        35 -10.5393     75.2130    247.8276   9.7526087069e+01   1.6855870723e+01    0.4359357    0.1514025 -61.37  0.002337433    3.653    0.726
        36 -17.8765      9.8804    238.7479   1.1022697716e+02   2.4726551708e+01     6.726131      4.30001  87.15   0.01928568    1.698    0.411
        37 -11.6104    133.9381    146.2408   7.1754241767e+01   2.6529210551e+01     1.263283    0.3591782 -55.11  0.003256141    6.522    0.847
        38 -11.6586     89.6827    148.8646   8.3923157543e+01   3.3470605645e+01    0.6936987    0.4846655  -9.25  0.003214761    2.211    0.548
        39  -9.1857    174.8091    149.0518   6.3220712051e+01   1.8713843023e+01    0.1853433    0.1840017   7.63 0.0005841719    1.254    0.203
        40  -8.7851    179.5160    141.4913   6.0748394426e+01   1.9098372280e+01    0.1340195    0.1204997   7.27 0.0002065961    1.020    0.019
        41 -10.8768    104.4712    133.4158   7.7013944334e+01   3.4459454591e+01    0.8675199    0.3990715 -37.76  0.002244299    3.149    0.682
        42 -11.6532     90.3825    135.3702   8.1462922559e+01   3.6404177768e+01    0.2730353    0.2658569 -35.43 0.0005786341    1.135    0.119
        43 -10.9338     82.3572    155.3138   8.6943654379e+01   3.3140407989e+01    0.2572467    0.2414169  48.14 0.0003606581    1.064    0.060
        44 -10.4647    135.6564    130.1530   6.8033680535e+01   2.9368254442e+01    0.3653354    0.2480398 -48.81  0.001250103    1.586    0.369
        45 -11.0102     43.9867    129.6799   9.5287804641e+01   4.4210350404e+01    0.2784138    0.2385231  62.07 0.0008212161    1.060    0.057
        46 -11.4073     39.4669    127.4595   9.6542052215e+01   4.5252325468e+01    0.4426378     0.282223 -73.67  0.001889048    1.531    0.347
        47  -9.9269    112.0191    127.8808   7.3773148484e+01   3.4314213767e+01    0.3277491    0.2319394  24.23  0.001154345    1.566    0.362
        48  -9.0633    143.1770    126.1615   6.5319264341e+01   2.8683510651e+01    0.2076167    0.1875884  14.90 0.0004665655    1.099    0.090
        49  -9.0798    126.0993    126.1144   6.9587048308e+01   3.2028653185e+01    0.1999744    0.1756564  79.06 0.0004541169    1.328    0.247
        50 -10.4587     98.9305    123.5803   7.6652988510e+01   3.7645178933e+01    0.3015103    0.2551335   6.97 0.0007640022    1.389    0.280
        51 -11.5934     69.7185    167.3880   9.1961190703e+01   3.2235107655e+01    0.4217606    0.3053924 -12.24  0.001518148    2.031    0.508
        52 -10.1381    118.1572    122.5317   7.0922209685e+01   3.4311467609e+01    0.4830349    0.2761332  13.93  0.001582897    3.714    0.731
        53 -10.1827    135.3144    120.9005   6.6048364064e+01   3.1277702442e+01    0.3421288    0.1361367 -46.19  0.001238444    2.639    0.621
        54  -9.4495    162.0901    119.4999   5.9491636410e+01   2.6142516000e+01    0.4692849    0.2890204 -67.91  0.001762122    3.309    0.698
        55 -11.4608     33.7313    118.6811   9.7525765255e+01   4.8045487404e+01    0.4343816    0.3451329 -54.30  0.001937241    1.350    0.259
        56 -11.3771     73.9876    162.9932   9.0277461720e+01   3.2625270368e+01    0.2858033    0.2304884 -29.98  0.001621898    1.590    0.371
        57  -9.1475    108.0013    117.3643   7.2633811647e+01   3.7378373703e+01    0.2096956    0.1759844  41.27 0.0003250715    1.135    0.119
        58  -9.8830    134.4332    106.5914   6.2803458458e+01   3.4327256106e+01    0.5802839    0.1380638 -48.61   0.00145573    5.269    0.810
        59  -9.6809    205.4056    110.3714   4.9258008976e+01   1.9094627495e+01    0.2621965    0.2095152  27.40 0.0009274998    1.289    0.224
        60 -10.4501     87.0266    173.0325   8.8039800450e+01   2.8681068257e+01    0.4798805     0.266976  23.84  0.001941361    1.894    0.472
        61 -10.8156    116.1920    108.7902   6.8256456616e+01   3.7654592483e+01    0.5830388    0.3577311  52.42  0.002517025    1.712    0.416
        62 -10.8916    119.0177    103.9226   6.6236529605e+01   3.8119811697e+01    0.3226491    0.2690386 -34.15  0.001155304    1.283    0.221
        63 -11.4420     42.0862    104.0006   9.2451016533e+01   5.0937981661e+01    0.4733993     0.309331  43.59  0.001548413    1.486    0.327
        64 -10.3433    112.2775    103.8576   6.8147540242e+01   3.9520254578e+01    0.2735443    0.2032921  53.60 0.0005875687    1.373    0.272
        65  -8.9642     66.6394    104.2938   8.3277689062e+01   4.7636232757e+01    0.1584443    0.1061745  62.95 0.0007030562    1.702    0.412
        66 -10.0181     34.1352    100.3160   9.5011076133e+01   5.2727521590e+01    0.2609669    0.1937665 -88.43 0.0006389889    1.308    0.236
        67 -10.4112     29.6652     98.2421   9.6513620014e+01   5.3690321118e+01    0.2989392    0.2308341 -61.19  0.001647741    1.265    0.209
        68 -10.2634    120.6258     97.9177   6.4209769466e+01   3.9051757943e+01    0.2906592    0.2234647  53.66 0.0006326557    1.316    0.240
        69  -9.8933    105.4411     97.9440   6.8660881516e+01   4.2215251966e+01    0.2925937    0.2058329  58.84 0.0009510985    1.572    0.364
        70 -10.1056     32.0135     85.8559   9.3627423322e+01   5.6697829730e+01     0.416256    0.2292744  56.97  0.001837851    2.040    0.510
        71  -8.5830    159.2162     84.5893   5.1139163546e+01   3.2932862202e+01    0.2012723    0.1365847  41.71 0.0006422963    1.534    0.348
        72 -10.2329     34.8418    171.5785   1.0180214209e+02   3.5334857869e+01    0.2856895      0.17538  65.81 0.0004405839    1.509    0.338
        73 -12.7653    187.2585     55.8411   3.8089449819e+01   3.0814423763e+01    0.8259494    0.6644925  37.75 0.0007740833    1.402    0.287
        74 -11.0481    105.1409    243.8496   9.1236675717e+01   1.3992710594e+01     0.202777    0.1608138 -40.13   0.00106365    1.701    0.412
        75 -11.0617    102.3758    241.8525   9.1620878750e+01   1.4610698510e+01    0.2772014    0.1839257 -50.62  0.001918122    2.023    0.506
        76  -9.5061    187.0000    165.9868   6.4075295406e+01   1.4063736486e+01    0.1935251    0.1102997 -48.88 0.0009497399    2.398    0.583
        77  -9.7201     21.9655     41.0000   8.8813385279e+01   6.9031157477e+01    0.2089738    0.0769011  20.32 0.0006979506    2.917    0.657
        78 -15.6606      8.5270    207.9189   1.0982214494e+02   3.0282694669e+01     1.331744    0.9881026 -19.44  0.008971622    2.116    0.527
        79  -9.4540    112.3046    246.3392   9.0033041973e+01   1.2787054517e+01    0.1058474   0.07448813   5.32 0.0007040229    1.676    0.403
        80  -9.3334     60.3558     20.9765   5.6729555240e+01   6.7528291214e+01    0.1989771    0.1771995 -25.19 0.0004492346    1.126    0.112
        81  -9.4903     32.6758     20.3103   7.2759083552e+01   7.2524548709e+01     0.129381    0.1075646  72.84 0.0007038001    1.654    0.395
        82 -10.6176     62.0275    245.9948   1.0006007965e+02   1.8564916194e+01    0.2649189    0.1478183 -75.38  0.001755603    2.331    0.571
        83  -9.2448    189.7903     15.0830   2.5995430843e+01   3.5077762013e+01    0.2153973    0.1617798 -53.24 0.0007067049    1.204    0.170
        84  -8.5180    196.5618     14.5090   2.5260257115e+01   3.3503259499e+01    0.1337405    0.1166052 -54.77 0.0001059688    1.009    0.009
        85  -8.6897     44.9624    246.5247   1.0350333151e+02   2.0241122090e+01    0.1519801   0.07754854  33.22  0.000468529    1.420    0.296
