#   1 NUMBER                 Running object number                                     
#   2 MAG_AUTO               Kron-like elliptical aperture magnitude                    [mag]
#   3 X_IMAGE                Object position along x                                    [pixel]
#   4 Y_IMAGE                Object position along y                                    [pixel]
#   5 X_WORLD                Barycenter position along world x axis                     [deg]
#   6 Y_WORLD                Barycenter position along world y axis                     [deg]
#   7 A_WORLD                Profile RMS along major axis (world units)                 [deg]
#   8 B_WORLD                Profile RMS along minor axis (world units)                 [deg]
#   9 THETA_WORLD            Position angle (CCW/world-x)                               [deg]
#  10 FWHM_WORLD             FWHM assuming a gaussian core                              [deg]
#  11 ELONGATION             A_IMAGE/B_IMAGE                                           
#  12 ELLIPTICITY            1 - B_IMAGE/A_IMAGE                                       
         1 -14.2081      8.2858     67.5255   7.4514013168e+01   6.4445293417e+01     2.483525     1.446656   3.20   0.01175979    1.742    0.426
         2 -13.2225     62.1854     44.5736   3.8417574404e+01   6.1176760326e+01    0.8998079    0.6282067 -78.92  0.001623407    2.446    0.591
         3 -12.2731     26.1909     40.3385   5.4484161705e+01   6.8423242602e+01      1.34985     0.715937 -37.50  0.006308659    2.048    0.512
         4 -12.5750     50.6425     34.9930   3.9193027513e+01   6.5053616110e+01      1.30425    0.8365507  36.47  0.005496026    1.451    0.311
         5 -11.2563     30.7940     19.8944   4.1813410156e+01   7.1078848785e+01    0.8761859    0.6018326 -53.10  0.004771082    2.041    0.510
         6 -11.6382     41.7824     21.2682   3.6742046835e+01   6.8801418340e+01     0.892465    0.7122856   7.98  0.004083715    1.382    0.276
         7 -13.5024     63.6441     33.9139   3.3458179002e+01   6.2494967594e+01     1.098684     1.021753  67.46  0.003911332    1.133    0.117
         8 -13.6104     75.0117     21.0722   2.4338009887e+01   6.1567947320e+01     1.747484     1.033953  74.34  0.008567881    1.833    0.454
         9 -13.6681      5.6115     43.4585   6.9466616003e+01   7.0177855668e+01     2.652548    0.7217458 -59.02  0.009674077    3.426    0.708
        10 -13.3898     14.3504     34.9604   5.9971192269e+01   7.1026961047e+01    0.7067704    0.6063938 -44.93  0.001859159    1.303    0.233
        11 -13.4371     51.7197     57.0512   4.7699148979e+01   6.1002583981e+01     1.837821     1.090925  59.87  0.007631785    2.461    0.594
        12 -12.6684    232.0952     57.6454   1.1772906636e+01   2.4178546048e+01        1.327    0.3935037 -49.26  0.005723673    2.650    0.623
        13 -14.4898    199.4837     82.1182   1.9751024902e+01   2.6274985181e+01     2.480877     1.287344  36.23  0.009581071    3.914    0.745
        14 -12.7145    203.2316     36.1781   9.8400342824e+00   3.1662326039e+01      1.34397    0.4284412 -53.15    0.0062184    2.794    0.642
        15 -13.2188    196.2453     47.9433   1.2904170021e+01   3.1523095817e+01    0.8086985    0.4764566 -41.52 0.0008321752    1.477    0.323
        16 -11.2846     51.3588     19.8049   3.1765043743e+01   6.7013021659e+01    0.9647793    0.5811591  82.50  0.003899989    3.430    0.708
        17 -12.6901    226.7828     22.4481   5.6055239168e+00   2.9091793068e+01    0.3684733    0.2467405  87.22  0.001620946    1.493    0.330
        18 -12.1531    210.8813     21.4490   6.3363489731e+00   3.1926052592e+01    0.4124475    0.3031687  51.89  0.002166323    1.959    0.490
        19 -11.2290    102.8896     26.7855   1.9900515490e+01   5.4352778439e+01    0.4483488    0.3190994 -54.00  0.001620436    1.503    0.335
        20 -12.1686    244.0514     22.7693   4.7742022555e+00   2.6302585697e+01      0.46639    0.2278046  88.17  0.002661196    2.179    0.541
        21 -11.2876    125.2568     15.2616   1.2495477972e+01   5.0316047012e+01     0.457195     0.204315 -36.39  0.001620926    2.254    0.556
        22 -10.2283    124.9444      9.0647   1.0655395266e+01   5.0977499673e+01    0.1983735    0.1387503 -71.46  0.001199165    1.333    0.250
        23 -11.3780    202.1983     20.9322   6.7826997377e+00   3.3549700437e+01    0.3542976     0.163985 -52.59  0.001059116    1.705    0.414
        24 -10.5938    203.9078     16.8629   5.8459687564e+00   3.3662763865e+01    0.3531915    0.1536299 -81.13  0.001791599    2.447    0.591
        25  -7.3702    169.5208     18.5103   8.6875588999e+00   4.0205382298e+01    0.3242542    0.1518073 -52.43  0.001757618    1.862    0.463
        26  99.0000    172.3784     16.4649   7.9677790528e+00   3.9826919300e+01    0.4475126    0.1894223 -75.83  0.002082868    2.737    0.635
        27 -10.6221    230.5497      1.6325   1.6480825292e+00   3.0552530373e+01    0.3699002    0.1088912  88.36  0.001856376    3.749    0.733
        28 -12.5398    221.5253      8.6046   3.3006554523e+00   3.1387774891e+01     0.537073    0.1597397 -48.63  0.002974061    2.254    0.556
        29 -13.7614    244.7258      8.4634   2.2890494208e+00   2.7645807332e+01    0.9476324    0.3709437 -77.61  0.005752798    2.609    0.617
        30 -12.8091    228.3688      9.9867   3.2417372746e+00   3.0104922178e+01    0.4473523    0.2059164 -66.47   0.00061596    1.818    0.450
        31  -9.7584    187.3155     14.0239   6.3143713403e+00   3.7085740124e+01    0.1998598   0.09937375 -27.27  0.001107079    2.362    0.577
        32 -11.3656    149.9988     13.5019   9.2064399549e+00   4.4887951823e+01    0.2465938    0.1570068 -58.41 0.0005067456    1.416    0.294
        33  -9.9720    146.7406     12.3450   9.2178050532e+00   4.5720063995e+01    0.2054912    0.1196524 -64.08   0.00116368    1.602    0.376
        34  -9.7757     99.9952      6.0000   1.3097655802e+01   5.7124874604e+01    0.2150249   0.09633555  85.27 0.0009251303    2.439    0.590
        35 -10.0747    102.6883     13.0025   1.5133199251e+01   5.5851516528e+01    0.2155417    0.1424967 -11.31  0.001169814    2.100    0.524
        36 -10.1522    102.1274      9.6134   1.4035916349e+01   5.6299760749e+01    0.1991917    0.1877607  75.52  0.001363795    1.162    0.140
        37 -10.0643    108.8495     10.3638   1.3239515740e+01   5.4635030072e+01    0.6032358    0.2329189 -27.79  0.002708681    2.916    0.657
        38 -10.8803    112.0969      4.6631   1.0884597050e+01   5.4369548638e+01    0.4107146    0.2144679 -87.51  0.002055796    1.938    0.484
        39 -11.3484    114.9754     12.9456   1.3186897626e+01   5.2946252762e+01    0.2521904     0.177206  78.55  0.001499934    1.217    0.178
        40 -11.9389    116.3671      8.8242   1.1667524818e+01   5.3001387786e+01    0.4289492    0.3245841 -68.81  0.002314529    1.261    0.207
        41 -12.3512    172.9749      6.6848   5.6446309223e+00   4.0667781684e+01    0.3427598    0.2400048 -44.00  0.000487989    1.358    0.264
        42 -11.8380    173.7177      3.3073   4.8162193883e+00   4.0830467441e+01    0.1834032    0.1330418 -51.10 0.0006528001    1.236    0.191
        43  -9.6956    133.6222     11.9238   1.0486860195e+01   4.8713106666e+01    0.1710487    0.1375489 -70.15  0.001121806    1.121    0.108
        44 -10.2015     88.3016     12.0879   1.7492522775e+01   5.9365563919e+01    0.1872273    0.1548507  49.24 0.0006545894    1.226    0.184
        45 -11.5199     57.5131      3.6281   2.1496644390e+01   6.7342128509e+01    0.6398721    0.3790408  81.75  0.003228865    2.025    0.506
        46 -11.7280     85.1203      1.9406   1.4121731981e+01   6.1004030285e+01    0.3660097    0.1716714  54.02  0.001218392    1.853    0.460
        47 -11.3198     66.7882      8.6112   2.1177270734e+01   6.4760027694e+01    0.3767619    0.2147231  77.57  0.001801195    1.910    0.476
        48 -12.1690     68.1705      2.8765   1.8182089406e+01   6.4939718719e+01     0.846477    0.4932371  83.52  0.002282063    1.879    0.468
        49 -10.2897     84.1015      7.3428   1.6485674188e+01   6.0797303575e+01    0.3394263    0.1630318  48.59  0.001530053    1.992    0.498
        50 -11.9080     78.4117      9.8884   1.8776654903e+01   6.1917865258e+01    0.4331018    0.2006155  69.44 0.0004382477    1.934    0.483
        51 -11.5258     76.9558      5.0523   1.7068824687e+01   6.2689992280e+01    0.2135377    0.1822666  37.05 0.0003687417    1.288    0.223
        52 -10.9907     26.1819     10.0003   3.8849656147e+01   7.3246533382e+01    0.2496654    0.1841153  16.06  0.001500357    1.378    0.274
        53  -9.2922     93.0000      9.9551   1.5755299435e+01   5.8444077116e+01    0.1709232   0.07421123 -25.72 0.0004254806    2.730    0.634
        54 -11.3196    193.9665      7.7853   4.5654607679e+00   3.6424363215e+01    0.2059979    0.1795753  78.85 0.0009539322    1.374    0.272
        55 -10.8673     46.4503      2.1565   2.4462718449e+01   6.9952211826e+01     0.292169    0.2159776  42.93  0.001595855    1.183    0.154
        56 -10.9389     47.8196      8.2486   2.7255497305e+01   6.9072643924e+01    0.3217414    0.2622067  44.10  0.001143377    1.058    0.055
        57 -10.2913     44.3172      7.3512   2.8175500134e+01   6.9919601759e+01    0.2047094    0.1612812  10.89 0.0008050097    1.442    0.307
        58 -10.2427    215.8625      8.1194   3.4772963015e+00   3.2409351003e+01     0.152324   0.09810887 -60.96 0.0003028256    1.143    0.125
        59  -9.5070    156.3632      8.2644   7.2845894003e+00   4.4007017623e+01    0.1115026   0.07966843  55.55 0.0006986024    1.643    0.391
        60  -9.4266    131.4778      8.4978   9.7343313466e+00   4.9523537302e+01    0.1227249    0.1013537 -88.95 0.0001962103    1.022    0.021
        61 -11.1204      3.5303      5.9707   5.3336228892e+01   7.7371632311e+01    0.3575048    0.2069884  12.73  0.001700978    1.746    0.427
        62  -9.4938    210.7504      5.9734   3.3114961074e+00   3.3516529020e+01    0.1211274   0.07321223 -41.33 0.0004809533    1.445    0.308
        63 -10.9591    183.6580      3.6243   4.2750550424e+00   3.8811764921e+01     0.208863    0.1697011  87.19  0.001389347    1.239    0.193
        64 -11.5379    217.6624      2.3380   2.3008866565e+00   3.2652599561e+01    0.2074576     0.155017  89.41 0.0009834373    1.337    0.252
        65 -10.3175    213.0185      2.2999   2.4971030980e+00   3.3465402120e+01    0.1534163    0.1289528  78.21 0.0006957919    1.459    0.314
        66  -9.6232    126.6975      2.2853   8.4179522962e+00   5.1165156198e+01    0.1246437   0.07576849 -69.03 0.0002244828    1.558    0.358
        67  -9.8189    110.4016    241.1948   6.6575126287e+01   9.9345375464e+00    0.1535697    0.1281746 -73.79 0.0009456225    1.676    0.403
        68  -9.5844    218.5216    239.5342   4.4722491010e+01  -4.6734533855e-01    0.1080926   0.07735036 -14.24 0.0001710192    1.033    0.032
        69  -9.9870     15.8302    238.4144   8.9885058244e+01   1.9858763534e+01    0.1690882    0.1102232   6.59 0.0003512939    1.613    0.380
        70  -9.9206    236.7003    145.9849   2.7209425875e+01   1.1258340441e+01    0.1565299    0.1098594 -36.76 0.0003509699    1.078    0.072
        71  -9.3846    184.7818    134.9529   3.2719576505e+01   2.0169078373e+01    0.1703838   0.09161859 -41.39 0.0004392485    1.614    0.381
        72 -11.4039     72.9798    119.0330   5.7221667843e+01   4.3264391351e+01    0.2272549    0.2204008 -46.35  0.001216503    1.055    0.052
        73 -10.9043    181.1560    118.9201   3.0056888124e+01   2.3544919016e+01    0.1936978    0.1612498 -59.17 0.0004132259    1.219    0.180
        74 -10.5632    164.6251    115.9324   3.2298775232e+01   2.6951836565e+01    0.3945998     0.252787 -80.53  0.001678564    2.940    0.660
        75 -13.6303     36.5418     56.3121   5.4880427961e+01   6.3715915540e+01     1.583997     1.143373  12.96  0.005687875    1.438    0.305
        76 -10.1494      3.0253     95.9725   8.2653660350e+01   5.7511895031e+01    0.2076157    0.1947535 -41.03 -0.002661949    1.012    0.012
        77 -12.3339    168.7907     79.4652   2.3301651514e+01   3.2360915578e+01    0.6455514    0.3193952 -44.87  0.001424198    1.817    0.450
        78 -13.2993    185.7021     60.3370   1.6695627828e+01   3.1883492115e+01     1.482906    0.6332885  57.59 0.0008124119    2.527    0.604
        79 -10.0140    203.6195    115.9879   2.6063762168e+01   2.0393941028e+01    0.3145725    0.1766062  75.19   0.00136154    3.965    0.748
        80  -9.4691    191.1910    112.6373   2.7180635703e+01   2.2928754214e+01    0.1474755    0.1164434  34.98 0.0003853116    1.554    0.357
        81 -12.8889    175.6574     85.9857   2.3767602417e+01   3.0009434038e+01    0.9220509    0.6031983  21.56  0.004259554    3.065    0.674
        82 -13.2073    194.1844     67.7879   1.7351911127e+01   2.9269826223e+01    0.8964601    0.7120402  32.66  0.005520302    1.858    0.462
        83 -11.2027    213.7055     41.4340   1.0090488330e+01   2.9182822420e+01    0.3771494    0.2009358 -70.36  0.001557407    1.899    0.473
        84 -10.1111    173.0938    112.2935   3.0001454348e+01   2.6087843450e+01     0.312987    0.1459782  35.57  0.001266157    3.241    0.691
        85 -13.0708    178.8251     73.6908   2.0543252424e+01   3.1294236419e+01     1.200753    0.7010575 -76.25  0.005820848    2.366    0.577
        86 -12.1855    165.7057     65.9496   2.0553137933e+01   3.5032552925e+01    0.8208258    0.4674713  61.11  0.004275539    1.813    0.448
        87 -12.8837    220.3315     53.0928   1.1845583372e+01   2.6641622488e+01     1.481748    0.4158149 -48.53  0.006849995    2.793    0.642
        88 -12.6822    208.9988     47.5752   1.1693732815e+01   2.9263200933e+01     1.083642    0.4185598 -55.09  0.005417883    2.404    0.584
        89 -12.7933    221.1938     38.7468   9.0219842159e+00   2.8218918022e+01    0.7884902    0.3365081 -68.38 0.0005996476    2.723    0.633
        90 -11.7264    233.9634     37.1167   7.8769037044e+00   2.6317216503e+01    0.4225763    0.1940917 -61.40   0.00178759    1.939    0.484
        91 -10.6506    133.2256    110.2191   3.7467333441e+01   3.3958605126e+01    0.1914672     0.165117 -82.35 0.0003191664    1.312    0.238
        92 -12.0099    188.2077     43.2841   1.2659479852e+01   3.3623501134e+01    0.4891912    0.3649224  28.16  0.000302628    2.306    0.566
        93 -13.6054    207.3495     67.3444   1.5849720390e+01   2.6994186124e+01    0.7263448    0.6631194  30.08  0.005387019    1.548    0.354
        94 -11.7827    173.2270     44.0950   1.4390860226e+01   3.6487557444e+01     0.789797     0.404044  74.94  0.003197184    2.017    0.504
        95 -12.2637    177.9768     38.3947   1.2562007362e+01   3.6233290265e+01    0.7913839    0.3786694  52.40  0.003696372    2.597    0.615
        96 -11.6479    186.6063     37.3122   1.1490996216e+01   3.4658398199e+01    0.4153411    0.2272459  69.89 0.0004166977    1.845    0.458
        97 -12.3473    189.6694     31.2795   9.8977212602e+00   3.4769663406e+01    0.4123246    0.3733253  62.90 0.0001292585    1.424    0.298
        98 -13.6345    241.9989     60.6380   1.1566633327e+01   2.2298428147e+01     1.282626    0.4265649 -49.15  0.002843119    2.291    0.563
        99 -12.8399    238.0462     51.2082   1.0160182363e+01   2.4038930385e+01     1.038121    0.4907278 -84.30  0.005510168    2.985    0.665
       100 -12.4776    232.1508     46.7347   9.7566024782e+00   2.5491698571e+01    0.5436128    0.2753485  53.64  0.003304495    2.798    0.643
       101 -11.6569     54.4611     93.6715   5.8067384162e+01   5.2512553616e+01    0.3240496    0.2752452 -88.99 0.0009388856    1.421    0.296
       102 -10.3524    250.3027     93.9086   1.6731702910e+01   1.6863010832e+01    0.1603053    0.1050993 -49.10 0.0005299103    1.172    0.147
       103 -11.5697    214.9514     92.7984   2.0091830930e+01   2.2150766061e+01    0.2531568    0.1919055 -31.41 0.0002799543    1.341    0.254
       104 -11.6874    212.3102     89.6443   1.9774881819e+01   2.3030596653e+01    0.2041894     0.145852 -64.85 0.0007656987    1.414    0.293
       105  -9.8209     79.2309     91.1496   4.7821401124e+01   4.8716297058e+01    0.2170779    0.1994494   6.76 0.0005659527    1.148    0.129
       106  -9.6469     85.9821     90.0314   4.5202631629e+01   4.7637553367e+01    0.1792493    0.1732589  42.25 0.0005381048    1.002    0.002
       107 -10.2695    247.1403     88.0614   1.5995672162e+01   1.8062427717e+01     0.257112    0.1778586  20.61  0.001609211    2.987    0.665
       108 -10.8422    248.2284     83.3957   1.5087000354e+01   1.8523473467e+01    0.2603355    0.1790203 -62.49  0.001856465    1.390    0.281
       109 -10.0967    245.0867     80.4980   1.4844457278e+01   1.9337746153e+01    0.1610031    0.1104262 -45.24 0.0004908012    1.087    0.080
       110 -12.2530    235.6623     85.7643   1.6627522861e+01   1.9991062831e+01    0.5281895    0.2732427  81.33  0.002408252    3.385    0.705
       111 -12.5420    222.7158     87.3428   1.8198479945e+01   2.1716850252e+01    0.5140656    0.3281028  68.03   0.00336065    1.943    0.485
       112 -10.9321    221.0084     79.7347   1.6919098363e+01   2.3040567583e+01    0.2088043    0.1408647 -37.25 0.0005406349    1.333    0.250
       113 -10.9109      6.9682     88.7199   7.9529669242e+01   5.9189440032e+01    0.2872832    0.1833169  79.40 0.0009693721    1.976    0.494
       114 -10.9932    110.5978     86.9658   3.7023548613e+01   4.3171937784e+01    0.3210531    0.2580744 -39.27   0.00114377    1.301    0.231
       115 -12.5594    114.5910     81.6115   3.4491343219e+01   4.3331905865e+01    0.7016897    0.4867053 -33.83  0.002645414    1.611    0.379
       116 -11.1919    105.4652     86.7290   3.8345809479e+01   4.4304146460e+01    0.4329613    0.2590961 -68.57  0.001687597    2.624    0.619
       117 -10.4538    112.7148     75.4801   3.3205225649e+01   4.4857000915e+01    0.2732213    0.1964919  -8.46  0.001114912    2.208    0.547
       118 -11.8054    161.3955     84.5315   2.5670150745e+01   3.3010784057e+01     0.636739      0.41188  47.44   0.00289251    1.738    0.425
       119 -11.6148    147.9686     84.4962   2.8026653980e+01   3.5736293260e+01    0.4173696    0.3538714 -89.68  0.001467256    1.225    0.184
       120 -11.8770    147.3366     79.2950   2.6834160612e+01   3.6741479727e+01    0.3172488    0.2670857 -59.35 0.0008086361    1.123    0.109
       121 -10.8100     30.4825     85.9505   6.6996874351e+01   5.7749306848e+01    0.2909881    0.1934711 -36.98  0.001362985    1.539    0.350
       122 -11.4806    218.9745     82.9499   1.7745239339e+01   2.2917570433e+01    0.2107472    0.1687146 -43.61 0.0003587017    1.116    0.104
       123 -11.0390    238.2389     80.8124   1.5494685940e+01   2.0277281921e+01    0.1864544     0.160568 -14.57            0    1.563    0.360
       124 -12.9322    104.7348     65.6465   3.2288104594e+01   4.8345487026e+01    0.9831766    0.5487035  37.88            0    2.161    0.537
       125 -11.3048    123.9957     69.0415   2.8725649751e+01   4.3479437811e+01    0.5061471    0.3069562 -76.85  0.001478711    2.625    0.619
       126 -11.0589    100.1051     80.8789   3.8167191667e+01   4.6582093485e+01    0.3709181    0.2706185  66.21  0.001676278    1.539    0.350
       127 -11.9489     97.2981     76.1028   3.7550170719e+01   4.8096248558e+01    0.5839887    0.4660695  86.55  0.001713273    1.513    0.339
       128 -13.4950    117.5472     61.4948   2.7943113222e+01   4.6149950914e+01    0.7302859    0.6402697 -44.24  0.001837555    1.202    0.168
       129 -10.7411    116.7902     55.0856   2.6179197876e+01   4.7318628576e+01    0.2398485    0.1868285  57.48 0.0003884159    1.224    0.183
       130 -11.5377    230.4654     76.4714   1.5399697060e+01   2.2011572313e+01    0.4100537    0.1889868 -52.68  0.001802775    1.883    0.469
       131 -11.6722    233.4611     72.0939   1.4324778618e+01   2.2131772288e+01    0.3230353     0.222235 -20.83  0.001407774    1.990    0.498
       132 -11.0096     82.2812     78.9426   4.3144622698e+01   5.0694875742e+01    0.3976093    0.2478966  32.92  0.001100251    1.733    0.423
       133 -12.3891     73.2597     74.7358   4.5005103783e+01   5.3365851017e+01    0.6323611    0.5011907  61.38  0.001994806    1.393    0.282
       134 -10.4044     66.5280     70.2976   4.6110363739e+01   5.5587107394e+01    0.3863708    0.1664976  51.19  0.001370351    2.699    0.629
       135 -10.9656     86.7679     74.3130   4.0221103799e+01   5.0682089523e+01    0.4621704    0.2602834 -44.43  0.002019539    1.871    0.466
       136 -11.3417     82.4604     73.1564   4.1269282663e+01   5.1808470265e+01    0.4550806    0.2864337  28.45  0.001725501    1.943    0.485
       137 -10.3510    155.7967     76.8010   2.4730480843e+01   3.5394867990e+01    0.2694717    0.1797402  66.78 0.0009519863    1.586    0.370
       138  -9.3413    237.4132     76.4410   1.4776421194e+01   2.0973202407e+01     0.108518   0.07981654 -50.37 0.0001610903    1.022    0.022
       139  -9.8004    103.9726     75.6793   3.5543128247e+01   4.6730555397e+01    0.2051718    0.1820843  55.93 0.0005609946    1.081    0.075
       140 -10.7160    225.9707     74.9951   1.5537478387e+01   2.2902437576e+01    0.1513785    0.1271385 -14.92 0.0004595831    1.618    0.382
       141 -11.0346    154.2537     63.3729   2.1623842300e+01   3.7788475131e+01     0.828353    0.3920696 -42.36  0.003893059    1.969    0.492
       142 -10.5523    146.0651     58.4118   2.1643508108e+01   4.0274289821e+01    0.4177518    0.2585441 -10.60  0.001713014    3.291    0.696
       143 -11.6589    134.7297     71.6166   2.7219600808e+01   4.0697640698e+01    0.6239525    0.3993045  77.99  0.002975347    1.911    0.477
       144 -12.0500    145.0194     67.4090   2.4186389651e+01   3.9143958271e+01     0.813229    0.6559461  10.22  0.003306187    1.839    0.456
       145 -10.4334    136.4594     62.0624   2.4286021453e+01   4.1833034098e+01    0.2918884    0.2215123 -47.24 0.0004083769    1.295    0.228
       146 -11.9092    139.0454     59.7517   2.3190244499e+01   4.1612538798e+01    0.5927657    0.3057294 -67.18  0.002345203    2.992    0.666
       147  -9.7220    233.3144    109.0507   2.1092929371e+01   1.7081419673e+01    0.1532599    0.1100077 -42.29 0.0002740584    1.070    0.066
       148 -12.3791    208.8253     58.1148   1.3837348703e+01   2.7961656597e+01    0.6074591    0.3103219 -87.69  0.003143301    2.738    0.635
       149 -11.4968     91.4168     66.1342   3.6163710967e+01   5.1207556959e+01    0.3462502    0.2799288  -7.60  0.001562124    1.613    0.380
       150 -11.2682     86.0720     63.8299   3.7051023701e+01   5.2783776188e+01    0.3301442    0.2612528 -40.68  0.001211804    1.359    0.264
       151  -9.9166     93.9480     42.7332   2.7530206611e+01   5.4400698994e+01    0.6913302    0.3359697  31.26   0.00224594    4.467    0.776
       152 -13.9810     76.9839     58.8854   3.8351290721e+01   5.5619653388e+01    0.8007065    0.4479589  47.24  0.002672569    1.650    0.394
       153 -12.1184     76.0332     51.9431   3.6186718660e+01   5.7016731624e+01    0.2981885    0.2668271  56.13 0.0003701717    1.057    0.054
       154 -12.8138     81.1882     48.2154   3.3140405536e+01   5.6485401831e+01    0.9228209    0.4818482  58.59  0.002722041    1.907    0.476
       155 -11.8687     75.7933     42.2721   3.2635851920e+01   5.8600331080e+01    0.3657739    0.2355594  60.89  0.001059373    1.526    0.345
       156 -12.4389     81.5964     40.2832   3.0068952401e+01   5.7586471967e+01    0.5183123    0.3274051  54.30  0.001421716    1.409    0.291
       157 -11.6458     90.4061     51.7574   3.1643483842e+01   5.3856813102e+01    0.4524141    0.2510072 -45.23   0.00207081    1.956    0.489
       158 -11.6890     93.7163     60.4202   3.3622628731e+01   5.1695279919e+01    0.3748409    0.2623481  54.45  0.001891953    1.337    0.252
       159 -11.0347     88.9520     58.7221   3.4451483032e+01   5.3041961445e+01    0.4122722    0.3814628 -77.11  0.001975243    1.147    0.128
       160 -11.1593    127.3461     58.7922   2.5100728589e+01   4.4362581772e+01     0.398373    0.2389651  41.27  0.001320168    2.039    0.510
       161 -11.2854    162.6062     56.9100   1.8790054346e+01   3.6968054309e+01    0.3498896     0.321688  72.90    0.0021047    1.194    0.162
       162 -11.2968     98.2655     54.9098   3.0549773076e+01   5.1575475708e+01    0.5060777    0.3622993 -64.30  0.002548316    1.653    0.395
       163 -10.4782    102.1414     53.5959   2.9118222612e+01   5.0898365386e+01     0.397447     0.292696 -39.95  0.001216634    1.459    0.315
       164 -11.0387    174.2371     56.0975   1.7088444618e+01   3.4705411642e+01    0.3249718    0.2881508  64.22  0.001262398    1.290    0.225
       165 -10.1917    106.5821     72.3009   3.3834855715e+01   4.6772614791e+01    0.2308968    0.1715844 -79.81  0.001119669    1.702    0.412
       166 -10.2509    137.8061     52.6789   2.1463618837e+01   4.2918706875e+01    0.2866734    0.1700156  68.59   0.00113033    1.660    0.397
       167 -10.7577    142.7227     54.3196   2.1095331287e+01   4.1595965487e+01    0.2773388    0.2022778 -49.10 0.0006940148    1.319    0.242
       168 -11.7309    146.0687     52.1293   1.9976863889e+01   4.1169958787e+01    0.4260958    0.2869695  25.52 0.0003381064    2.618    0.618
       169 -10.1399    108.7727     55.6419   2.8159003084e+01   4.9064826413e+01    0.2922401    0.1814245 -48.97  0.001419919    1.702    0.412
       170  -9.8705    155.0987     54.6452   1.9280641617e+01   3.8866475110e+01    0.2393705     0.143086  51.26  0.001245664    1.864    0.464
       171 -10.4068    167.6765     51.6186   1.6838035065e+01   3.6643581969e+01     0.234759    0.1912598  33.69  0.001087762    1.728    0.421
       172 -10.7894    249.6021     48.1990   8.8663449118e+00   2.2662218001e+01    0.3453832    0.1403545 -47.10  0.002164495    1.717    0.418
       173 -11.4176    247.6171     42.4448   7.9919203207e+00   2.3614531657e+01    0.3567003    0.1514259 -63.75  0.001360397    2.375    0.579
       174 -11.0692    133.3186     45.6820   2.0254014127e+01   4.4897014263e+01     0.420168     0.321648  78.67    0.0019627    1.224    0.183
       175 -10.6819    135.4180     43.2088   1.9207156770e+01   4.4751889523e+01    0.3171808    0.2445204 -83.28  0.001866183    1.250    0.200
       176 -10.9821    133.0770     40.0000   1.8666669827e+01   4.5700270026e+01    0.3588378    0.2223723  61.74  0.001179492    1.514    0.340
       177 -11.4104    143.3918     45.6309   1.8639422795e+01   4.2645220153e+01     0.486571    0.2844583  33.86  0.002152328    3.012    0.668
       178 -11.2173    155.4078     42.6625   1.6175865791e+01   4.0403605495e+01    0.3655196    0.2988958  33.96  0.002171936    1.687    0.407
       179 -11.6102    149.8598     42.1462   1.6779896309e+01   4.1674655447e+01    0.2926908    0.2678607 -58.40 0.0009864873    1.156    0.135
       180 -10.9986    146.2345     39.7672   1.6645450143e+01   4.2774990615e+01    0.3880603    0.3047562  12.24  0.002226845    1.995    0.499
       181 -11.7122    160.9234     40.2730   1.4883018622e+01   3.9525551110e+01    0.4792121    0.2594029  49.91  0.002378817    2.253    0.556
       182 -12.4419    160.0501     35.7694   1.3858418315e+01   4.0263760276e+01    0.6932039    0.3932918  47.79  0.003616702    2.273    0.560
       183  -9.8619     99.0199     46.5962   2.7573525424e+01   5.2671096542e+01    0.2419279    0.1340333 -44.38  0.001059525    1.930    0.482
       184  -9.8479    120.9372     44.4859   2.2111670934e+01   4.7891727139e+01    0.3104408    0.1799625 -69.72  0.001393441    2.280    0.561
       185  -9.8493    105.3226     43.9176   2.5176728198e+01   5.1592905686e+01    0.2725429      0.22874 -70.33  0.001584117    1.237    0.192
       186 -10.2511    240.9388     40.1341   7.9894610171e+00   2.4885241304e+01    0.1657188    0.1156284 -45.64 0.0004920371    1.179    0.152
       187 -10.1666    161.0905     49.7059   1.7212846136e+01   3.8271258524e+01    0.2557638    0.1834386 -13.12  0.001398579    2.109    0.526
       188  -9.7621    122.4413     36.9046   1.9526524022e+01   4.8539236391e+01    0.1802155    0.1264684 -38.96 0.0004335766    1.510    0.338
       189 -11.8044     91.7143     34.0215   2.4979462392e+01   5.6102975816e+01    0.4933943    0.3232876  42.22  0.002544899    1.613    0.380
       190 -10.4214    131.8589     33.9555   1.7110073704e+01   4.6732935323e+01    0.2439557    0.1591892 -52.37 0.0007190953    1.511    0.338
       191  -9.8677    152.2690     33.9221   1.4311047720e+01   4.2165372636e+01    0.1638149    0.1379812 -64.32 0.0003967458    1.086    0.079
       192 -10.6150    172.6163     32.9718   1.1831680996e+01   3.7966252483e+01    0.3274637      0.14906  76.69  0.001425158    2.221    0.550
       193 -10.0721    121.9687     32.8279   1.8359717534e+01   4.9153098870e+01    0.1944272    0.1738203 -60.00 0.0005203743    1.153    0.133
       194 -10.7356    112.3285     32.7436   2.0056516396e+01   5.1417807588e+01    0.2955486      0.18112  61.15 0.0008622084    1.460    0.315
       195  -9.7238    241.8379     30.0367   6.1547505919e+00   2.5868427637e+01    0.2132361    0.1326548 -47.71 0.0008044016    1.189    0.159
       196  -9.9245    237.6306     30.6036   6.4864695341e+00   2.6461823184e+01     0.213592    0.1394476  89.68  0.001122724    1.563    0.360
       197 -10.3880    227.2886     30.7745   7.1207555521e+00   2.8106934651e+01    0.2964579    0.1386608  70.10  0.001868979    2.339    0.572
       198  -9.7739    229.7075     28.3262   6.5248720863e+00   2.7979229352e+01    0.1393256   0.09702884 -61.26 0.0004696611    1.079    0.074
       199 -10.3409    218.8444     29.1937   7.3466333338e+00   2.9698744561e+01    0.2742709    0.1777135 -22.85   0.00178921    2.104    0.525
       200  -8.9376    223.5235     26.4703   6.5416932196e+00   2.9204217160e+01    0.1775696    0.1192658 -61.39 0.0006139847    1.131    0.116
       201 -11.6252    190.6780    101.2450   2.4895184180e+01   2.4865213108e+01    0.6418564    0.2271063 -54.77  0.001447005    4.482    0.777
       202 -10.5858    198.4984    109.4881   2.5483482141e+01   2.2242584708e+01    0.2569687    0.1644284 -46.62  0.001411354    1.330    0.248
       203 -10.1323    212.8655     28.8811   7.6745197178e+00   3.0769178759e+01     0.210622    0.2074664  -1.20  0.001547431    1.523    0.344
       204 -10.6049    216.6488     24.6195   6.6023689898e+00   3.0575929104e+01    0.2448591    0.1688965 -43.20  0.001164651    1.294    0.227
       205 -10.5307    152.2000     29.5806   1.3185869467e+01   4.2689027517e+01    0.1950019    0.1656164 -75.07 0.0002321312    1.029    0.028
       206  -9.9855    153.7549     25.6170   1.1979352310e+01   4.2796979237e+01    0.2125972    0.1402494 -72.93 0.0007421207    1.410    0.291
       207 -11.2512    159.0022     26.2282   1.1573787282e+01   4.1594386131e+01    0.3602317    0.1843388 -31.39  0.001901273    2.102    0.524
       208 -10.7529    195.6021    106.8271   2.5350457172e+01   2.3142061485e+01    0.3434303    0.1489979 -44.94  0.001647952    1.959    0.490
       209  -9.9238    102.2238     19.7377   1.7576363870e+01   5.5287433805e+01    0.1942344    0.1844682 -88.41 0.0009337361    1.137    0.120
       210 -11.3575    135.1808     26.5596   1.4498694195e+01   4.6837221001e+01    0.3319294    0.2712315 -64.31  0.001758131    1.148    0.129
       211  -9.7922    114.3442     28.3004   1.8250943597e+01   5.1473444799e+01    0.2144572   0.09918133  57.87 0.0006696389    1.925    0.481
       212 -10.7280    112.4229     23.9454   1.7171413694e+01   5.2418445539e+01     0.361024    0.2688468  19.03  0.002009048    1.952    0.488
       213 -10.7186    235.4139     23.7609   5.3828513727e+00   2.7549424901e+01    0.2951631    0.2414488  63.03  0.002463665    1.705    0.413
       214 -11.1771    161.0739    105.4145   3.0596928355e+01   2.9496377685e+01    0.2935868    0.1795816 -52.88 0.0004294452    1.621    0.383
       215 -10.7113    243.6726     19.2973   4.1916147752e+00   2.6721436362e+01    0.1742375    0.1143796 -70.98 0.0006277337    1.270    0.213
       216 -10.1076    147.3562     25.4501   1.2659501798e+01   4.4221968338e+01    0.3109682      0.15252  44.50  0.001403714    2.995    0.666
       217 -10.8917     20.8812     25.5496   5.1016418540e+01   7.1844420222e+01    0.4658624    0.2576205  32.70  0.002371745    1.593    0.372
       218  -9.9509     19.6467     19.5196   4.8661206103e+01   7.3007911652e+01    0.2456829    0.1775125 -45.38  0.001030789    1.663    0.399
       219 -11.8790    176.4670     23.4610   9.2562038366e+00   3.8253235352e+01    0.2943932    0.2425987  43.30  0.002026228    1.704    0.413
       220 -10.6382    121.0312     16.5666   1.3471404587e+01   5.1170750501e+01    0.2862013    0.1403841  86.73  0.001319522    2.186    0.543
       221  -9.8078    119.6808     22.2884   1.5458036393e+01   5.0892296905e+01    0.2222464    0.1328572 -84.93 0.0008652974    1.798    0.444
       222 -11.3786    123.6441     23.1618   1.5128749456e+01   4.9872344139e+01    0.3231403    0.2338292 -22.69  0.001833528    1.724    0.420
       223 -11.2445    151.3330    107.6224   3.2963773949e+01   3.0944348666e+01    0.2378161    0.1885935  85.80 0.0007374884    1.556    0.357
       224 -11.4436    144.4259    103.4173   3.3371595514e+01   3.3068523955e+01    0.4356075    0.2871991 -34.38  0.002147954    1.606    0.377
       225 -10.7052     97.6372     21.5830   1.9126002692e+01   5.6180414695e+01    0.2284046    0.1915405 -33.98 0.0009659221    1.375    0.273
       226 -10.0591     25.6606    107.6875   7.3915761393e+01   5.2634238816e+01     0.162574    0.1037291 -30.58 0.0007046282    1.695    0.410
       227 -10.5190    209.9937    104.6605   2.2999928154e+01   2.1164283809e+01    0.3500488    0.2347691 -65.21  0.002114471    1.719    0.418
       228 -10.1243    163.1797     20.8617   9.8232398206e+00   4.1287471448e+01    0.1753588    0.1283475 -70.58 0.0003865827    1.157    0.136
       229 -10.9394    136.4060     19.1353   1.2223360624e+01   4.7360070329e+01    0.2118269    0.1654238  76.75 0.0002430093    1.150    0.131
       230  -9.8784    130.6542     19.4303   1.3033070240e+01   4.8645514244e+01    0.2287624    0.1096203  75.87 0.0006393315    1.914    0.478
       231  -9.1740     14.7202     18.4893   5.1631359335e+01   7.3903883147e+01    0.2560857    0.1407713 -28.70  0.001276181    2.112    0.527
       232  -9.7915    194.2846     18.0181   6.7015072647e+00   3.5335120036e+01    0.1524701     0.111225 -57.06  0.000428616    1.104    0.094
       233 -10.7268     17.0536    105.4247   7.7435788264e+01   5.4018561220e+01    0.3343598    0.2457716 -15.39 0.0009576928    1.424    0.298
       234 -11.4998    110.5461    103.8388   4.1576960995e+01   3.9773571759e+01    0.3625908    0.2329961  15.90  0.001428069    2.584    0.613
       235  -9.7804    159.4297     18.4082   9.5657818360e+00   4.2344218116e+01    0.1166494   0.09778859 -81.66 7.152567e-05    1.061    0.058
       236  -8.9049    143.7375     18.2762   1.1133087968e+01   4.5795140351e+01    0.1215759   0.07751085 -67.35 0.0003653963    1.473    0.321
       237 -12.9641     15.8830     46.2128   6.3379377554e+01   6.8582463406e+01    0.8960775    0.7883244 -63.44  0.005419476    1.368    0.269
       238 -13.1517    121.9780    100.0764   3.7627971265e+01   3.8226706096e+01    0.6628085    0.4474361 -31.74  0.001963791    1.702    0.412
       239 -13.5642    130.2130     95.3093   3.4445973839e+01   3.7462047433e+01     0.910737     0.635327  42.60  0.004567971    1.515    0.340
       240 -11.1478    126.8088     81.3892   3.1538416916e+01   4.0739903729e+01     0.443721    0.2813152  29.19  0.001937331    2.343    0.573
       241 -11.1629    132.0592     83.0197   3.0828165984e+01   3.9327834076e+01    0.2844095    0.2400953 -54.25 0.0003613502    1.157    0.136
       242 -12.4441    137.0316     80.7726   2.9199518114e+01   3.8663023080e+01    0.8020407    0.5342563  85.16  0.001298479    2.032    0.508
       243 -10.0234    160.0353     13.7158   8.3386069675e+00   4.2691758910e+01    0.1572057    0.1251602 -85.71  0.000252012    1.073    0.068
       244 -11.9137    127.0653     89.5102   3.3655705588e+01   3.9206204545e+01    0.4571025    0.2489112  48.19  0.001148889    1.853    0.460
       245 -12.7851    124.3246     86.0260   3.3359250822e+01   4.0430759935e+01    0.6793132    0.4367733  34.55  0.001335475    1.924    0.480
       246 -11.4985    225.5711    100.5653   2.0383766327e+01   1.9405838473e+01    0.3290987    0.2143928 -48.52 0.0004821311    1.242    0.195
       247 -11.0289    215.8668    100.3971   2.1457254980e+01   2.0892459123e+01    0.2759751     0.145334 -35.07  0.001307946    1.727    0.421
       248 -11.7499    132.4887     87.5050   3.1917061623e+01   3.8434064060e+01    0.7465873    0.2332054  48.12  0.002554401    3.260    0.693
       249  -9.0424    141.4637     13.6273   1.0105810033e+01   4.6772156784e+01    0.1204636   0.09899613  88.46 0.0003226613    1.062    0.058
       250 -11.7912    151.8913     97.2973   3.0416697302e+01   3.2712954178e+01    0.5606495    0.3716483 -71.97  0.002672616    2.025    0.506
       251 -10.8393    160.4142    100.0043   2.9474164327e+01   3.0577337704e+01    0.3788623    0.1900888 -51.15  0.001701394    1.994    0.499
       252 -10.8388    158.4873     95.2030   2.8699695353e+01   3.1785958942e+01    0.2822708    0.2073908  50.07 0.0005042274    1.469    0.319
       253 -12.4097    110.9005     93.5520   3.8755687835e+01   4.1811529400e+01    0.3987675    0.3101192  88.99  0.001951191    1.633    0.387
       254 -11.3784    106.8079     96.3945   4.0643825045e+01   4.2079264146e+01    0.2868858    0.2410482  -4.17 0.0007729488    1.473    0.321
       255 -12.2581    102.3549     96.4852   4.1934634991e+01   4.2970013806e+01    0.4523224    0.3394062 -62.06 0.0002909477    1.486    0.327
       256 -12.3379     95.5065     90.4836   4.2305880843e+01   4.5618375212e+01    0.5654413    0.4630579  60.74   0.00130508    1.281    0.219
       257 -12.8172     85.2415     98.3942   4.7785222534e+01   4.5954022647e+01    0.7001809    0.3903488  31.53  0.002841313    1.955    0.489
       258 -11.8836     45.9918     99.0947   6.3063590200e+01   5.2442444852e+01    0.2860453    0.2575746  15.65  0.001520111    1.081    0.075
       259 -12.7001     48.4532     94.0871   6.0741416124e+01   5.3332794166e+01    0.6446213    0.4139501  52.90  0.002802459    1.862    0.463
       260 -11.2896     51.8737     87.0838   5.7366860951e+01   5.4493818070e+01    0.3399319    0.2468343 -18.54 0.0002780588    1.654    0.395
       261 -12.0205     47.8553     85.3213   5.8642296271e+01   5.5537226953e+01    0.7247069    0.2659646  27.86  0.002047432    2.858    0.650
       262 -10.0766    244.3437     98.2048   1.8030874989e+01   1.7085514849e+01    0.2758015    0.1106434 -31.51  0.001353659    2.762    0.638
       263 -11.2357    199.4945     96.7048   2.2753544858e+01   2.4082378432e+01    0.3523786    0.2307686 -42.29  0.001227862    1.289    0.224
       264 -10.8917    170.1627     98.0686   2.7352445618e+01   2.9065800515e+01    0.3393824    0.2587462 -42.10  0.001942195    1.205    0.170
       265 -11.8940     56.5363     99.2094   5.8656528436e+01   5.0838434811e+01    0.3807641     0.193898  35.29  0.001352267    1.873    0.466
       266 -11.6510     11.5931     98.1591   7.8809304474e+01   5.6384557102e+01    0.3605989    0.2264428 -49.29 0.0008801237    1.486    0.327
       267 -11.0717    141.3575     96.3674   3.2288363702e+01   3.4987294360e+01    0.3648723     0.303791  51.76  0.001856584    1.246    0.198
       268  -9.6617    237.1462     95.8626   1.8313155731e+01   1.8400248058e+01    0.1438131    0.1068403 -31.14 0.0005565766    1.341    0.254
       269 -14.1266     65.0689     84.5844   5.1173876901e+01   5.2819627248e+01     1.384322     1.155194 -40.67  0.006731682    1.246    0.198
       270 -14.1755     36.6922     83.4523   6.3321752201e+01   5.7583781230e+01     2.012331     1.152832  78.72  0.005370064    4.137    0.758
       271 -10.8245     86.6916     29.0426   2.4392403426e+01   5.7905368099e+01    0.5027938    0.1664268  54.15  0.001008956    2.514    0.602
       272 -13.1334     55.2329     71.9693   5.1322980461e+01   5.7332742154e+01     1.204324    0.6629167 -62.27  0.003099119    2.457    0.593
       273 -10.6512     36.4159    248.7862   8.5365827710e+01   1.5937958345e+01    0.1640703    0.1122327 -55.55 0.0009601281    1.719    0.418
       274 -14.2446     46.2616     72.6284   5.5584224791e+01   5.8698480985e+01     2.149466     1.138779  41.68   0.00914656    1.875    0.467
       275 -12.6379     50.8999     45.1987   4.3444693374e+01   6.3330876372e+01     1.337069    0.4474317  36.84  0.004514828    3.210    0.688
       276 -10.0468    113.6537    245.3262   6.6309159927e+01   8.8279321191e+00    0.1263141   0.08797672  45.36  0.000705011    1.747    0.428
       277 -12.7300      4.1593     56.5729   7.4351914559e+01   6.7347281033e+01    0.9099876    0.5767737 -25.12   0.00466657    1.520    0.342
       278 -10.8891    180.6939    243.5725   5.1923782122e+01   2.3010448585e+00    0.1686959      0.14605 -50.39  0.001202158    1.777    0.437
