#   1 NUMBER                 Running object number                                     
#   2 MAG_AUTO               Kron-like elliptical aperture magnitude                    [mag]
#   3 X_IMAGE                Object position along x                                    [pixel]
#   4 Y_IMAGE                Object position along y                                    [pixel]
#   5 X_WORLD                Barycenter position along world x axis                     [deg]
#   6 Y_WORLD                Barycenter position along world y axis                     [deg]
#   7 A_WORLD                Profile RMS along major axis (world units)                 [deg]
#   8 B_WORLD                Profile RMS along minor axis (world units)                 [deg]
#   9 THETA_WORLD            Position angle (CCW/world-x)                               [deg]
#  10 FWHM_WORLD             FWHM assuming a gaussian core                              [deg]
#  11 ELONGATION             A_IMAGE/B_IMAGE                                           
#  12 ELLIPTICITY            1 - B_IMAGE/A_IMAGE                                       
         1  -8.8648     74.0463     19.5512   8.1111837311e+01   6.0565658589e+01    0.2532528    0.1558618 -41.96 0.0009194525    2.152    0.535
         2  -8.6112     55.8011     10.1451   8.3295521624e+01   6.4583405981e+01    0.1572504    0.1434004  15.90 0.0007765772    1.300    0.231
         3  -7.7898     47.5121     10.0152   8.6155973180e+01   6.5884714074e+01     0.135207   0.09249369 -46.97 0.0008099129    2.493    0.599
         4  -7.8591     28.2264      9.9848   9.3766988475e+01   6.8527086767e+01    0.1341598   0.07774535 -25.76 0.0005941717    1.631    0.387
         5  -8.3182     90.9604      8.9754   7.2708572158e+01   5.8352123370e+01    0.1710379    0.1419739 -78.49  0.001123703    1.712    0.416
         6  -7.8594    101.4835      8.4666   7.0105383563e+01   5.6276854750e+01    0.1192072    0.1000156  50.12  0.000101623    1.055    0.052
         7  -8.0559      5.6775      8.3127   1.0343393695e+02   7.1109551293e+01    0.0866689   0.07789285   5.98  0.000416693    1.656    0.396
         8  -8.6566     33.4886      5.1612   8.9476492344e+01   6.8349131726e+01    0.2389983    0.1588179 -47.32  0.001439416    2.909    0.656
         9  -8.4402     79.1644      4.2299   7.3996502786e+01   6.1005113085e+01    0.1889423    0.1380057 -50.24 0.0009998954    2.031    0.508
        10  -7.9759    115.4854      2.5321   6.5401796199e+01   5.3815131346e+01    0.1185499   0.09857672  61.74 0.0008086498    1.070    0.066
        11  -8.3514     62.4604      1.5774   7.7713548411e+01   6.4214573400e+01    0.1629812    0.1244374  61.94  0.001103742    1.682    0.406
        12  -8.0207     16.4343      3.4662   9.6122617765e+01   7.0597603141e+01     0.105909   0.07695423   1.55 6.667787e-05    1.028    0.028
        13  -9.0310    120.2012    245.3530   1.2264598939e+02   5.6420639182e+00    0.3436424    0.2274443  76.75  0.001469206    2.031    0.508
        14  -8.7409    231.3154    250.6207   1.0094527661e+02  -1.2478538486e+01    0.2532886    0.1327542  38.85  0.001001097    2.030    0.507
        15  -8.5127    232.6480    247.2072   1.0011927418e+02  -1.2151117563e+01    0.2065424    0.1688413 -46.71 0.0008015889    1.636    0.389
        16  -7.9493    199.3386    250.3013   1.0702453831e+02  -7.9238934391e+00    0.1316893   0.08895338   1.86 0.0007036849    1.667    0.400
        17  -8.5950     93.9710    249.3598   1.2861999180e+02   8.9842962483e+00    0.3144492    0.1782823  77.11  0.001431487    2.449    0.592
        18  -7.3578     86.3157    250.6696   1.3032923071e+02   9.8774379222e+00    0.1372634   0.08489483  67.22 0.0007045924    1.681    0.405
        19  -8.7328      9.9928    244.2823   1.4439259772e+02   2.1034294392e+01    0.3810029    0.1149466  86.26  0.001179066    6.121    0.837
        20  -7.9555     67.4847    245.0892   1.3354193428e+02   1.3771186911e+01    0.1820727    0.1166411 -72.58 0.0008460758    1.553    0.356
        21  -7.5507     59.3232    245.6515   1.3522397864e+02   1.4783310416e+01    0.1381445   0.07845689  68.18 0.0007049215    1.745    0.427
        22  -9.1874    248.5178    242.4325   9.6417668779e+01  -1.3499341928e+01    0.2796864    0.1904136 -43.54  0.001052823    1.726    0.421
        23  -9.0359    201.9657    242.7620   1.0524868662e+02  -7.0895013622e+00     0.339808     0.176391 -44.95  0.001082623    2.088    0.521
        24  -8.6329    169.2001    243.3891   1.1202290677e+02  -2.0371900686e+00    0.2307725    0.2128988  81.99 0.0005397621    1.351    0.260
        25  -8.4490     78.1987    243.6790   1.3121827281e+02   1.2526554782e+01    0.3265471     0.147274  59.54  0.001384816    2.519    0.603
        26  -9.3263    194.5050    240.4895   1.0635597481e+02  -5.5640585856e+00    0.4322141    0.2191304 -49.08  0.001210043    2.297    0.565
        27  -9.5187    160.4566    240.7520   1.1343575096e+02  -1.1885337642e-01    0.4317978    0.2888232 -80.09  0.001643233    2.690    0.628
        28  -7.9219     49.4646    243.2320   1.3693995973e+02   1.6607752265e+01    0.1742687    0.1023428  88.70 0.0009413953    1.671    0.402
        29  -9.3453    183.2707    240.0937   1.0857542375e+02  -3.7220555756e+00    0.4622747    0.3324926  73.74  0.001730895    2.547    0.607
        30  -7.7490    153.6567    242.3417   1.1511973304e+02   7.0984359640e-01    0.1378939    0.1015038  67.61 0.0007047826    1.782    0.439
        31  -8.4556    147.0824    240.4799   1.1622976916e+02   2.1575787421e+00    0.3918521    0.2342464  75.78  0.001445892    3.870    0.742
        32  -8.1696     88.0557    242.2838   1.2902157385e+02   1.1347127788e+01    0.1854914    0.1535322  70.45 0.0008879655    1.081    0.075
        33  -8.4639    240.6145    240.8033   9.7554988743e+01  -1.2246212782e+01    0.2126938    0.1012772 -37.57  0.001006675    1.968    0.492
        34  -8.2777    209.1745    238.5612   1.0310836883e+02  -7.4793941197e+00    0.2037238    0.1410823 -31.04  0.000589486    1.415    0.294
        35  -8.6172    135.6406    239.0134   1.1845816369e+02   4.3565569209e+00    0.2046241    0.1651435 -89.42 0.0009621395    1.498    0.332
        36  -8.1140    129.2154    238.7504   1.1980129803e+02   5.4809592422e+00    0.2214518    0.1547854  57.27   0.00115602    1.479    0.324
        37  -8.8350    230.8575    237.2066   9.8722099000e+01  -1.0383655901e+01    0.2556923    0.2103667 -66.82   0.00105995    2.066    0.516
        38  -8.0966     13.1686    238.3657   1.4343522826e+02   2.1937484830e+01    0.1659335   0.08215965  50.67 0.0009405238    1.747    0.427
        39  -9.0146    248.1753    235.5152   9.5270992413e+01  -1.2432961532e+01    0.3537928    0.2193373 -56.29  0.001664539    2.947    0.661
        40  -9.0937    246.4388    229.6105   9.4533136984e+01  -1.1306908100e+01    0.2851015     0.185366 -46.78 0.0009563854    1.815    0.449
        41  -8.1924     25.2450    236.4850   1.4105080363e+02   2.1010567967e+01    0.2613044   0.08423001 -86.38 0.0008895831    4.508    0.778
        42  -8.9924    216.9879    235.5241   1.0105871480e+02  -8.1379161873e+00    0.2573284    0.2171454  53.87 0.0009569828    1.645    0.392
        43  -9.9294    213.9145    231.9608   1.0102673982e+02  -7.0912153405e+00     0.502584    0.2426721 -43.92  0.002378344    2.136    0.532
        44  -9.0358    203.2102    234.5029   1.0358321131e+02  -5.8911895084e+00    0.3750282    0.2207788 -55.57  0.001440332    2.393    0.582
        45  -9.7047    175.8013    233.4801   1.0901744427e+02  -1.3111045492e+00    0.4905094    0.2454984 -56.91  0.002059488    2.738    0.635
        46  -8.2488    170.4238    235.9319   1.1055610751e+02  -8.7426635506e-01    0.1697007    0.1216327 -80.16 0.0004994572    2.356    0.576
        47  -9.3816    108.9112    234.5613   1.2360423083e+02   9.6946750853e+00    0.4639666    0.2343293  53.75   0.00107003    2.067    0.516
        48  -8.5011     99.7830    234.6843   1.2559618366e+02   1.1136175834e+01     0.257175    0.1616195  81.47  0.001087247    2.063    0.515
        49  -8.7818     78.9090    234.5812   1.3004857802e+02   1.4370049601e+01    0.2912101    0.1767032  69.02  0.001084102    1.772    0.436
        50  -8.2214    122.7167    234.1145   1.2053864684e+02   7.5125418193e+00     0.214113    0.1658882  86.79 0.0006758849    1.513    0.339
        51  -9.2905     68.3287    232.3616   1.3202989208e+02   1.6394409041e+01    0.5054631    0.2354216  70.74   0.00193785    3.231    0.691
        52  -8.7100    194.6047    232.6075   1.0498461737e+02  -4.2120443062e+00     0.282724     0.201869 -42.06  0.001200986    1.466    0.318
        53  -8.1625    144.9734    233.4748   1.1560069793e+02   3.8858712510e+00    0.2326322    0.1574565  63.95 0.0009183191    1.885    0.469
        54  -8.6506    140.2014    230.1369   1.1611675469e+02   5.3736256218e+00    0.3384007    0.1894048  57.00  0.001452214    2.214    0.548
        55  -8.3773    132.9128    232.9269   1.1813950141e+02   6.0434474475e+00    0.2188729    0.1593063  69.69 0.0009293139    1.660    0.398
        56  -8.3669     92.3825    231.9305   1.2684237177e+02   1.2896724276e+01    0.3412108    0.1871537  71.54  0.001250898    2.542    0.607
        57  -9.2573    186.4209    230.8539   1.0635712337e+02  -2.5771247920e+00    0.2986048    0.2335636 -82.27  0.001287336    2.075    0.518
        58  -8.1443    157.7012    232.1018   1.1263311317e+02   1.9921664602e+00     0.204355    0.1730446 -81.06   0.00083214    1.482    0.325
        59  -8.9754    236.0341    230.6131   9.6596355083e+01  -1.0060132528e+01     0.233704    0.1649236 -32.79 0.0004021018    1.314    0.239
        60  -8.9373      1.7442    230.9240   1.4503226364e+02   2.4683015728e+01     0.226506    0.1184735  80.13 0.0009244375    1.618    0.382
        61  -9.9403    149.7368    226.2721   1.1340689968e+02   4.5192503548e+00    0.6691744     0.401267 -83.36  0.002391433    3.899    0.743
        62  -8.8572    162.4592    228.0576   1.1093945236e+02   1.9706392490e+00    0.3410448    0.2472488  74.66  0.001140852    2.099    0.524
        63  -8.8766    128.0061    227.2916   1.1836266700e+02   8.0505835888e+00      0.33039    0.2171152  66.51  0.001111122    1.915    0.478
        64  -8.2675    119.9183    227.5320   1.2019172355e+02   9.3704253065e+00    0.2705081    0.1806862 -81.52 0.0008296682    1.943    0.485
        65  -8.9901    206.1273    225.6596   1.0143577974e+02  -4.8117242049e+00    0.3790743     0.186554 -39.64  0.001491898    2.005    0.501
        66  -8.4138    200.2179    226.3326   1.0274113514e+02  -3.9939696698e+00     0.291472    0.1516234 -49.27  0.001331154    2.175    0.540
        67  -7.9564     49.7004    227.1153   1.3537194529e+02   2.0097979393e+01    0.2319219    0.1044063  67.34 0.0009485567    2.779    0.640
        68  -8.6894    180.8263    224.4359   1.0640207573e+02  -4.5632407043e-01    0.3013113    0.2212565  62.67  0.001033688    1.883    0.469
        69  -8.9132    104.7326    223.7567   1.2302752858e+02   1.2719593287e+01    0.3747384    0.2366672 -89.57  0.001700691    2.118    0.528
        70  -8.8870     94.1529    224.2745   1.2545645891e+02   1.4309477353e+01    0.3732097    0.2119292  71.35  0.001583915    2.389    0.581
        71  -8.9178    216.4391    223.3798   9.8995077032e+01  -6.0139813174e+00     0.275594    0.2174315 -47.14 0.0008323998    1.448    0.310
        72  -8.8648    173.2825    223.1411   1.0777348570e+02   1.0750031762e+00    0.3130744    0.2418568 -78.46 0.0009002638    1.884    0.469
        73  -8.2269    113.6415    224.1906   1.2109735749e+02   1.1148205883e+01    0.1884329    0.1266743 -48.84 0.0004785899    1.633    0.387
        74  -9.4514    192.3883    221.2079   1.0341681746e+02  -1.7847623687e+00    0.3515763    0.2575055 -61.46 0.0008805372    1.818    0.450
        75  -9.1439    160.1579    221.2165   1.1027457474e+02   3.7308144924e+00    0.5561436    0.2885171  59.21  0.002006246    3.300    0.697
        76  -7.8679     59.5035    223.5080   1.3293229415e+02   1.9609045734e+01    0.1364004    0.1092096  74.90 4.080756e-05    1.079    0.073
        77  -8.9192    239.0925    221.6652   9.4421677259e+01  -9.0469028251e+00    0.2253961    0.1910263 -59.75 0.0009394267    1.714    0.417
        78  -9.4310    225.7306    221.8280   9.6930598899e+01  -7.1479294821e+00     0.287884    0.2257038  52.35  0.001331619    1.754    0.430
        79  -9.0255      7.2781    222.1237   1.4341501276e+02   2.6052226374e+01    0.2328772    0.1109287  49.12  0.001287684    1.906    0.475
        80  -9.1027    120.6400    219.4678   1.1880950040e+02   1.1000309466e+01    0.5079476    0.2728122  63.88  0.001852621    2.812    0.644
        81  -8.3182     72.8859    220.7581   1.2971231412e+02   1.8348181788e+01    0.2749943    0.1567564  80.53  0.001225413    2.196    0.545
        82  -7.8690     27.5690    221.2700   1.3936207669e+02   2.4100471896e+01    0.1728548   0.09831747 -65.61 0.0009489076    1.645    0.392
        83  -8.2134    202.7030    220.1316   1.0111907229e+02  -3.2774715529e+00    0.1983816    0.1662647 -53.84  0.000610289    1.430    0.301
        84  -8.7657    249.8282    218.8050   9.1982058219e+01  -1.0058564800e+01    0.1979937    0.1644785  60.62 0.0008525786    1.982    0.496
        85  -7.9365    140.4818    222.5420   1.1484048027e+02   6.8996915556e+00     0.141732    0.1307826  52.70 0.0001990431    1.052    0.049
        86  -8.6412    210.0506    218.7627   9.9401592740e+01  -4.2081968398e+00    0.3065237    0.1768742 -37.49  0.001502334    1.673    0.402
        87  -8.4817    179.4399    217.4934   1.0545630856e+02   1.1164339003e+00    0.2353241    0.1348471 -57.98 0.0008640882    2.262    0.558
        88  -9.2717    132.8134    215.9819   1.1549053213e+02   9.6503493349e+00    0.5027549    0.3182435  83.11  0.002008397    2.749    0.636
        89  -8.7140     62.2239    217.4394   1.3166244209e+02   2.0628701665e+01    0.3070175    0.1687353  65.25  0.001113981    1.986    0.497
        90  -9.0051     51.3964    217.2198   1.3399322432e+02   2.2133407719e+01    0.3102168     0.198652 -86.81 0.0008922628    1.480    0.325
        91  -8.8074    169.2975    216.2122   1.0740441674e+02   3.1383226568e+00    0.3488886    0.2447936 -58.09  0.001054029    1.656    0.396
        92  -8.6106    143.0570    216.5883   1.1327627387e+02   7.7093393706e+00    0.2957459     0.219252  84.62  0.001418046    1.851    0.460
        93  -8.6292     82.7991    220.7191   1.2751362285e+02   1.6878874395e+01    0.3194611     0.172149  65.03  0.001290493    2.254    0.556
        94  -7.9566     18.5949    216.7606   1.4079144525e+02   2.6098092707e+01    0.1740595   0.09622905 -88.64 0.0009346181    1.583    0.368
        95  -8.5409    232.2757    214.7966   9.4407801464e+01  -6.9228074853e+00    0.2217992    0.1897133 -55.02  0.000732503    1.520    0.342
        96  -8.3841    185.8076    214.7231   1.0360473579e+02   5.5900271644e-01    0.2404085    0.1867357 -78.50  0.000939537    1.943    0.485
        97  -8.3598    154.1453    214.9216   1.1050773331e+02   6.0900833588e+00    0.2174756     0.191815  75.81 0.0007318193    1.301    0.231
        98  -8.9942     93.1461    214.0341   1.2427430543e+02   1.6802040825e+01    0.3456802    0.2256463  71.45  0.001263946    1.772    0.436
        99  -9.4227    213.9423    212.2960   9.7433056114e+01  -3.6648277173e+00    0.3491795    0.2800308  72.82  0.001450722    2.011    0.503
       100  -7.5751     77.3094    214.6624   1.2796341668e+02   1.9104838428e+01    0.1476159   0.09534016  71.76 0.0007043778    1.683    0.406
       101  -9.2277     72.4663    211.6713   1.2867517108e+02   2.0520867410e+01    0.4856404    0.2440903  66.92  0.001928035    2.692    0.628
       102  -8.0824    224.8133    212.8964   9.5451450365e+01  -5.4729130296e+00    0.1982314     0.147858 -60.49 0.0007853736    1.899    0.473
       103  -8.6615    161.7610    212.5580   1.0839955217e+02   5.2232798976e+00    0.2579639    0.2294607 -87.98 0.0006844936    1.339    0.253
       104  -7.8903    106.5684    212.8467   1.2101216554e+02   1.4878206395e+01    0.1926706    0.1335918 -78.86 0.0005630782    1.635    0.388
       105  -7.6135    242.6950    212.3347   9.2053290709e+01  -8.0164521949e+00    0.1156238    0.1014784 -65.34 0.0004565231    1.666    0.400
       106  -8.9220    204.4207    211.2354   9.9123310092e+01  -1.9210075114e+00     0.276662    0.2289077 -56.71 0.0009752524    1.456    0.313
       107  -9.4955    175.7444    210.3669   1.0494530194e+02   3.1797199881e+00    0.4193069    0.3013479  78.48  0.001266161    2.352    0.575
       108  -9.0132    148.1367    210.7897   1.1113093591e+02   8.0464760683e+00     0.366729    0.2574849 -82.47  0.001262825    2.087    0.521
       109  -9.0460      6.2879    208.9345   1.4264200500e+02   2.9099168750e+01    0.2898368    0.1144448  88.96  0.001263764    2.643    0.622
       110  -8.1672    192.3376    210.5031   1.0145590057e+02   2.5507942412e-01    0.2303267    0.1666939 -63.80  0.000928427    1.866    0.464
       111  -8.8740    116.2407    210.5789   1.1841984582e+02   1.3752030942e+01    0.3083807    0.2164892  73.29  0.000791718    1.733    0.423
       112  -9.0609    236.8398    208.6068   9.2412095545e+01  -6.5378757236e+00    0.3368163    0.2627357 -77.79  0.001754486    2.379    0.580
       113  -8.6970     85.6051    209.6902   1.2539936609e+02   1.9006541614e+01    0.3173097    0.1959975  83.32  0.001302033    2.047    0.511
       114  -8.2660     32.2317    210.3075   1.3739783071e+02   2.6084762054e+01    0.2014397   0.09059501 -84.65 0.0005859708    2.312    0.567
       115  -8.4664    139.2773    208.2729   1.1270891345e+02   1.0194284700e+01    0.2837189    0.2001502  76.39 0.0007266133    1.973    0.493
       116  -9.4716    124.5913    206.5218   1.1581042518e+02   1.3217274702e+01     0.433065     0.271692  73.65 -5.119154e-05    2.422    0.587
       117  -9.4204    246.3590    207.3678   9.0476897413e+01  -7.7054934539e+00    0.2792004    0.1936351 -37.63 0.0006760979    1.301    0.231
       118  -7.8512    228.6748    208.2870   9.3857265398e+01  -5.2550541593e+00    0.1180516    0.1074205 -85.97 0.0003401449    1.607    0.378
       119  -8.1889    156.4409    208.2215   1.0880215405e+02   7.0953856499e+00    0.1995631    0.1413668 -64.26  0.000651938    1.680    0.405
       120  -9.2859     99.3575    206.1839   1.2167838720e+02   1.7628152560e+01     0.387179    0.2515953  81.78  0.001335859    1.995    0.499
       121  -8.6324     12.0216    206.9855   1.4132658632e+02   2.8994971795e+01    0.1551658    0.1166866 -89.81 0.0006661543    1.041    0.039
       122  -8.5307     56.6184    205.5384   1.3151350183e+02   2.4193550501e+01    0.3056316    0.1613786  76.34   0.00119309    2.450    0.592
       123  -9.4394    194.9065    203.7153   9.9634824592e+01   1.1334958321e+00     0.393476    0.3285695 -86.30   0.00165939    1.708    0.415
       124  -9.5558    192.5879    197.6075   9.8932569224e+01   2.7546011784e+00    0.4685951    0.3430721 -70.70  0.001429918    1.976    0.494
       125  -9.0557    183.9620    204.2182   1.0202856135e+02   2.9611786714e+00    0.3387206    0.2500829  72.44  0.001153915    2.085    0.520
       126  -8.7755    131.4606    204.1661   1.1380376873e+02   1.2525530601e+01    0.3356101    0.2344638  87.76 0.0009988231    2.017    0.504
       127  -8.2472    109.0490    205.0718   1.1922146286e+02   1.6261260968e+01    0.2374854    0.1677367  76.37 0.0007604788    1.703    0.413
       128  -9.4528    250.0969    201.9761   8.8813231163e+01  -7.3282122879e+00    0.4166365      0.16248 -39.26  0.001617804    2.220    0.550
       129  -9.7254    163.8738    203.1879   1.0621263882e+02   6.8125157907e+00    0.4584584    0.2995527  57.94 0.0009639678    1.906    0.475
       130  -7.8837     41.2938    202.9824   1.3467205962e+02   2.6749457223e+01    0.2145943   0.08984435  87.36 0.0007004726    4.026    0.752
       131  -9.2964    243.0633    200.7558   8.9810412436e+01  -6.1028601362e+00    0.3391618    0.1847241 -46.05 0.0009305558    1.818    0.450
       132  -8.3971    210.9263    201.9829   9.6061223798e+01  -1.2663268867e+00    0.1997288    0.1719455 -84.87 0.0005023795    1.668    0.400
       133  -8.7842    140.4056    201.0146   1.1116036566e+02   1.1610261787e+01    0.3667634    0.2463004 -85.63  0.001055857    2.307    0.566
       134  -8.6585     80.0257    201.2694   1.2551671627e+02   2.1875278183e+01    0.3485675    0.2058621  80.60   0.00147147    2.263    0.558
       135  -8.5417     48.2086    202.0229   1.3300848767e+02   2.6127245359e+01    0.2306012    0.1296075  80.13 0.0009152665    2.030    0.507
       136  -8.1943      9.8773    202.6473   1.4141240269e+02   3.0200899507e+01    0.1989875    0.1222903  16.70  0.001089616    2.494    0.599
       137  -9.0664    236.7988    198.4033   9.0479529334e+01  -4.7519301917e+00    0.3374278    0.2060687 -51.66  0.001237515    1.885    0.470
       138  -8.5566    176.9731    199.2248   1.0257396758e+02   5.2469140308e+00    0.2465422    0.2045079 -77.13 0.0005311908    1.540    0.351
       139  -9.5052    149.6293    198.7706   1.0861401434e+02   1.0407710337e+01    0.4478478    0.3125632  88.15  0.001131875    2.251    0.556
       140  -9.0285    124.0006    199.3389   1.1471998740e+02   1.4979109039e+01    0.3387201    0.2306082 -85.39  0.001044225    1.999    0.500
       141  -9.3114    112.9665    198.4919   1.1720838837e+02   1.7134282102e+01    0.5126451    0.3181084  75.30  0.001619859    2.413    0.586
       142  -9.1880     88.7600    198.7388   1.2306249012e+02   2.1126722305e+01    0.4325007    0.2689205  89.05  0.001812262    2.075    0.518
       143  -8.4377    202.3716    197.6610   9.6931278220e+01   1.0209875062e+00    0.2720527    0.1644895 -41.71 0.0006855062    1.581    0.368
       144  -9.4067     61.5451    197.1570   1.2932292782e+02   2.5550966528e+01    0.4363898    0.2413625  78.07  0.001399972    2.368    0.578
       145  -8.4573     12.4431    197.2008   1.4040923933e+02   3.1224832653e+01    0.2905027    0.1023471 -84.19  0.001127476    3.064    0.674
       146  -8.6153    215.9410    195.5956   9.3836240130e+01  -8.9764582577e-01    0.2512451    0.1840595 -56.14 0.0007317721    1.616    0.381
       147  -8.2504    133.0129    196.2045   1.1202356778e+02   1.4068050946e+01    0.2051685    0.1939237  69.15 0.0004801301    1.049    0.046
       148  -7.9842     53.3311    196.6196   1.3118181769e+02   2.6778177222e+01    0.1517623   0.09090642  72.40  0.000134042    1.861    0.463
       149  -9.3182    245.8015    193.6585   8.7974646895e+01  -5.2743794268e+00    0.3124525    0.2433188 -74.92  0.001279449    2.147    0.534
       150  -8.4334    230.9950    194.5671   9.0794199408e+01  -3.1607065577e+00     0.249549    0.1750168 -51.33 0.0006603022    1.572    0.364
       151  -8.8562    224.4753    194.0297   9.1900422795e+01  -2.0141505921e+00    0.3396049    0.1990966 -54.12  0.001234093    2.067    0.516
       152  -8.8671    185.4018    194.8844   9.9913071814e+01   4.6059651525e+00     0.261552    0.2273014  87.93 0.0008245899    1.480    0.324
       153  -8.8832    161.0425    194.5227   1.0520035610e+02   9.2111925035e+00    0.3189093      0.24245  71.74 0.0007762985    1.729    0.422
       154  -8.7765     77.0572    193.8107   1.2514778581e+02   2.4140746004e+01    0.2828135    0.2077192  85.37 0.0006690886    1.420    0.296
       155  -8.9882     43.5697    193.2940   1.3305382681e+02   2.8811163240e+01    0.3843262    0.2099233  80.65  0.001727849    2.166    0.538
       156  -7.6477    205.2357    191.9572   9.5228270970e+01   1.6399281669e+00    0.1833892    0.1126219 -43.26 0.0003758093    1.549    0.355
       157  -8.1578    198.9350    191.9237   9.6498341237e+01   2.7617976851e+00     0.210969    0.1778885 -84.99 0.0006048359    1.622    0.384
       158  -7.9546    178.8923    191.8129   1.0070632563e+02   6.4480874209e+00    0.1939951    0.1762715 -87.27 0.0005162875    1.305    0.234
       159  -8.5379    172.3167    191.7886   1.0214245148e+02   7.6840263577e+00    0.2755534    0.2243628 -82.56 0.0008751736    1.597    0.374
       160  -9.1100    139.5214    190.6306   1.0944586992e+02   1.4146885701e+01    0.4096709    0.2886354  84.49  0.001106772    2.072    0.517
       161  -8.8664      6.6378    191.1548   1.4112643487e+02   3.3175218047e+01    0.3532271    0.1308886 -79.67  0.001549922    2.382    0.580
       162 -10.4038     92.0765    188.6518   1.2066398333e+02   2.3055937458e+01     1.029631    0.3553791  49.97  0.003252261    3.534    0.717
       163  -7.8608     90.4855    181.5581   1.1987965462e+02   2.5072748093e+01     0.272228    0.1663812 -36.48   0.00103897    2.171    0.539
       164  -8.3036    148.3350    189.3947   1.0713268541e+02   1.2763545682e+01    0.2447665    0.1781286 -72.69 0.0006657459    1.703    0.413
       165  -8.9813    129.3302    188.7647   1.1153438113e+02   1.6488003479e+01    0.3404601    0.2439444  82.16 0.0009768712    1.885    0.469
       166  -8.2338    237.1452    188.3194   8.8461910071e+01  -2.9972889641e+00    0.2347227    0.1562785 -31.89 0.0005896088    1.352    0.260
       167  -8.7933    216.6201    187.8839   9.2178770613e+01   4.5948347346e-01    0.2869246    0.2173616 -54.40  0.001170031    1.467    0.318
       168  -8.9036    191.4657    187.5781   9.7174232380e+01   5.0006285827e+00    0.3322173    0.2511259 -74.13  0.001015208    1.862    0.463
       169  -9.4131    156.0121    187.5069   1.0497935510e+02   1.1725204340e+01    0.4317437    0.2457228 -59.38  0.001192455    2.045    0.511
       170  -9.8497    120.8777    186.7685   1.1322073033e+02   1.8519789267e+01    0.6108927    0.3335467 -73.88  0.002171572    2.839    0.648
       171  -8.9615     34.3422    188.4269   1.3463745972e+02   3.1068087110e+01    0.3420668    0.1788161  78.19  0.001421911    2.302    0.566
       172  -7.7250    242.5069    188.4816   8.7548027299e+01  -3.8608759417e+00    0.1330617    0.1140063 -28.22 0.0008101515    1.032    0.031
       173  -9.2507     54.5350    186.7942   1.2962761854e+02   2.9034888657e+01    0.4398342    0.2425389  79.63  0.001710555    2.385    0.581
       174  -8.6783    249.3702    185.9039   8.5868958283e+01  -4.4462201991e+00    0.2711385    0.1695404 -50.81  0.001009436    1.708    0.415
       175  -7.9438    230.3882    187.2357   8.9467965875e+01  -1.7167866525e+00    0.1953616    0.1176738 -49.43 0.0008342555    1.707    0.414
       176  -8.8272    164.8323    186.9116   1.0284613500e+02   1.0167167116e+01    0.3045378    0.2328999  76.12   0.00104857    1.771    0.435
       177  -9.1413    109.6392    186.0215   1.1585646576e+02   2.0717883344e+01      0.42251    0.2798961  83.33  0.001088964    2.122    0.529
       178  -8.9860    182.9634    185.1233   9.8482565104e+01   7.1003160819e+00    0.3130261    0.2068357 -41.84 0.0009177832    1.472    0.321
       179  -8.7550    210.2208    184.4478   9.2732482647e+01   2.2421240251e+00    0.2542537    0.1808826 -40.49 0.0004224921    1.306    0.234
       180  -8.9061    202.7743    184.7569   9.4277428955e+01   3.5112374758e+00    0.2744939    0.1886393 -53.12 0.0006896386    1.556    0.357
       181  -8.9446     66.6002    184.5117   1.2634471338e+02   2.7967855898e+01    0.3545586    0.2221606  82.00 0.0009129767    1.926    0.481
       182  -8.6105    224.1603    183.6811   8.9910235579e+01  -1.7842196622e-02    0.2366927    0.1711604 -46.72 0.0005750065    1.345    0.256
       183  -8.4819    197.1266    183.7253   9.5217706119e+01   4.7501316862e+00    0.2550106    0.1911347 -54.30 0.0007325556    1.425    0.298
       184  -8.9439    174.3088    183.6923   1.0007808434e+02   9.0547861667e+00    0.2982084    0.2399945 -87.93 0.0008956664    1.656    0.396
       185  -9.0861     44.4669    182.4409   1.3150262167e+02   3.1369786975e+01    0.3712665    0.2226381  71.03  0.001006825    1.891    0.471
       186  -8.4354     19.7023    182.7383   1.3741249394e+02   3.3972300752e+01    0.2747503    0.1276897  85.40   0.00116547    2.564    0.610
       187  -8.1359      1.7463    183.6158   1.4153553796e+02   3.5363405560e+01    0.1571282     0.100029  49.46 0.0009412357    1.636    0.389
       188  -9.1862    147.5524    180.8669   1.0563450195e+02   1.4873758544e+01     0.377894     0.273893  83.39  0.001099813    1.977    0.494
       189  -9.6682     25.4872    178.7869   1.3562826265e+02   3.4361093269e+01    0.7129073    0.2975038  84.14  0.002407384    4.121    0.757
       190  -9.9852    248.7967    177.6953   8.4368922875e+01  -2.8985279871e+00    0.6003742    0.2890567 -53.68  0.002533188    2.611    0.617
       191  -8.6850    250.5189    172.8972   8.3143706770e+01  -2.3035813892e+00     0.233852    0.1607057 -39.66 0.0005533523    1.230    0.187
       192  -8.6713    137.4993    179.3027   1.0773115223e+02   1.7182508661e+01    0.3176713     0.231842  86.27 0.0008202536    1.879    0.468
       193  -9.4241    191.5173    178.3851   9.5283478270e+01   6.9036609173e+00    0.3086758    0.2709789  89.08 0.0005552915    1.409    0.290
       194  -8.5343    231.1392    177.0459   8.7301472499e+01   6.5722824761e-02    0.2733113    0.1767381 -46.79 0.0008402507    1.459    0.315
       195  -8.5750    217.7247    177.3239   8.9835732051e+01   2.3179225505e+00    0.3105598    0.1759619 -55.75 0.0009348317    2.123    0.529
       196  -8.5281    205.1157    177.6980   9.2364482538e+01   4.5102752601e+00    0.2517787    0.1871661 -52.44 0.0005730315    1.389    0.280
       197  -9.1319    241.3603    181.8252   8.6446113960e+01  -2.4823422738e+00    0.4019445     0.249403 -63.97  0.001785015    2.687    0.628
       198  -8.5038    129.3051    177.5634   1.0939031465e+02   1.9162919012e+01    0.3331518    0.2247153 -84.06 0.0008782756    2.140    0.533
       199  -8.4303     97.3628    177.6626   1.1745224018e+02   2.4902072421e+01    0.2743261     0.188803   6.86 0.0009991223    2.340    0.573
       200  -9.0663     35.6217    176.4999   1.3290872926e+02   3.3856207503e+01     0.503571    0.2302956  84.51  0.001796398    3.525    0.716
       201  -8.9961    183.1639    176.2393   9.6609031955e+01   8.9585159772e+00    0.3019399    0.2334367 -59.33 0.0005891938    1.411    0.292
       202  -9.5148    104.5050    174.8344   1.1510846242e+02   2.4375363734e+01    0.5957183    0.3454876  71.10  0.001971085    2.877    0.652
       203  -8.7037     89.1923    176.9886   1.1942502865e+02   2.6424473896e+01    0.3041769    0.2169266  63.74 0.0009150144    1.549    0.354
       204 -10.0707     57.2031    173.3359   1.2705762010e+02   3.2048796387e+01    0.8594304    0.4192833  84.48  0.002742419    4.154    0.759
       205  -8.9200     12.4482    176.2278   1.3842187983e+02   3.6213908341e+01    0.3453118    0.1649763  77.51  0.001268155    2.532    0.605
       206  -7.4412    211.6779    176.3501   9.0796622305e+01   3.5879539863e+00    0.1430156    0.1137383 -78.15 0.0007048551    1.747    0.427
       207  -9.2133    158.7614    175.1228   1.0183096018e+02   1.3996477768e+01    0.3944523    0.2820493  86.67  0.001144938    2.141    0.533
       208  -8.5771     79.2307    158.5677   1.1874566069e+02   3.2647676507e+01    0.3074882    0.1987089  21.08  0.001301398    1.999    0.500
       209  -9.4829     81.4568    154.8059   1.1742463335e+02   3.3251603941e+01    0.5231203    0.3249218  76.28  0.001534132    2.481    0.597
       210 -10.6793     75.9990    171.0871   1.2183007802e+02   2.9972748937e+01     1.154787    0.4801178 -76.10  0.003211753    4.745    0.789
       211  -8.8345     74.3355    160.3384   1.2039799192e+02   3.2940866954e+01    0.2799349    0.1980057  -6.53 0.0008436454    2.208    0.547
       212  -8.2771    241.0797    174.3466   8.5015417076e+01  -1.0682669802e+00    0.1778041    0.1672494 -14.83 0.0005224769    1.120    0.107
       213  -8.2679    224.3224    174.0707   8.7939277714e+01   1.7963318548e+00    0.2059393    0.1580444 -43.37 0.0006160447    1.197    0.164
       214  -9.2367    175.7339    172.5263   9.7446554180e+01   1.1218123712e+01    0.3024121    0.2510101 -53.29 0.0005892283    1.210    0.173
       215  -8.2647    142.9885    172.7106   1.0506485518e+02   1.7671759665e+01    0.2739789    0.2008458 -70.25  0.000746991    1.596    0.373
       216  -8.5415    134.7794    171.8826   1.0689796094e+02   1.9473718819e+01    0.2926656     0.217686 -77.62  0.001007927    1.640    0.390
       217  -9.6451    121.4649    170.6087   1.0996579898e+02   2.2330750554e+01    0.4843795    0.3243163 -76.00  0.001083628    1.906    0.475
       218  -9.1822     44.9121    170.8091   1.2983280178e+02   3.4214448673e+01    0.4265898     0.235963  89.28  0.001259023    2.214    0.548
       219  -8.5184    205.8974    170.4296   9.0699197271e+01   5.8427011825e+00    0.2733475    0.1926426 -56.94 0.0006767958    1.558    0.358
       220  -7.7003     68.4998    170.9808   1.2376972188e+02   3.1097301052e+01    0.1996204    0.1183878  88.04 0.0008014445    2.293    0.564
       221  -8.6381    237.2009    169.5620   8.4726380929e+01   4.5933425337e-01     0.250978    0.1715005 -42.37 0.0006687891    1.284    0.221
       222  -9.0601    230.3548    169.8785   8.5992827844e+01   1.5595262825e+00    0.3025793     0.219635 -52.01  0.001397633    1.394    0.283
       223  -8.3122    198.4938    170.1358   9.2119494175e+01   7.3009303603e+00    0.2262791    0.2017868 -78.96 0.0006716395    1.316    0.240
       224  -9.2349    167.2180    168.7280   9.8542268196e+01   1.3758606883e+01    0.4122132    0.2814154  75.13 0.0009967418    2.290    0.563
       225  -8.6929    149.7145    169.7015   1.0282141838e+02   1.7044684446e+01    0.3013956    0.2187009  85.93 0.0008325566    1.987    0.497
       226  -8.0530    244.2515    169.4214   8.3497296131e+01  -6.7512965837e-01    0.1603736    0.1317238  58.83 0.0005749754    1.564    0.361
       227  -8.2034     88.6977    168.5988   1.1806156429e+02   2.8613233803e+01    0.2587274    0.1756029 -82.64 0.0008403598    1.744    0.427
       228  -8.1064    218.9341    168.3472   8.7762078368e+01   3.8671341693e+00    0.1839596    0.1805809 -16.85 0.0004632246    1.106    0.096
       229  -8.6870    111.5886    167.4290   1.1185738206e+02   2.4944691402e+01    0.3425385     0.234906  83.08  0.001160123    2.053    0.513
       230  -9.0538     20.3536    166.1924   1.3541680872e+02   3.7939930783e+01    0.4154681    0.2266767  86.00  0.001705661    2.017    0.504
       231  -8.8895    191.9092    166.4904   9.2697395985e+01   9.3389133881e+00    0.3234822    0.2019691 -48.84 0.0005923711    1.555    0.357
       232  -9.0124    185.0227    166.6039   9.4170365455e+01   1.0670433944e+01    0.2889948    0.2040744 -61.07 0.0007423144    1.616    0.381
       233  -9.8931    136.9571    164.6217   1.0484538341e+02   2.0783768073e+01    0.7176538    0.3445286  57.14  0.002347333    3.044    0.671
       234 -10.1676     95.0891    162.6047   1.1524214232e+02   2.9059413543e+01    0.9719458    0.5953313 -85.31  0.003240549    2.464    0.594
       235  -8.8116     92.9649    152.9949   1.1390749766e+02   3.1831392671e+01    0.2242179    0.2135561 -77.49 0.0004065399    1.024    0.023
       236  -9.0490    159.5647    164.8617   9.9467259000e+01   1.6180884993e+01    0.3761929    0.2621767 -69.07  0.001441047    1.798    0.444
       237  -8.7117    239.8259    164.6264   8.3282384243e+01   9.4456450959e-01    0.2380352    0.1645604 -32.63 0.0008458532    1.332    0.249
       238  -8.2332    233.8486    165.1336   8.4411463362e+01   1.8636250415e+00     0.208731    0.1724022 -56.66 0.0006307195    1.284    0.221
       239  -9.3933     33.6474    163.4909   1.3171166756e+02   3.7297516920e+01    0.5677916    0.2469534  58.01  0.002178614    3.261    0.693
       240  -9.9358    246.0038    163.0037   8.1926852366e+01   2.2121458550e-01    0.3103557     0.207585 -51.29 0.0009448529    1.457    0.313
       241  -9.2697    243.0807    155.1700   8.0830498690e+01   2.1636457961e+00     0.202627    0.1721877 -61.98 0.0003825041    1.272    0.214
       242  -8.0379    239.7106    153.3244   8.1008731133e+01   3.0888715690e+00    0.1887077    0.1427162  53.18 0.0002858111    1.576    0.365
       243  -8.5871    212.9413    163.6122   8.7901986503e+01   5.9096137095e+00    0.2858433    0.1903527 -49.43 0.0007343313    1.443    0.307
       244  -8.7075     58.8011    163.5871   1.2512557295e+02   3.4297968182e+01    0.4245913    0.2196773  12.63  0.001530506    3.695    0.729
       245  -8.6159     60.4858    160.4149   1.2415390243e+02   3.4876270771e+01     0.346384    0.2153419  88.30  0.001012089    2.052    0.513
       246  -8.4254    205.0110    162.8235   8.9267271229e+01   7.5682749133e+00     0.259379    0.1802361 -58.54 0.0006233169    1.599    0.375
       247  -9.3368      3.2836    162.3369   1.3916654188e+02   4.0302111621e+01    0.3817694    0.1890141  59.21  0.001831446    2.349    0.574
       248  -8.7374    151.7846    161.3192   1.0052867692e+02   1.8581006644e+01    0.3341181    0.2525384  77.42  0.000916653    1.732    0.423
       249  -9.0925    177.5347    160.6788   9.4501603840e+01   1.3465650665e+01    0.2940542    0.2407709 -68.10 0.0008636431    1.366    0.268
       250  -8.6028    227.5255    159.2946   8.4321635794e+01   4.0956998928e+00    0.2930391    0.2019826 -66.73  0.001372977    1.930    0.482
       251  -9.8108    105.7331    158.0151   1.1148906009e+02   2.8345048289e+01    0.5330179    0.3703199 -84.34  0.001316935    1.888    0.470
       252  -9.8414    250.1772    157.9297   8.0241141972e+01   4.7021886854e-01    0.3381274    0.1656781 -42.13 0.0008806456    1.716    0.417
       253  -8.4343    236.7379    158.8693   8.2637710897e+01   2.5551953076e+00    0.2370648    0.1796286 -88.18  0.000723035    2.000    0.500
       254  -9.1843    167.7016    157.6313   9.6016390616e+01   1.6158586033e+01    0.4215602    0.2959526 -79.41  0.001202977    2.087    0.521
       255  -8.2439    128.0435    159.0140   1.0588448730e+02   2.3891199778e+01    0.2492689    0.1907252  85.58 0.0005454724    1.662    0.398
       256  -8.3549    196.6342    158.0707   8.9914177290e+01   1.0188457170e+01    0.2390676      0.20924  71.65 0.0007273045    1.320    0.243
       257  -8.0421    188.3671    158.1477   9.1630973315e+01   1.1823480120e+01     0.219534    0.1350954 -55.07 0.0005149953    1.724    0.420
       258  -8.3905    217.9880    156.5614   8.5469813178e+01   6.3801827882e+00    0.2818825    0.1780454 -54.18 0.0007620425    1.638    0.389
       259  -9.0675    157.5214    155.7513   9.7942893201e+01   1.8691033354e+01    0.3923002    0.2481986 -59.01  0.001097849    1.739    0.425
       260  -9.4604    119.6287    155.3917   1.0727272769e+02   2.6405731318e+01    0.5212681     0.327653 -75.53  0.001989422    2.261    0.558
       261  -8.7634     23.0649    156.2942   1.3349438432e+02   4.0121200917e+01    0.2887752    0.1475434 -36.28  0.001276677    2.688    0.628
       262  -8.1499    204.5190    155.4828   8.7788485343e+01   9.1760378303e+00    0.2608526     0.130903 -53.47 0.0008006539    2.166    0.538
       263  -9.2617     49.5264    155.1340   1.2625685680e+02   3.7601507356e+01    0.4185756    0.2540859  76.25  0.001632786    2.218    0.549
       264  -8.5228    144.7378    154.8733   1.0080760782e+02   2.1530403793e+01    0.2864688    0.2170704 -74.50 0.0008079127    1.587    0.370
       265  -9.6904     68.0415    153.7804   1.2093344568e+02   3.5513713179e+01    0.4853539    0.3146268  79.13  0.001541674    2.106    0.525
       266  -8.1436    232.6901    153.6201   8.2248171134e+01   4.2680468708e+00    0.2525535    0.1136339 -43.49 0.0005862094    1.941    0.485
       267  -9.7185    132.8197    152.9758   1.0335085328e+02   2.4399982717e+01    0.4643337    0.3473333  80.73  0.001265259    1.764    0.433
       268  -9.2906    133.4872    148.4982   1.0217624049e+02   2.5336190251e+01    0.4234296    0.2605681 -42.17  0.001759412    1.658    0.397
       269  -8.8000    151.9698    153.0176   9.8644067696e+01   2.0472949967e+01    0.2529471      0.19422 -87.53 0.0009524823    1.699    0.411
       270 -10.5123     54.5904    143.9850   1.2293531660e+02   3.9774725117e+01    0.9602394    0.5244654  87.32  0.003048747    3.334    0.700
       271  -8.9585     57.2061    135.6006   1.2060130202e+02   4.1525423727e+01    0.2793848    0.1461277  25.25  0.001203054    2.297    0.565
       272  -8.6262     20.0773    152.9975   1.3384391999e+02   4.1200066390e+01    0.2012386    0.1369101  73.05 0.0005771677    1.611    0.379
       273  -9.8118     29.5239    150.7618   1.3102024279e+02   4.0874168984e+01    0.5027394     0.261429  70.49  0.002076122    2.895    0.655
       274  -8.8745      2.7920    150.9188   1.3805657662e+02   4.3073242119e+01     0.326967     0.142723 -80.74  0.001507133    2.133    0.531
       275  -9.7280    248.8216    149.4811   7.8766772625e+01   2.2475423717e+00       0.3661    0.1876986 -42.12 0.0008179118    1.644    0.392
       276  -9.7675    242.5548    149.8790   7.9842744041e+01   3.2436770886e+00    0.3072012    0.2579318  74.59  0.001796923    1.500    0.333
       277  -8.8110    189.4864    150.3163   8.9669943240e+01   1.3274356089e+01    0.3419839    0.2220659 -60.60 0.0008136342    1.777    0.437
       278  -8.0020    182.4285    151.2991   9.1368987668e+01   1.4515645777e+01    0.2131667    0.1411739 -55.87 0.0005564717    1.577    0.366
       279  -8.3478    162.5040    150.5628   9.5617492033e+01   1.8837700713e+01    0.2787876    0.1459733 -57.40 0.0008046779    2.216    0.549
       280  -8.7646     98.2676    150.7355   1.1198991935e+02   3.1483926463e+01    0.3217524    0.2379255  80.50  0.001052579    1.727    0.421
       281  -9.7431    233.6898    147.6694   8.0846270361e+01   5.2301709516e+00    0.2770244    0.1949155 -46.92 0.0009685563    1.255    0.203
       282  -8.4322    198.8528    149.0469   8.7495907097e+01   1.1637965716e+01    0.2301451     0.193132 -72.20 0.0005209597    1.335    0.251
       283  -9.9565     89.2136    146.2685   1.1355757597e+02   3.4141536248e+01    0.7036049    0.4181682  89.29  0.002417659    3.275    0.695
       284  -9.1803     78.1762    147.2279   1.1685282260e+02   3.5666877400e+01    0.3617604     0.242875 -85.05 0.0008474448    1.919    0.479
       285  -8.2085    223.2869    146.9180   8.2473638998e+01   7.2957678649e+00    0.2022809    0.1658101 -43.77 0.0004062535    1.085    0.078
       286  -8.2037    206.7630    146.7247   8.5452635214e+01   1.0534783406e+01    0.1967664    0.1672943 -75.56 0.0006378445    1.327    0.246
       287 -10.2579    149.1849    145.1604   9.7520146543e+01   2.2875467122e+01    0.5958055      0.40523  82.38  0.002176413    2.355    0.575
       288  -9.9312    139.0971    144.9472   9.9950026073e+01   2.5029000140e+01    0.5855698    0.3386822 -63.95  0.001668104    2.203    0.546
       289  -8.6093    140.3548    137.2902   9.7841319089e+01   2.6554901042e+01    0.3303767    0.2091885 -11.73  0.001087116    3.334    0.700
       290 -10.2816    106.7206    144.1496   1.0825585720e+02   3.1593989801e+01    0.7975949    0.5221507 -85.20  0.002387381    2.388    0.581
       291  -9.4657     13.3567    146.3011   1.3474888361e+02   4.3395083144e+01    0.3566073    0.1861404  59.02  0.001194992    2.445    0.591
       292  -9.5125    240.2054    145.2356   7.9273574631e+01   4.5273150741e+00    0.2671509    0.1731484 -47.73 0.0006137866    1.355    0.262
       293  -9.4195    242.7796    143.0625   7.8418071718e+01   4.4808364332e+00    0.4564586     0.187036 -35.35  0.001766248    2.578    0.612
       294  -8.0516    175.5146    146.4805   9.1771335543e+01   1.7012733269e+01    0.1550519     0.147478 -59.58 5.193613e-05    1.026    0.025
       295 -10.9207     69.4395    141.4803   1.1819634683e+02   3.8402704543e+01    0.9981222     0.593001 -75.38  0.004229646    2.058    0.514
       296  -9.6663     69.1675    134.6731   1.1688963325e+02   4.0128386071e+01    0.5346737    0.3091921   6.77   0.00189843    3.121    0.680
       297  -9.1657    246.9513    143.7475   7.7903630747e+01   3.6260257694e+00    0.2886671    0.1761077 -39.15 0.0006694681    1.430    0.301
       298  -8.8306    165.6144    144.0995   9.3427056159e+01   1.9637758292e+01    0.2940669    0.2325106 -67.04 0.0007170318    1.392    0.282
       299  -9.9138    125.0046    142.6811   1.0303111385e+02   2.8433523819e+01    0.6074086    0.4033739 -87.47  0.001757585    2.494    0.599
       300  -9.9850     39.8946    147.6306   1.2770107435e+02   4.0583437097e+01    0.6403314    0.3598239  85.95  0.002357778    2.518    0.603
       301  -9.4300      2.7146    141.9366   1.3702859857e+02   4.5224650447e+01    0.3540226    0.1873387  76.50  0.001703455    2.389    0.581
       302  -8.3057    182.1516    141.9097   8.9304321155e+01   1.6607847516e+01    0.2370318    0.2019567 -78.02 0.0006468354    1.308    0.235
       303  -8.5126    250.5071    141.0235   7.6810448843e+01   3.5170358007e+00    0.2080478    0.1137512 -42.98 0.0004525389    1.532    0.347
       304  -8.4044    212.8831    149.8762   8.4986659296e+01   8.6934017634e+00    0.2659758    0.1798799 -48.59 0.0006297702    1.373    0.272
       305 -10.0827     23.4646    138.3448   1.3085825125e+02   4.4485031637e+01    0.5300282    0.2916336  72.74  0.002204859    2.688    0.628
       306  -7.9064    218.6291    138.8058   8.1557713773e+01   9.7905075652e+00    0.2019873    0.1226994 -51.06 0.0003688994    1.554    0.357
       307  -8.7373    172.2066    138.5911   9.0677833679e+01   1.9449238048e+01     0.322024    0.2328755 -71.68  0.001209009    1.723    0.420
       308  -8.3920    207.2259    137.7615   8.3394589257e+01   1.2270145087e+01    0.2631659    0.1831425 -55.21 0.0008391528    1.422    0.297
       309  -8.6794    197.4848    137.4933   8.5189814301e+01   1.4325275977e+01    0.3077629     0.208908 -77.24 0.0008175576    2.160    0.537
       310  -8.8605    150.7727    136.1728   9.5027235007e+01   2.4599609455e+01    0.4860279    0.3205303  14.21  0.001813778    2.610    0.617
       311  -8.7318    162.7211    136.4224   9.2291525623e+01   2.1971597706e+01     0.277309    0.1874438 -59.00 0.0005428118    1.596    0.373
       312 -10.4073     83.3055    133.0310   1.1239102266e+02   3.8377156605e+01    0.6651908    0.3994544 -60.65  0.001784285    1.667    0.400
       313  -9.4056     38.9877    136.2183   1.2605817086e+02   4.3504014831e+01    0.3220878       0.2081  65.26  0.001083789    2.019    0.505
       314  -9.0005    248.3048    135.3705   7.6004213399e+01   4.9370601202e+00    0.2695298    0.1943397 -56.45 0.0007362707    1.318    0.241
       315  -8.7029    246.9151    130.3127   7.5187778301e+01   6.1129869102e+00    0.3110724    0.1615327 -53.85 0.0006864881    1.887    0.470
       316  -8.2433    237.5681    133.7715   7.7329265504e+01   7.1654640964e+00    0.2009374    0.1142473 -51.89 0.0006436677    1.640    0.390
       317  -8.3389    179.7595    134.0392   8.7991791089e+01   1.8810615659e+01    0.2450889    0.1999913 -73.28  0.001193101    1.364    0.267
       318  -9.3091    112.8342    133.3705   1.0410701271e+02   3.3049042604e+01     0.367624    0.2809642  86.37 0.0009600798    1.723    0.420
       319  -9.2429    143.1201    131.6895   9.5810305959e+01   2.7255589793e+01    0.4181753    0.2641788 -63.80 0.0008163382    1.935    0.483
       320 -10.1922    132.1558    130.8466   9.8368060534e+01   2.9760797420e+01    0.6769418    0.4217771 -62.49  0.001818435    1.902    0.474
       321 -10.4774     98.0392    129.9532   1.0743272001e+02   3.6616835968e+01    0.8451724    0.3094204 -53.42   0.00185511    2.681    0.627
       322  -8.1799     98.9982    120.5103   1.0487719591e+02   3.8673535461e+01    0.2143968    0.1493635  23.23 0.0005949844    1.710    0.415
       323  -9.2364    250.6490    129.7606   7.4527466255e+01   5.5520376902e+00    0.4630832    0.1081214 -42.58  0.001463238    3.586    0.721
       324  -9.6061    153.1298    128.7220   9.2671438969e+01   2.5764876426e+01    0.6770703    0.2461858 -46.21  0.002201016    2.681    0.627
       325 -10.2160     73.4676    128.6323   1.1431949665e+02   4.0975375784e+01    0.7287346    0.3630233 -55.38  0.002123683    1.847    0.458
       326  -9.4033     71.2890    120.3495   1.1310960663e+02   4.3284805306e+01    0.3669155    0.2687286 -89.51 0.0009609083    1.888    0.470
       327 -10.6944     12.8773    128.2947   1.3237154907e+02   4.7760583383e+01    0.7575651    0.3150218 -71.87  0.003368354    2.189    0.543
       328  -7.6726    220.6165    129.8360   7.9273493860e+01   1.1162199511e+01    0.2029933    0.1208411 -51.99 0.0004669014    1.588    0.370
       329  -7.8677    204.7566    130.5785   8.2253574861e+01   1.4231492972e+01    0.1910107    0.1418112  68.39 0.0006031129    1.582    0.368
       330  -8.1301    192.7119    130.1777   8.4460154928e+01   1.6846361492e+01    0.2370971    0.1722103 -58.89 0.0005035279    1.412    0.292
       331  -9.3254    168.3162    129.3995   8.9364794723e+01   2.2297219488e+01    0.3457716    0.2480563 -63.44 0.0007730718    1.554    0.356
       332  -8.6831    161.6292    129.8193   9.0965250433e+01   2.3668272386e+01    0.2291722    0.1419526 -54.88 0.0009448043    1.682    0.406
       333  -8.1643      1.4301    130.2227   1.3589920333e+02   4.8083374909e+01     0.173899    0.1003766 -80.52 0.0006858702    1.595    0.373
       334  -8.2497    211.4346    129.1911   8.0731660295e+01   1.3135708011e+01     0.214496    0.1251964 -54.36 0.0008699125    1.723    0.420
       335 -10.4088     60.0165    125.2016   1.1763774890e+02   4.3698646493e+01    0.7155045    0.4459798  84.85  0.002343319    2.813    0.645
       336 -10.7239     44.8543    123.5633   1.2194978172e+02   4.5942918164e+01     1.059538    0.5957772  81.36  0.003823671    3.841    0.740
       337 -10.1217    118.0407    125.1494   1.0069621886e+02   3.3958683150e+01    0.6444903    0.4414552 -73.38  0.001463291    1.976    0.494
       338  -8.3486    228.4991    125.9875   7.7140370349e+01   1.0357615604e+01    0.2211243    0.1245184 -44.50 0.0006229089    1.560    0.359
       339  -8.8234    179.3472    124.7960   8.5903696994e+01   2.0860864163e+01    0.2842785    0.2284078 -84.38 0.0007266906    1.456    0.313
       340 -10.7412     28.1192    120.7179   1.2656166338e+02   4.8314091147e+01     1.015507     0.516688 -76.76  0.004209294    2.344    0.573
       341  -7.9483    188.5171    124.0144   8.3859969183e+01   1.9021572912e+01    0.2316404    0.1419825 -46.56  0.000636726    1.540    0.351
       342  -8.7962     85.5183    122.5130   1.0931895143e+02   4.0545549565e+01    0.4811016    0.2560725  14.05  0.001561594    3.837    0.739
       343  -8.0643    194.9745    121.9775   8.2132826505e+01   1.8040453430e+01    0.2375792     0.172002 -70.81 0.0005371643    1.620    0.383
       344  -8.4766    172.1073    121.8464   8.6724357004e+01   2.3077539107e+01    0.2354369    0.1997405 -79.13 0.0005172459    1.281    0.219
       345  -8.9332    158.4575    121.5594   8.9676707616e+01   2.6163587606e+01    0.3179053    0.2452834 -71.67 0.0007634132    1.503    0.334
       346  -9.8278    131.0411    118.8226   9.5664097850e+01   3.2721798384e+01    0.5384497    0.3663468  89.17  0.001641504    2.468    0.595
       347  -9.9591    141.6043    118.6969   9.2966259249e+01   3.0486182078e+01    0.4690502    0.3008653 -67.99  0.001283683    2.125    0.529
       348  -8.6712    141.3366    113.3459   9.1668165039e+01   3.1704387581e+01    0.2234052    0.1592964  29.90 0.0007991175    1.664    0.399
       349  -9.8557      3.0732    117.2945   1.3360747327e+02   5.0998537368e+01    0.5107622    0.2771161  83.58  0.002396233    2.586    0.613
       350 -10.0481    109.1949    114.1768   1.0036430693e+02   3.8202068594e+01    0.5287724    0.3515309 -70.83  0.001343666    2.098    0.523
       351  -8.5647    250.0923    115.1690   7.1673428924e+01   8.2867214640e+00    0.1907062    0.1745833 -31.69 0.0009924234    1.260    0.206
       352  -8.1772    193.0850    115.3314   8.0946862295e+01   1.9785653648e+01    0.2033037    0.1856632 -81.04 0.0004864826    1.083    0.077
       353  -7.7999    153.2900    115.6412   8.9394063047e+01   2.8577233557e+01    0.1611214    0.1211843 -79.10 0.0007026842    1.688    0.408
       354 -10.1199     92.7368    112.6601   1.0473709618e+02   4.1596616925e+01    0.5058763     0.330809 -66.08   0.00135246    1.902    0.474
       355  -8.9249     92.4689    105.5176   1.0295861090e+02   4.3237297137e+01    0.5775065    0.3359417  12.52  0.002077581    3.147    0.682
       356 -10.0643     78.7393    112.3691   1.0890440520e+02   4.4006631698e+01    0.5890121      0.40445 -84.91  0.001854196    2.338    0.572
       357  -8.9390     78.9543    105.1029   1.0699234878e+02   4.5611243106e+01    0.3394872    0.2352101  11.76  0.001086945    1.819    0.450
       358  -8.7546     59.6935    115.0671   1.1550196034e+02   4.6149957533e+01    0.3218804    0.1956263   3.27  0.001334725    2.511    0.602
       359  -9.7901    122.0718    112.4735   9.6386708365e+01   3.5997751698e+01    0.3949729    0.2629916 -55.74 0.0007009102    1.596    0.374
       360  -9.8753    119.3266    106.5765   9.5570340694e+01   3.7840587244e+01    0.4298601    0.2622577 -44.69    0.0017196    1.618    0.382
       361 -10.7314    108.9905     98.8682   9.6337441766e+01   4.1553753907e+01    0.8316047    0.4826582  68.36  0.001621034    3.460    0.711
       362  -9.0567    107.8898     92.6465   9.4915046505e+01   4.3042535599e+01    0.4979903    0.3095409  22.99  0.002088853    2.151    0.535
       363  -8.5081    174.7678    111.9029   8.3747639074e+01   2.4542593285e+01    0.2793324     0.195531 -61.34 0.0006036864    1.547    0.354
       364  -8.6934    159.0832    111.8297   8.7109949713e+01   2.8084784668e+01    0.2659695    0.2132094 -51.56 0.0005080593    1.226    0.184
       365  -9.7109    133.5598    108.8592   9.2445115678e+01   3.4351432578e+01    0.6094542    0.2750589 -48.28  0.001597811    2.246    0.555
       366 -10.2284     66.3249    109.7060   1.1213655890e+02   4.6481354398e+01    0.6251372    0.3265452 -60.87  0.001998679    2.081    0.520
       367  -9.8053     14.0712    111.1119   1.2922281220e+02   5.1696907307e+01     0.398199    0.2495538  70.76  0.001675895    2.358    0.576
       368 -10.9049    248.9847    106.1529   7.0012606900e+01   1.0089804722e+01    0.7499297    0.2479783 -38.69   0.00278316    2.984    0.665
       369  -8.3309    185.5366    116.0586   8.2574950200e+01   2.1299259043e+01    0.2295171    0.1415971 -46.77 0.0005611733    1.540    0.351
       370  -7.9811    189.0579    108.0432   7.9990744896e+01   2.2114250787e+01    0.2389292    0.1697899 -70.83 0.0005276356    1.639    0.390
       371  -9.2898    139.9418    104.7145   8.9764506312e+01   3.3828250888e+01     0.363184    0.2780803  84.47 0.0008699739    1.690    0.408
       372 -10.6196     45.7775    102.6049   1.1712686748e+02   5.0717846704e+01    0.7635553    0.4819583  74.79  0.003177447    3.244    0.692
       373  -9.1411     45.8451     92.9056   1.1474466334e+02   5.2841226134e+01    0.4672721    0.2293023  10.35  0.001877483    3.173    0.685
       374 -10.6559     22.9965    102.7844   1.2475849155e+02   5.2905914230e+01       0.7354    0.4460711  76.88  0.003043629    3.025    0.669
       375  -9.5257    150.5566    103.1096   8.6820210072e+01   3.1790920381e+01    0.4728919    0.2903289 -63.67  0.001352884    2.140    0.533
       376  -8.4312    166.6303    104.1555   8.3530641683e+01   2.7940118948e+01    0.2358814    0.1749836 -57.43 0.0004984725    1.382    0.276
       377  -9.5041      6.7262    103.1061   1.3016065130e+02   5.4006454555e+01    0.2898215    0.2007425  72.66  0.001671273    1.981    0.495
       378  -9.8366    128.5427    102.2341   9.1970306902e+01   3.6818856481e+01    0.3748519    0.2914615 -85.11 0.0009091976    1.698    0.411
       379  -7.6906    175.6911    102.3184   8.1205430465e+01   2.6241872682e+01    0.1552944     0.114541 -78.26 0.0003551548    1.638    0.389
       380  -8.1738    159.6839    101.0748   8.4243594379e+01   3.0131521147e+01    0.2419682    0.1783871 -61.37  0.000457628    1.468    0.319
       381  -9.2878     81.9172     99.9404   1.0470200328e+02   4.6258957078e+01    0.3745508    0.2785342 -76.36 0.0009290085    1.891    0.471
       382 -10.2700     63.8374     96.3569   1.0956281359e+02   4.9798385752e+01    0.7122811    0.3881743 -65.18  0.002088877    2.590    0.614
       383  -8.6375     65.4535     87.6191   1.0665176643e+02   5.1404574565e+01    0.4432692    0.2189025  11.74  0.001451002    4.369    0.771
       384  -8.8914    169.2165     97.5024   8.1316377090e+01   2.8651209192e+01    0.3749196     0.264892  17.87  0.001005924    2.293    0.564
       385  -9.2235     94.9791     97.1658   9.9943526888e+01   4.4576407818e+01    0.3228406     0.227668 -53.71 0.0005900669    1.498    0.332
       386  -7.7732    182.6014    109.4928   8.1582653267e+01   2.3269568825e+01    0.1506983    0.1386822 -63.85 8.062143e-05    1.024    0.023
       387  -8.2350    164.8301     94.1404   8.1368884005e+01   3.0298856710e+01    0.2318403    0.1915144 -73.62 0.0004988156    1.292    0.226
       388  -9.4591    139.0952     91.9386   8.6550130467e+01   3.6567693011e+01    0.5240172    0.2956536 -47.77  0.001561956    1.829    0.453
       389 -10.2752    123.8330     91.5603   9.0270729236e+01   3.9973358950e+01      0.62431    0.4441041  36.34  0.001362734    1.468    0.319
       390  -7.4864    188.5359     93.5063   7.6614929017e+01   2.4996291724e+01    0.1476783    0.1337714 -74.53 0.0001802453    1.027    0.027
       391  -7.9748    176.4250     93.2580   7.8817458339e+01   2.7802971335e+01    0.2095105    0.1314401 -54.37 0.0007072116    1.643    0.391
       392  -9.7957      5.2328     92.0694   1.2862150028e+02   5.6528940402e+01    0.3384354    0.2367029  69.66  0.001400352    2.102    0.524
       393  -8.1354    157.7353     91.9703   8.2311639223e+01   3.2337855187e+01    0.2092399    0.1897157 -56.15 0.0003578613    1.095    0.086
       394  -9.7501     34.8722     90.0421   1.1784885568e+02   5.4630522922e+01    0.4068396     0.265801 -80.20  0.001570775    2.380    0.580
       395  -8.6722    224.9498     90.5081   7.0080961132e+01   1.7583830393e+01    0.2084436    0.1665345 -53.88 0.0004021167    1.113    0.102
       396  -9.1075     23.0995     90.3021   1.2204731029e+02   5.5645866751e+01    0.3119069    0.2135022   7.49   0.00136331    1.661    0.398
       397  -8.3031    151.0652     95.8955   8.4815834394e+01   3.3107119711e+01    0.2443963    0.1905404   4.42  0.001127616    1.811    0.448
       398  -8.0525    151.1490     89.2219   8.3030297807e+01   3.4361593695e+01    0.2048573    0.1721736 -78.63 0.0004704593    1.315    0.239
       399 -10.1186     86.6767     86.1306   9.9352010904e+01   4.8305559730e+01    0.6724964    0.4359757 -54.26  0.001062515    1.742    0.426
       400  -7.8626    163.9934     87.4757   7.9829419732e+01   3.1733517905e+01    0.1972506    0.1274832  83.79 0.0005260285    2.225    0.551
       401  -9.9075     48.6667     84.4266   1.1154041925e+02   5.4289735455e+01    0.5059126    0.3572914  75.34  0.001884253    2.780    0.640
       402  -7.5713    179.3069     85.6630   7.6389473115e+01   2.8527703507e+01    0.1531739    0.1081549 -75.05 0.0007041651    1.676    0.403
       403  -9.9350    104.9316     83.3250   9.3079788733e+01   4.5444449936e+01    0.4620238    0.3354238 -71.33  0.001176221    2.025    0.506
       404  -8.0512    157.7275     83.9829   8.0219193152e+01   3.3813298061e+01    0.2022522    0.1802716 -49.53 0.0003694833    1.134    0.118
       405  -9.2401    140.9940     82.8294   8.3609072114e+01   3.7844942228e+01      0.38768    0.2261881 -50.77 0.0007222613    1.867    0.464
       406  -9.7134     10.0656     81.7244   1.2477721648e+02   5.8425452262e+01    0.4097412    0.2791249 -86.50   0.00187961    2.130    0.531
       407  -7.4176    170.3631     83.6907   7.7589738916e+01   3.0943889802e+01    0.1551875    0.1103764 -81.39 0.0007039687    1.747    0.428
       408  -8.4627     35.3292     83.3063   1.1599382572e+02   5.5999529601e+01    0.1359714   0.08393364 -26.16 0.0007037651    1.656    0.396
       409  -9.6034     24.5816     80.4860   1.1918393654e+02   5.7584646283e+01    0.3883298    0.2513849 -79.21  0.001424056    2.431    0.589
       410  -8.4542    150.1623     80.6887   8.0961370613e+01   3.6142197470e+01    0.2487963    0.1935428 -57.88 0.0005033448    1.367    0.268
       411  -8.8771    119.3812     80.4111   8.8269791672e+01   4.3024681572e+01    0.3162946    0.2390987 -59.99 0.0008332307    1.569    0.362
       412  -8.8860     74.4445     80.2878   1.0155051577e+02   5.1493830593e+01    0.3276717    0.2243994 -63.96  0.001097124    2.059    0.514
       413  -8.3220    166.8372     79.7115   7.7259007551e+01   3.2461031657e+01     0.231027    0.1923838 -33.92 0.0003939504    1.312    0.238
       414  -7.5199    184.2682     78.3359   7.3700936290e+01   2.8665713870e+01    0.1333576     0.114982   9.89 0.0002279314    1.593    0.372
       415 -10.0345     63.6737     74.4398   1.0342428383e+02   5.4255419567e+01    0.6251109    0.2963897 -57.49  0.002438064    3.177    0.685
       416  -7.7485    157.4201     76.5031   7.8306146413e+01   3.5198549739e+01     0.144663      0.13453 -87.21 0.0002103015    1.050    0.048
       417  -8.8889    140.3182     75.5632   8.1752295097e+01   3.9281621029e+01    0.2543921     0.169473 -51.58 0.0007285244    1.633    0.388
       418  -9.5166    128.0316     74.9035   8.4478561292e+01   4.2135878633e+01    0.4816223    0.2633997 -42.99  0.001232117    1.899    0.473
       419  -9.8079     82.3709     72.5159   9.6631121060e+01   5.1624530732e+01    0.4382585    0.3007782 -61.48  0.001264246    2.085    0.520
       420  -8.6748     84.5422     64.7277   9.3501078351e+01   5.2598029455e+01    0.5000519    0.2424595  19.83  0.001595701    4.531    0.779
       421  -8.1263    163.4834     73.4763   7.6298343781e+01   3.4303979864e+01    0.2735579    0.1387012 -40.88 0.0008222708    2.005    0.501
       422  -8.9048    115.6254     72.5472   8.6954353824e+01   4.5208852125e+01    0.3431661    0.2105045 -43.61  0.001179093    1.711    0.415
       423  -8.3068     42.7395     72.8488   1.1042481870e+02   5.7289011323e+01    0.2255513    0.1712228 -61.61 0.0009162645    1.628    0.386
       424  -7.8136    175.4774     72.5327   7.3816824951e+01   3.1672700393e+01    0.1424225    0.1307159 -89.66 -8.154909e-07    1.001    0.001
       425  -9.4154    105.9250     71.7291   8.9346165470e+01   4.7345147228e+01    0.2528028    0.2024288 -48.08 0.0005697004    1.362    0.266
       426  -9.3629     94.9845     70.9249   9.2256393074e+01   4.9620577658e+01    0.3963994    0.2365115 -54.17  0.001460259    2.171    0.539
       427  -8.4285     95.4900     65.0059   9.0264403496e+01   5.0529132465e+01    0.4117951    0.2301316   4.44  0.001282461    4.920    0.797
       428  -8.1899    169.3760     71.1581   7.4580156921e+01   3.3317349863e+01    0.2425165     0.182311  51.92 0.0007186228    1.330    0.248
       429  -9.6168     51.2748     69.4536   1.0629511896e+02   5.6891113756e+01    0.4261066    0.2655835 -62.37  0.001595497    2.384    0.580
       430  -9.0522     28.9682     70.4810   1.1490891030e+02   5.9186223584e+01    0.3156275    0.1761524 -16.74  0.001598721    2.111    0.526
       431  -8.9598     16.5305     69.9122   1.1951812979e+02   6.0356983610e+01    0.2776023    0.1980556 -76.05  0.001138938    1.994    0.499
       432  -8.0391    156.6420     69.8244   7.6687362508e+01   3.6496741919e+01     0.201807    0.1256301 -50.27 0.0004604583    1.701    0.412
       433  -8.9207    147.2456     68.3918   7.8239293441e+01   3.8900071864e+01    0.3091187    0.2264848 -58.32 0.0007589738    1.521    0.343
       434  -8.6072    138.6677     66.3224   7.9530494795e+01   4.1191235830e+01    0.2448376    0.1607952 -49.87 0.0006489508    1.668    0.401
       435  -8.8157    121.5448     66.0087   8.3488945151e+01   4.5037498356e+01     0.264154    0.2153041 -65.07 0.0006166987    1.481    0.325
       436  -7.6919    151.2981     73.6234   7.8808399783e+01   3.7102326819e+01    0.1517166    0.1093319 -74.38 0.0007025582    1.753    0.430
       437  -8.8557     64.3535     63.7945   9.9872224226e+01   5.6078462936e+01    0.4611627     0.254074   2.81  0.001789143    3.403    0.706
       438  -8.7788     37.2915     64.3181   1.0994135094e+02   5.9501703562e+01    0.2723904    0.2135106 -70.79 0.0009801461    1.927    0.481
       439  -8.9912    110.0830     63.5477   8.5712166616e+01   4.7858166512e+01    0.2769774    0.2171555 -45.40 0.0007554097    1.394    0.282
       440  -7.8511    158.0258     61.9547   7.4318770921e+01   3.7423093067e+01    0.1631489    0.1543003 -85.52  0.000355535    1.049    0.047
       441  -9.4284     97.6345     60.5274   8.8225975892e+01   5.0839557955e+01    0.3079448    0.2937213   9.55  0.001438695    1.068    0.064
       442  -9.7819     73.2758     59.0651   9.5301442773e+01   5.5466109982e+01    0.5239175    0.2229162 -43.33  0.002096591    2.460    0.594
       443  -8.1383     89.0059     59.4705   9.0437169134e+01   5.2646118551e+01    0.2087541    0.1668869 -30.76 0.0005781339    1.272    0.214
       444  -7.7409    164.6373     59.7216   7.2499462551e+01   3.6224281156e+01    0.1402062    0.1036545  34.46 0.0007011127    1.671    0.402
       445  -8.3494    146.9775     59.2246   7.5766582923e+01   4.0395138226e+01    0.1898416    0.1767892  67.48 0.0004751392    1.004    0.004
       446  -9.9793     23.3989     56.5551   1.1303909074e+02   6.2289653235e+01    0.4001021    0.2937397 -83.07  0.002188416    2.798    0.643
       447  -8.6703    130.8373     57.8075   7.8850125428e+01   4.4270027169e+01    0.2601188    0.1709037 -62.31 0.0008563122    2.066    0.516
       448  -9.4858      7.5020     57.2391   1.1971100267e+02   6.3406498806e+01    0.2427692    0.1916908 -76.87 0.0008589798    1.853    0.460
       449  -9.1919    119.0928     55.1600   8.0837561358e+01   4.7239310902e+01    0.4302654    0.2082966 -43.32  0.001351995    2.292    0.564
       450  -9.5573     54.3376     55.6746   1.0078277052e+02   5.8897596237e+01    0.3138657    0.2132331 -51.88  0.001242799    1.852    0.460
       451  -8.7923    139.9908     56.2791   7.6397219864e+01   4.2432292376e+01    0.1893355    0.1737531  63.28 0.0003870333    1.021    0.020
       452  -9.0343     44.0594     55.6804   1.0462511621e+02   6.0240410990e+01    0.2245913    0.1925487 -47.37  0.000739533    1.428    0.300
       453  -8.6512    105.6386     53.3064   8.3709950903e+01   5.0338020431e+01    0.2596486    0.2145909 -82.83  0.000751372    1.674    0.403
       454  -9.5340     92.4157     50.5368   8.6506987494e+01   5.3357938037e+01    0.3670582    0.2237927 -43.40  0.001130531    1.869    0.465
       455  -9.0590    144.9405     48.9687   7.3328241202e+01   4.2338474069e+01    0.2102994    0.1563279 -72.63 0.0005639378    1.622    0.383
       456  -8.4011    129.9258     49.1230   7.6507453750e+01   4.5718032178e+01    0.2018733    0.1779202 -81.21 0.0005748252    1.282    0.220
       457  -8.3293      9.3634     49.2746   1.1664148235e+02   6.4708641631e+01    0.1213613   0.06701159 -23.04 0.0003042963    1.664    0.399
       458  -8.7543    120.8917     47.5564   7.8093805175e+01   4.7922369706e+01    0.2296672    0.1896565 -40.92 0.0005874538    1.334    0.250
       459  -8.3853    112.2186     46.9604   8.0007363109e+01   4.9862492271e+01    0.1891993    0.1765744 -78.10 0.0005682265    1.264    0.209
       460  -9.2135     81.9198     46.3452   8.8252184982e+01   5.5905180600e+01    0.2779675     0.180521 -40.68 0.0008339232    1.719    0.418
       461  -8.6992     44.9588     44.6970   1.0053706852e+02   6.1894896615e+01    0.2157626    0.1600034 -37.46 0.0005966304    1.402    0.287
       462  -9.2333     16.4739     44.6770   1.1216814522e+02   6.4938892478e+01    0.2041331    0.1810124 -49.81 0.0007928786    1.507    0.336
       463  -8.9500    132.9333     43.5143   7.4216001242e+01   4.5793784189e+01    0.2453798    0.1787153 -56.30  0.000851695    1.624    0.384
       464  -8.6423     92.8067     43.0053   8.3893132515e+01   5.4326056305e+01    0.2443007     0.173394  -0.14  0.001256749    1.647    0.393
       465  -9.1091     58.1808     42.7441   9.4917603280e+01   6.0340343941e+01    0.2934129     0.186557 -49.55 0.0009993215    2.163    0.538
       466  -9.4398     69.5770     41.0147   9.0358864498e+01   5.8781731894e+01    0.4443066    0.2440745 -33.35  0.001957562    1.860    0.462
       467  -9.7662      5.0062     41.5858   1.1615474032e+02   6.6325956109e+01     0.420722    0.2011089 -61.18  0.002095313    3.071    0.674
       468  -8.3766    221.2689     42.1582   6.0347593066e+01   2.5919089215e+01    0.1762627    0.1582561 -34.67 0.0008488344    1.462    0.316
       469  -9.1177    106.0178     41.0746   7.9701293216e+01   5.1931810148e+01    0.3083533    0.1683911 -37.30  0.001234656    2.009    0.502
       470  -7.9878    140.4178     41.5198   7.2125066293e+01   4.4357409150e+01     0.132006    0.1193403  58.06 0.0001027026    1.028    0.027
       471  -8.5860     36.7626     40.8667   1.0240293376e+02   6.3489443419e+01    0.1922802    0.1547352 -44.54  0.000725712    1.561    0.359
       472  -8.7878     95.2656     37.9403   8.1510987913e+01   5.4497681274e+01    0.2450362    0.1641907 -42.94  0.001227566    1.776    0.437
       473  -8.3328     80.6876     37.1360   8.5445811393e+01   5.7359801068e+01    0.1817423    0.1529046 -41.02 0.0005057189    1.448    0.309
       474  -9.5606     26.2425     35.6687   1.0487493764e+02   6.5438483460e+01    0.2497423    0.1842543 -45.68 0.0008035614    1.656    0.396
       475  -8.3590    125.9460     35.6962   7.3379926581e+01   4.8322717073e+01    0.2002468    0.1771907   9.11 0.0005119146    1.264    0.209
       476  -8.7250    111.9286     34.9154   7.6280590428e+01   5.1451337305e+01    0.1916371    0.1545813 -77.43 0.0006747573    1.657    0.397
       477  -8.2605     88.5089     34.9448   8.2379165318e+01   5.6176200216e+01    0.1774228    0.1221742 -26.64 0.0004932465    1.553    0.356
       478  -9.0528     48.5171     33.4451   9.5069686340e+01   6.3028767200e+01    0.2246659    0.1932541 -32.93 0.0007834364    1.435    0.303
       479  -8.7377    118.9417     32.7503   7.4001215938e+01   5.0200227643e+01    0.2691548    0.1704991 -33.53   0.00102697    1.762    0.432
       480  -8.7758     60.8548     32.7145   9.0312961872e+01   6.1287177115e+01    0.2056844    0.1653287 -26.81 0.0005077663    1.333    0.250
       481  -8.0657    139.3669     32.1319   6.9668843774e+01   4.5734488200e+01     0.175384    0.1142738 -45.83 0.0009398772    1.729    0.422
       482  -8.6826     72.3292     31.3209   8.5973708190e+01   5.9560124078e+01    0.1988799     0.171914 -74.29 0.0006171523    1.885    0.469
       483  -9.1613     12.8640     30.1741   1.0873927095e+02   6.7527351924e+01    0.2734284    0.1479634 -49.40  0.001375054    2.138    0.532
       484  -8.5289     42.1661     30.1559   9.6269833419e+01   6.4328980803e+01    0.1443926    0.1304281   3.02 0.0004605841    1.311    0.237
       485  -8.2899    101.4865     29.1295   7.6945864218e+01   5.4285684387e+01    0.1722886     0.123692 -27.41 0.0008622441    1.547    0.353
       486  -8.9429     81.5865     27.3849   8.1726890559e+01   5.8357802121e+01    0.2430649    0.1973538 -49.71 0.0008713799    1.674    0.403
       487  -8.7895      3.5368     27.7447   1.1216003230e+02   6.8628612445e+01    0.1891053    0.1524964 -35.96 0.0007876945    1.370    0.270
       488  -8.0110    109.9667     27.2095   7.4286237593e+01   5.2735422859e+01    0.1683618    0.1330265 -53.03 0.0005855413    1.582    0.368
       489  -8.8633     91.9212     26.6518   7.8581671172e+01   5.6469728800e+01    0.2100413    0.1776459 -38.36 0.0007296449    1.422    0.297
       490  -8.2242    104.4972     22.9813   7.4192028957e+01   5.4320305381e+01     0.165818    0.1226059 -25.08 0.0005231656    1.528    0.346
       491  -8.1944     34.6433     23.1000   9.6531019375e+01   6.6200736735e+01    0.1565942    0.1319206 -29.09 0.0007446145    1.476    0.322
       492  -8.0306    117.0006     22.0038   7.1098958315e+01   5.1776835846e+01    0.1507286    0.1352597  45.27 0.0006730231    1.057    0.054
       493  -9.0800     63.5010     20.9682   8.4974044065e+01   6.2236190991e+01    0.2579012    0.1937723 -50.41  0.001162923    2.078    0.519
       494  -9.0514     48.3996     21.8099   9.0616145761e+01   6.4496525403e+01     0.204411    0.1732485   0.76 0.0006603201    1.160    0.138
       495  -8.3085     19.7104     21.5722   1.0234582960e+02   6.8091112016e+01    0.1602248    0.1311219 -42.25 0.0007523563    1.747    0.427
       496  -8.2644    120.6117     20.8591   7.0003221993e+01   5.1109774627e+01    0.1649667    0.1117376 -42.91 0.0009442435    1.742    0.426
       497  -8.6205    218.6545    247.5227   1.0280501250e+02  -1.0284888854e+01    0.3417648    0.1409195 -44.58  0.001554428    2.671    0.626
       498  -8.2677     87.8048     17.8026   7.6596961986e+01   5.8175813457e+01    0.1445108    0.1409964 -88.45 0.0003998304    1.327    0.247
       499  -8.2026     38.6176     18.2529   9.2958009221e+01   6.6270851702e+01     0.152409   0.09150284 -17.49 0.0009006229    1.582    0.368
       500  -7.7713    112.6491     16.7971   7.0388856441e+01   5.3212695315e+01    0.1468571     0.112818 -36.85 0.0003603119    1.532    0.347
       501  -8.4233     30.0261     16.0990   9.5598051114e+01   6.7617062060e+01    0.1420739    0.1369565   8.72 0.0006457423    1.699    0.411
       502  -8.0511      7.5170     15.9739   1.0575396121e+02   6.9977070540e+01    0.1223014   0.09274059 -56.94 0.0005142394    2.535    0.605
       503  -8.2727     16.9473     14.1632   1.0056090538e+02   6.9317204795e+01    0.1513658    0.1265134   2.80 0.0007077776    1.321    0.243
       504  -7.7421    119.7347     11.3982   6.7302139709e+01   5.2180779608e+01    0.1177841   0.08782192 -67.47 0.0006974853    1.725    0.420
       505  -7.3460     76.3124     10.6416   7.7142130007e+01   6.1000745369e+01    0.1053504   0.09214765 -74.70  0.000704311    1.743    0.426
       506  -7.9684    191.2340    249.4555   1.0849929498e+02  -6.5638712531e+00    0.1735975    0.1108441  43.71 0.0009288342    1.631    0.387
       507  -9.0410    175.6653    247.6395   1.1136434125e+02  -3.8283931804e+00    0.3333022    0.2590497 -70.20  0.001247953    1.855    0.461
       508  -8.6381    156.2807    248.4207   1.1549577693e+02  -8.4483751714e-01     0.270082      0.18963  64.77 0.0006924693    1.914    0.478
       509  -8.2267    113.1346    248.6981   1.2456971272e+02   6.1161786506e+00    0.2196929    0.1700891 -83.85  0.000895632    1.453    0.312
       510  -9.1261    104.0392    247.2330   1.2628258522e+02   7.8514939640e+00    0.4445006    0.2527239 -84.29  0.002004476    2.570    0.611
       511  -8.6720    242.7350    247.1391   9.8263581886e+01  -1.3452346702e+01      0.24278     0.124353 -38.96 0.0009587221    1.914    0.477
       512  -8.6314    132.1252    247.8470   1.2047426342e+02   3.2108775034e+00    0.2331322     0.196643  69.68 0.0006659066    1.269    0.212
       513  -9.9565    224.0742    243.9734   1.0117027997e+02  -1.0494955996e+01    0.4853694    0.2518569 -42.85  0.001996398    2.038    0.509
       514  -9.1978    211.0411    246.3781   1.0407823576e+02  -9.0186634854e+00    0.2261592    0.1773058 -39.38 0.0007982269    1.412    0.292
       515  -8.9713    146.7729    246.1439   1.1714642241e+02   1.1316704925e+00    0.2823745    0.2074009 -88.96  0.001306524    1.989    0.497
