#   1 NUMBER                 Running object number                                     
#   2 MAG_AUTO               Kron-like elliptical aperture magnitude                    [mag]
#   3 X_IMAGE                Object position along x                                    [pixel]
#   4 Y_IMAGE                Object position along y                                    [pixel]
#   5 X_WORLD                Barycenter position along world x axis                     [deg]
#   6 Y_WORLD                Barycenter position along world y axis                     [deg]
#   7 A_WORLD                Profile RMS along major axis (world units)                 [deg]
#   8 B_WORLD                Profile RMS along minor axis (world units)                 [deg]
#   9 THETA_WORLD            Position angle (CCW/world-x)                               [deg]
#  10 FWHM_WORLD             FWHM assuming a gaussian core                              [deg]
#  11 ELONGATION             A_IMAGE/B_IMAGE                                           
#  12 ELLIPTICITY            1 - B_IMAGE/A_IMAGE                                       
         1 -12.1456     18.6278     40.2524   1.1219464521e+02   6.5984339448e+01     1.124343    0.5096938 -72.16  0.005178841    2.556    0.609
         2 -10.9292     49.1150      2.4575   8.1827666468e+01   6.9560136353e+01    0.3523692    0.2450106  35.22 0.0005470462    1.583    0.368
         3 -12.4327     29.7960     31.0192   1.0430115830e+02   6.6964795999e+01     2.126235     1.124972  -0.49  0.009578338    3.539    0.717
         4 -12.9385     10.4757     18.2722   1.0861350298e+02   7.1104971348e+01    0.5972311    0.4983735  31.50  0.002769178    1.608    0.378
         5 -11.6059     43.3155     19.6664   9.3495909461e+01   6.7630951544e+01    0.4374285    0.3631855 -20.20  0.001531134    1.102    0.093
         6 -11.0097     39.3494     16.1099   9.3558964417e+01   6.8750661624e+01    0.3403056    0.2348089  24.13 0.0008553453    1.685    0.406
         7 -11.8752     50.2120      8.4762   8.4773087059e+01   6.8526341809e+01    0.7198235    0.5701026  41.08  0.004583327    1.558    0.358
         8 -11.1681     42.1158     10.0481   8.9190365415e+01   6.9416790049e+01    0.3367203    0.2300818 -34.79 0.0007513962    1.209    0.173
         9 -12.6750    243.2579     25.0062   5.1453722222e+01   2.0917814769e+01    0.6614529    0.2608702 -26.68  0.002639538    2.205    0.546
        10 -12.1308      2.2490     10.2180   1.0979090830e+02   7.3205336455e+01    0.6755522    0.1783844 -49.70 0.0008429851    2.354    0.575
        11 -11.2674     30.8254     14.9252   9.6981941398e+01   6.9941269784e+01    0.3425868    0.1963573 -43.19 0.0009665841    1.380    0.275
        12  -9.8749     56.4737     15.0365   8.5651000169e+01   6.6569926017e+01    0.2500053    0.1728468 -35.50 0.0007742287    1.264    0.209
        13 -10.3478     67.8318     13.7123   8.0600766659e+01   6.4920496745e+01    0.2915762    0.1632939 -19.23 0.0009912164    1.830    0.454
        14 -11.9491     66.6735      9.0991   7.8603408699e+01   6.5778296403e+01    0.9481838    0.3903019  42.97  0.004186439    2.586    0.613
        15 -11.0676     82.2323      7.8227   7.2658170657e+01   6.3037333552e+01    0.5003379    0.2636909  33.16  0.002294292    2.088    0.521
        16 -11.6803     77.2294      3.3498   7.1869515431e+01   6.4558881200e+01    0.5738753    0.4038212  30.59  0.002581092    1.402    0.287
        17 -11.0533     86.6894     13.5124   7.4159072857e+01   6.1416837102e+01    0.2870173    0.2166449 -64.02  0.001475641    1.983    0.496
        18 -10.9298     19.2812     10.8365   1.0081880098e+02   7.1821860388e+01    0.2889585     0.252857 -59.83  0.001022349    1.433    0.302
        19 -11.0569     26.1489      7.4997   9.5561067155e+01   7.1740333537e+01    0.3158412    0.2436306 -31.76 0.0004272946    1.036    0.035
        20 -11.1773     21.9013      3.7227   9.5753286687e+01   7.2818262906e+01    0.4768121    0.2143139 -30.66  0.002411389    2.115    0.527
        21 -11.2492     16.3612      3.4614   9.8649451659e+01   7.3393868291e+01    0.3074828    0.2836514 -14.87  0.001131462    1.329    0.248
        22  -8.8288     57.6519      6.6823   8.0721921922e+01   6.7633005122e+01    0.2012363    0.1313207   2.41 0.0007551891    1.723    0.420
        23  -9.8137     59.4809      2.5127   7.7647838119e+01   6.7891228141e+01    0.3079566    0.1114456 -27.60  0.001155619    2.490    0.598
        24  -8.9587    148.0415      5.9853   5.6849550713e+01   4.7723447322e+01    0.1696939    0.1627078  30.17 0.0003601571    1.008    0.008
        25  -9.1370    222.5570      3.5233   4.7266514140e+01   2.8256775068e+01    0.1374695    0.1290072 -48.42 7.962956e-05    1.024    0.023
        26  -9.4883     35.2492      2.1294   8.7979796483e+01   7.1545702210e+01    0.1733834    0.1224128 -28.14  0.001101301    1.120    0.107
        27  -9.9883      7.9856      1.9242   1.0264675217e+02   7.4360940532e+01    0.2518517     0.149296  36.49  0.001578155    2.370    0.578
        28 -11.2390    221.5085    236.7345   1.0156778543e+02  -1.5236113021e+00    0.3687435      0.21165  21.30  0.001353613    1.699    0.411
        29  -9.2906    249.7995    250.1659   9.9234435559e+01  -6.6148540064e+00    0.1404566   0.08308889  21.70 0.0004654938    1.318    0.241
        30  -9.5763    231.9891    250.7651   1.0188362054e+02  -4.2527905358e+00    0.3496476   0.07974305  43.11  0.001584872    3.341    0.701
        31  -9.8614    233.6383    247.8076   1.0125305381e+02  -4.2330582513e+00    0.1658124    0.1121529 -22.84 0.0005842194    1.782    0.439
        32 -10.5058    233.5464    244.0176   1.0075811566e+02  -3.8988072216e+00    0.3373632    0.1244732  38.49  0.001516402    1.995    0.499
        33 -10.2482    218.5582    250.1432   1.0377922896e+02  -2.3294365525e+00    0.2153406    0.1072277  33.35  0.001277871    1.525    0.344
        34 -11.2682    166.2969    248.5604   1.1152920243e+02   5.3604684843e+00     0.186629    0.1501831  41.98 0.0004352281    1.098    0.089
        35 -11.9405    139.7070    246.9262   1.1549428777e+02   9.3891585591e+00     0.376316    0.2317275  27.78 0.0009899823    2.038    0.509
        36  -9.5819     87.3807    249.9781   1.2381788368e+02   1.6075239856e+01    0.1290248   0.09866777  67.86 0.0004850614    1.144    0.126
        37  -9.2744     72.7254    250.6710   1.2606423823e+02   1.7794280577e+01    0.1279918   0.06270539  50.52  0.000372907    1.438    0.305
        38 -11.1928     46.0531    250.0028   1.2994851388e+02   2.0971622890e+01     0.270794    0.1204016  46.83  0.001512423    1.652    0.395
        39 -10.0789      1.6744    248.9460   1.3614040222e+02   2.5581518399e+01    0.1798624   0.08799578 -85.29  0.001466005    1.826    0.452
        40  -9.8252     98.3745    241.4666   1.2149059244e+02   1.5833603252e+01    0.1641081    0.1357229  63.52 0.0006712998    1.177    0.151
        41 -10.7088    125.3552    240.1557   1.1710803599e+02   1.2302525447e+01    0.1966161    0.1427413  44.16 0.0004884932    1.180    0.153
        42 -10.3686    103.2556    240.1676   1.2061670274e+02   1.5362682272e+01    0.1640063    0.1242533  54.94  0.000425088    1.076    0.071
        43 -11.0713     50.5299    239.8258   1.2876484370e+02   2.1971143795e+01    0.3003491    0.1465514  59.67  0.001645621    1.490    0.329
        44 -10.4713    202.2836    239.9878   1.0494382008e+02   9.8389964680e-01    0.1998572    0.1314052  35.85 0.0004791611    1.130    0.115
        45 -11.7361    198.2229    237.9121   1.0530635010e+02   1.7998347527e+00    0.4902403    0.2431021  37.62  0.001939889    1.545    0.353
        46 -10.3104     68.9180    240.0573   1.2597342793e+02   1.9783693370e+01    0.1906898    0.1182646  41.85 0.0005032924    1.560    0.359
        47  -8.7544     35.3544    240.2915   1.3105458455e+02   2.3561190573e+01   0.07609826   0.07055696  62.73 0.0007028802    1.681    0.405
        48 -11.1769     26.5414    238.6584   1.3227957900e+02   2.4724431139e+01    0.2675936    0.2294533 -39.60  0.001185812    2.481    0.597
        49 -11.4435     34.8844    231.0553   1.3068840237e+02   2.5034895909e+01    0.2851178    0.2269797  25.46  0.001855197    2.158    0.537
        50 -10.4669      9.6715    238.8756   1.3472599137e+02   2.6342977241e+01    0.1644301    0.1136405  77.49 0.0005530248    1.191    0.160
        51  -9.8649    247.0619    238.8924   9.8063920491e+01  -5.3465367250e+00    0.1614942    0.1071551  23.84 0.0005916033    1.096    0.088
        52 -11.0070    228.1833    217.7151   9.7786562608e+01  -6.6374917111e-01    0.2403757    0.1817346  18.70  0.000561432    1.097    0.088
        53 -10.5707    238.9496    215.9254   9.5846780398e+01  -2.1199192187e+00    0.3737254     0.181988 -14.48   0.00119841    2.618    0.618
        54 -12.3988    233.8854    185.1514   9.1461117267e+01   1.9403661529e+00    0.6836257    0.3103321  43.33  0.003480444    1.973    0.493
        55 -11.8547    223.5466    213.4003   9.7850107305e+01   4.9794964186e-01    0.4670908    0.3108616   2.12  0.002220436    1.644    0.392
        56 -10.6474    234.0524    209.5037   9.5584838512e+01  -7.3253442775e-01    0.3994659    0.2951626  -1.63   0.00115259    1.317    0.241
        57 -12.0390    230.0457    196.2838   9.4031011179e+01   1.3155347214e+00    0.7466587    0.4144611 -25.88  0.004335266    1.946    0.486
        58 -12.6507    237.3982    159.9791   8.6069080923e+01   4.3561077526e+00     1.428277    0.8192687 -31.92  0.007595944    1.767    0.434
        59 -11.5208    210.9114    214.1449   9.9981550357e+01   2.4074115161e+00    0.4772441     0.238253 -33.21  0.002254347    2.374    0.579
        60 -11.2386    222.2801    225.1329   9.9810975083e+01  -5.1187241546e-01    0.4457368    0.1806131  40.00  0.002011232    1.920    0.479
        61 -11.8615    216.3947    220.5392   1.0005940505e+02   8.5735835670e-01     0.418659     0.326823 -25.08  0.001722563    1.521    0.343
        62 -12.7677    216.6891    205.6789   9.7734958823e+01   2.4314123529e+00    0.7451128    0.3632333 -33.80  0.004140254    2.363    0.577
        63 -12.1480    224.6373    203.7532   9.6143067521e+01   1.3644052197e+00    0.5001557    0.4250112 -56.73  0.001454857    1.895    0.472
        64 -11.5679    234.7505    238.5542   9.9829158679e+01  -3.5945688582e+00    0.6231606    0.1580344  39.58  0.002913147    2.936    0.659
        65 -12.3976    247.5766    204.2034   9.2627413686e+01  -2.2820543745e+00    0.9234959     0.399392 -10.20  0.004005082    3.848    0.740
        66 -11.7083    241.7726    174.7011   8.8262078967e+01   1.8163905916e+00    0.8897732    0.3653004 -18.42   0.00339744    3.239    0.691
        67 -11.1290    248.5826    212.8773   9.3898280671e+01  -3.2687625906e+00     0.264243    0.1814312  11.84 0.0004885177    1.241    0.194
        68 -11.2467    239.2088    205.9599   9.4206633917e+01  -1.1703130517e+00    0.3851587    0.2256636 -27.51  0.001405902    1.865    0.464
        69 -12.8593    240.3205    197.5177   9.2616154801e+01  -4.7059191694e-01    0.7793468    0.5765457  15.29  0.003755694    1.124    0.110
        70 -11.8537    245.8572    191.7050   9.0741835638e+01  -7.3819332725e-01     0.457692    0.3419852  -8.41  0.001998849    1.266    0.210
        71 -11.8086    249.5364    183.6256   8.8715508769e+01  -4.6795282924e-01    0.3608834    0.2354537   0.77 0.0008517505    1.489    0.328
        72 -12.5411    247.7471    175.8933   8.7549202803e+01   6.7549031062e-01    0.9747868    0.4082825 -15.94  0.004106622    3.244    0.692
        73 -11.6311    243.2888    231.9315   9.7615286347e+01  -4.2269998599e+00    0.4802864     0.229875  23.26  0.002777376    2.036    0.509
        74 -12.1957    244.8181    224.8846   9.6339119002e+01  -3.8216685702e+00    0.4505181    0.3117715  44.75  0.002227716    1.578    0.366
        75 -11.9111    246.7717    218.0847   9.4998255572e+01  -3.4865729370e+00    0.2830667     0.178624 -24.67 0.0008000407    1.752    0.429
        76 -10.6920    148.5235    238.2116   1.1321043368e+02   9.1966028746e+00    0.2203292    0.1431282  41.71 0.0003695117    1.215    0.177
        77  -9.9594    134.9435    238.9216   1.1545778006e+02   1.1091412289e+01    0.1583493    0.1213036  47.98 0.0003886404    1.059    0.056
        78  -9.7407     61.9708    239.0725   1.2698000915e+02   2.0761838390e+01    0.1502354    0.1073067  61.71 0.0005103967    1.061    0.057
        79 -11.0296    183.9811    236.7396   1.0739165235e+02   4.0625694922e+00    0.2231189    0.1583543  28.27 0.0004706831    1.283    0.221
        80  -9.6576     41.1429    236.3478   1.3000042275e+02   2.3540476073e+01    0.1697623   0.08924104  73.16  0.001208807    1.538    0.350
        81 -11.1605    159.0961    235.1492   1.1117402929e+02   8.0024097346e+00     0.260667    0.1620049  42.96 0.0008120348    1.229    0.186
        82 -10.8762    140.6862    234.8108   1.1411138572e+02   1.0790648351e+01    0.3069071     0.155981  48.56  0.001133492    1.523    0.343
        83 -10.7469    145.5285    230.4597   1.1285184181e+02   1.0642646961e+01    0.2216607    0.2062239  10.41  0.000785902    1.385    0.278
        84  -9.8231    144.1103    225.8740   1.1257243850e+02   1.1471605937e+01    0.1706851    0.1346398  46.42 0.0004298326    1.048    0.045
        85 -10.4030     91.1737    235.8208   1.2218363603e+02   1.7596042771e+01    0.1980836    0.1331028  46.64 0.0005478232    1.275    0.216
        86 -11.6291     87.0093    233.1156   1.2263835586e+02   1.8541316408e+01    0.4261969    0.1766464  50.25  0.001743441    1.801    0.445
        87 -10.4590     77.1392    235.1647   1.2436111758e+02   1.9497934310e+01     0.249984    0.1353412  61.54  0.001090234    1.479    0.324
        88 -11.0173    128.7985    233.9169   1.1594865908e+02   1.2649936476e+01    0.2785258    0.1719604  58.13  0.001718294    1.424    0.298
        89 -10.6809    124.0342    230.6441   1.1640059763e+02   1.3793273029e+01    0.2243109    0.1570798  34.49 0.0005679925    1.520    0.342
        90 -10.1515      3.6913    235.1045   1.3545844042e+02   2.7474055089e+01    0.1266101   0.08269048  74.88 0.0006028105    1.117    0.105
        91  -9.8018    249.1394    232.7273   9.6868821388e+01  -5.1199571697e+00    0.2500425    0.1336826   0.11  0.001536433    2.224    0.550
        92 -10.8175    230.3628    233.3398   9.9753206031e+01  -2.4960587411e+00    0.1979803    0.1413559  27.01 0.0003967614    1.027    0.026
        93 -11.5841    204.8404    231.6673   1.0345002928e+02   1.4572567442e+00    0.2776187    0.1963653  34.12 0.0005177374    1.068    0.064
        94 -10.8135    177.6311    232.1896   1.0783869825e+02   5.5452854167e+00    0.2349946    0.1708232  18.20 0.0006580243    1.557    0.358
        95  -9.7301    171.0021    232.9078   1.0899295134e+02   6.4719341580e+00    0.1647342    0.1259543  40.09 0.0004184319    1.025    0.024
        96  -8.9202    108.3887    233.2496   1.1920029955e+02   1.5642486755e+01   0.09783855   0.07348045  30.92 0.0004812082    1.669    0.401
        97 -10.6337      9.6324    231.9194   1.3449622326e+02   2.7419690393e+01    0.1833957    0.1189064  79.34 0.0006997784    1.182    0.154
        98  -9.6065    164.9194    232.4340   1.0991810387e+02   7.4553143266e+00    0.2724224   0.08413948  41.96  0.001280692    2.527    0.604
        99 -10.9310     55.2399    230.4140   1.2750023867e+02   2.2875368030e+01    0.2792543    0.1862978 -78.62  0.001505499    1.559    0.359
       100 -10.2929    226.7074    229.8929   9.9816910925e+01  -1.6375886085e+00    0.2275445    0.1523985 -11.47  0.001159461    1.670    0.401
       101 -10.9890    236.1961    226.2973   9.7848598006e+01  -2.6954799366e+00    0.2311833     0.162436  16.85 0.0004008179    1.192    0.161
       102  -9.7485    229.5208    225.4981   9.8747643469e+01  -1.6333103226e+00     0.189142    0.1424333  20.00 0.0005741226    1.080    0.074
       103 -10.6973    233.0654    222.1405   9.7703900059e+01  -1.8383535153e+00    0.3796546    0.1547572  38.79  0.001811543    1.921    0.480
       104 -10.9266    216.7458    230.4370   1.0142612524e+02  -2.0915738402e-01    0.2164159    0.1475981  27.10 0.0004742804    1.174    0.148
       105 -10.6893    190.7659    230.4224   1.0551003383e+02   3.7359589970e+00    0.2292941    0.1467925  26.14 0.0008179556    1.511    0.338
       106 -10.0696    100.5835    230.2592   1.2020704651e+02   1.7153737720e+01    0.1740241    0.1397506  58.95 0.0007129365    1.107    0.097
       107 -10.9145    103.8708    227.8580   1.1945549763e+02   1.7057642628e+01    0.2686866    0.1643888  41.98  0.001068762    1.456    0.313
       108  -9.7456    134.3566    230.3936   1.1467915942e+02   1.2317261069e+01    0.2076589    0.1025146  46.42 0.0007397841    1.556    0.357
       109  -9.1326    158.4841    229.3920   1.1060603562e+02   8.8167489918e+00    0.1111947   0.08403626  43.42 0.0001171305    1.034    0.033
       110 -10.0439     45.0501    229.2178   1.2902552138e+02   2.4221073967e+01    0.1367135    0.1093625  64.45 0.0005701521    1.261    0.207
       111  -9.8283    174.3344    227.2739   1.0775558840e+02   6.6385154660e+00    0.1761116    0.1366237  29.16 0.0004494825    1.212    0.175
       112 -10.9239    169.8396    222.0790   1.0783255661e+02   7.9854127413e+00    0.3523375    0.1980817 -57.93  0.002025846    2.725    0.633
       113 -11.2051    163.7137    225.1605   1.0923535603e+02   8.5506760676e+00    0.3320061    0.2720752  40.38  0.001666903    1.065    0.061
       114 -10.2736    165.8237    220.2198   1.0826316608e+02   8.8569591476e+00    0.2065143    0.1540616  27.41 0.0006834304    1.366    0.268
       115 -10.7212    113.6837    227.8871   1.1783750799e+02   1.5674488542e+01    0.2652135    0.1494492  39.44 0.0005334099    1.628    0.386
       116 -10.5385    115.1136    222.3100   1.1705352036e+02   1.6292474987e+01    0.3098965    0.1746091 -78.33  0.001836037    2.443    0.591
       117  -9.3858     92.9716    227.9673   1.2125708482e+02   1.8527861856e+01    0.1335736    0.1209312  33.63 0.0004504895    1.551    0.355
       118  -9.9699     78.8636    226.9652   1.2348301847e+02   2.0530984090e+01    0.2658009    0.1259719 -74.13  0.001133838    2.356    0.576
       119 -11.3991     18.4449    226.3684   1.3297694947e+02   2.7454850600e+01    0.4006277    0.2062363  77.65  0.002601308    1.492    0.330
       120 -10.3682     68.0505    227.0562   1.2524249931e+02   2.1872349185e+01    0.1815805    0.1139047  50.34 0.0004933706    1.278    0.218
       121  -9.7092      1.6395    227.1185   1.3550634368e+02   2.8909005094e+01    0.1278635   0.08369629  77.07 0.0009571207    1.129    0.115
       122 -10.0280    184.8464    225.8569   1.0586196499e+02   5.1736487189e+00    0.1653591    0.1246542  28.50  0.000367658    1.193    0.162
       123  -9.7296    199.8079    224.7166   1.0329556925e+02   2.9762392122e+00    0.1654005    0.1332785   8.36 0.0004300049    1.299    0.230
       124  -9.5830    120.6673    224.9607   1.1638781943e+02   1.5094991874e+01    0.1410139    0.1205049  65.02 0.0004997939    1.135    0.119
       125 -10.0256      7.9363    225.2484   1.3451320836e+02   2.8634277237e+01    0.1307018   0.08646623  62.82 0.0004776519    1.121    0.108
       126  -9.9763    191.0651    223.1615   1.0449081912e+02   4.5163181309e+00    0.1664715    0.1459026  17.37 0.0004478688    1.185    0.156
       127  -9.6024    129.5974    223.8475   1.1477529169e+02   1.3939444677e+01    0.1754544    0.1233674  41.32 0.0004127418    1.265    0.209
       128 -10.8045    207.0991    222.5159   1.0182109915e+02   2.0857930411e+00    0.2102422    0.1647255  19.42 0.0004461213    1.160    0.138
       129  -8.8561    155.3359    223.2917   1.1039880484e+02   1.0094812337e+01    0.1084863    0.0777742  23.83 0.0004587976    1.639    0.390
       130  -9.9326    135.9257    222.9829   1.1361744563e+02   1.3112695950e+01    0.1737515    0.1333381  53.49  0.000481307    1.051    0.049
       131  -9.2242     82.6865    222.9803   1.2254341777e+02   2.0660538841e+01     0.140483    0.1100867  68.80 0.0005253957    1.085    0.079
       132 -10.0139     50.0563    222.5122   1.2784494039e+02   2.4731267986e+01    0.1522853    0.1239431 -84.05 0.0004746563    1.414    0.293
       133  -9.1881     97.6719    222.0858   1.1996723141e+02   1.8790310398e+01    0.1210375   0.09382653 -60.64 0.0004222575    1.631    0.387
       134  -9.6356     74.1073    222.3219   1.2391118765e+02   2.1867593342e+01    0.1476135    0.1013354  56.11   0.00048529    1.125    0.111
       135 -10.0318     28.7101    221.9929   1.3120322941e+02   2.7132673133e+01    0.1619227    0.1056605  59.05 0.0004938848    1.155    0.134
       136  -9.8415    180.8562    220.8835   1.0585249807e+02   6.3958814943e+00    0.1664734    0.1264727  28.68  0.000392783    1.207    0.171
       137  -9.9998    174.8806    220.6946   1.0681581088e+02   7.3647702821e+00    0.1645592    0.1442641  11.75 0.0003777319    1.276    0.217
       138 -10.3086    148.6035    220.1109   1.1114713421e+02   1.1570534410e+01    0.1951104     0.168572  25.44 0.0008061983    1.316    0.240
       139  -9.7774     68.6280    220.7058   1.2469591885e+02   2.2813338506e+01     0.126487    0.1242866  26.15 0.0006691475    1.676    0.403
       140  -9.7709     59.4754    220.3297   1.2617574042e+02   2.3987426873e+01    0.1558021     0.127696 -82.94 0.0006445504    1.396    0.283
       141 -10.5023     40.1352    220.8038   1.2933573096e+02   2.6116823625e+01    0.1790175    0.1475391  56.39 0.0006363478    1.386    0.279
       142  -9.9014    186.1664    219.1047   1.0473520738e+02   5.7698277477e+00    0.1681818    0.1280068  26.21 0.0004285138    1.220    0.180
       143 -10.2500    159.1067    218.0335   1.0911459838e+02   1.0207365613e+01    0.2075877    0.1566281  51.76 0.0008195685    1.157    0.136
       144  -9.4608    128.8497    219.1414   1.1439109381e+02   1.4733536062e+01    0.1433148    0.1169158  37.50 0.0003903817    1.287    0.223
       145  -9.3156    109.2351    218.8195   1.1770288953e+02   1.7668819970e+01    0.1345028    0.1156356  45.02  0.000464509    1.285    0.222
       146 -10.5825    140.4783    209.5166   1.1125501172e+02   1.4363335775e+01    0.3196421    0.1521638  31.49  0.001501824    2.777    0.640
       147 -11.3142    137.9672    214.2782   1.1226959320e+02   1.4052893872e+01    0.3166118    0.2490084  87.17  0.001558274    1.494    0.331
       148 -10.0015    145.6684    207.6784   1.1011208578e+02   1.3810527526e+01    0.2483115    0.1396597  30.90 0.0009603836    2.083    0.520
       149  -9.5298    148.8734    205.3819   1.0924848130e+02   1.3634137574e+01    0.2094152    0.1447146  33.10  0.001305953    1.461    0.316
       150 -10.1642     56.0653    216.8401   1.2650242209e+02   2.4965424404e+01    0.1655815    0.1150299  85.00 0.0007662707    1.251    0.201
       151 -10.6405      7.6812    215.7408   1.3420525380e+02   3.0210791558e+01    0.2803744    0.1653553  78.54   0.00162658    1.219    0.179
       152 -10.4245    193.7388    215.7717   1.0301938711e+02   4.9607477547e+00    0.2034594    0.1534224  30.98 0.0004611302    1.104    0.094
       153 -10.1872    201.4068    210.2409   1.0094251831e+02   4.3809396156e+00     0.282405    0.2155553  57.80  0.001248307    1.593    0.372
       154 -10.8670    202.6134    215.7347   1.0156184282e+02   3.5472134875e+00    0.3315321    0.2530342  22.52  0.001739627    1.177    0.150
       155 -10.1137    198.0386    212.4683   1.0183018103e+02   4.6619571026e+00    0.2998891    0.1556222  40.20 0.0005713383    1.553    0.356
       156 -10.7077     16.3070    221.3360   1.3309657390e+02   2.8476771298e+01    0.1501262    0.1274241  56.49 0.0007397284    1.514    0.339
       157  -9.1022    179.7799    215.3985   1.0528429334e+02   7.2493594829e+00    0.1514884   0.08909803  36.31 0.0002486547    1.442    0.307
       158  -9.1887     83.2179    215.5275   1.2183791597e+02   2.1785035812e+01    0.1314937   0.09181493  39.31 0.0004744561    1.541    0.351
       159 -10.2235     31.4062    214.2732   1.3038579170e+02   2.8133949299e+01    0.1662989    0.1412816  72.27 0.0005636171    1.360    0.265
       160  -9.3054    186.5140    213.9691   1.0395882079e+02   6.3421275077e+00    0.1374873    0.1144499 -30.84 0.0003686242    1.458    0.314
       161 -10.1560    171.2076    213.9114   1.0652449802e+02   8.8226439923e+00     0.189826     0.137482  42.01 0.0004983994    1.111    0.100
       162  -9.7597    165.9643    213.7018   1.0738713542e+02   9.6955868261e+00    0.1884414    0.1467165  12.45 0.0006720814    1.585    0.369
       163  -9.7346    143.3725    214.2274   1.1133005103e+02   1.3217104631e+01    0.1871892    0.1272322  39.00  0.000596915    1.315    0.239
       164 -11.0602    132.3275    213.5735   1.1316352163e+02   1.5028878461e+01    0.2057193    0.1641006  42.51  0.000573116    1.176    0.149
       165 -10.4994     63.6890    213.1109   1.2496395977e+02   2.4672701195e+01    0.2009428    0.1267881  44.90 0.0004811575    1.464    0.317
       166 -10.3431     41.1472    212.4233   1.2868965005e+02   2.7404563296e+01    0.1542442    0.1164368  89.19 0.0005559193    1.259    0.206
       167  -9.4716    154.7601    212.2030   1.0911111842e+02   1.1701136057e+01    0.1446994    0.1223812  22.95  0.000443853    1.324    0.245
       168 -11.0315    119.2530    212.2919   1.1529458710e+02   1.7209596681e+01    0.3085279    0.1298772  39.35  0.001241894    2.205    0.546
       169  -9.6648     51.9129    212.3780   1.2689556561e+02   2.6198290888e+01    0.1431646    0.1027429  59.41 0.0005787016    1.134    0.118
       170  -9.3531     96.9373    212.5015   1.1920373578e+02   2.0410180781e+01    0.1576138   0.09107354  44.59 0.0004504457    1.480    0.325
       171 -10.7237    124.1048    205.9875   1.1372399683e+02   1.7461591574e+01    0.1836157     0.136214  45.61  0.001236869    1.182    0.154
       172  -9.6557     25.5142    210.4713   1.3114578796e+02   2.9383856976e+01    0.1383378    0.1171657 -74.16 0.0005778444    1.611    0.379
       173 -10.3361     18.1540    210.7582   1.3234881096e+02   3.0062710848e+01      0.17445    0.1523063  59.39  0.001035435    1.505    0.335
       174 -10.2154     56.3517    210.0384   1.2598612524e+02   2.6076233450e+01    0.1637186    0.1257974  50.86 0.0005333655    1.320    0.243
       175 -10.2592    161.2079    208.5389   1.0751068990e+02   1.1173901848e+01    0.1976999    0.1656227  24.44 0.0004367098    1.272    0.214
       176  -9.8483    119.8035    216.5214   1.1565649224e+02   1.6477640704e+01    0.1737709    0.1489857  89.75 0.0003762012    1.263    0.208
       177  -9.5652    177.0741    208.1537   1.0472335887e+02   8.6262733068e+00    0.1652237    0.1318328  29.76 0.0003200147    1.156    0.135
       178 -10.6362    145.2368    200.3929   1.0923287414e+02   1.4978060434e+01    0.3234423    0.1542859  47.27  0.001432352    1.764    0.433
       179 -11.3583    132.5012    206.9075   1.1234120414e+02   1.6013980413e+01    0.3573917    0.2176995  39.15  0.001686772    1.512    0.339
       180 -11.0592    139.3265    203.6414   1.1071861516e+02   1.5435646197e+01    0.3403158    0.2276978  21.01   0.00132295    2.206    0.547
       181 -10.9751    115.1880    206.8269   1.1540763033e+02   1.8682435070e+01    0.3414402    0.1702266  58.95  0.001834821    2.013    0.503
       182  -9.3596    120.3820    206.7168   1.1447137587e+02   1.7915553716e+01     0.146761    0.1288267  35.90  0.001064344    1.325    0.245
       183  -9.0784     93.5134    208.5553   1.1942368296e+02   2.1534731069e+01    0.1108822   0.08863158  61.69 0.0002071796    1.058    0.054
       184 -10.7436    206.7090    206.2663   9.9459217823e+01   3.9870664922e+00    0.2161004    0.1605047  24.09 0.0004023237    1.184    0.155
       185  -9.0568    193.1765    207.6300   1.0191847537e+02   6.0421837036e+00    0.1569408   0.09016137  35.80 0.0003011241    1.477    0.323
       186  -9.3963     72.7787    207.6230   1.2297265070e+02   2.4463789797e+01    0.1522573   0.07782509  51.75 0.0004847361    1.557    0.358
       187 -10.3436     47.0032    206.1494   1.2731162005e+02   2.7830161057e+01    0.1758177      0.12997  48.58 0.0005119098    1.377    0.274
       188  -9.3139     32.0341    206.4941   1.2985990159e+02   2.9399789756e+01    0.1370742   0.08342109  46.62 0.0004581961    1.499    0.333
       189  -8.7564    183.5175    205.4809   1.0323303835e+02   7.9125956902e+00    0.1192165   0.09696748  35.08 8.574631e-05    1.024    0.024
       190  -9.7765     86.4729    204.9365   1.2032441448e+02   2.3112263433e+01    0.1813739    0.1412089  39.31 0.0005631129    1.466    0.318
       191 -10.7359      6.7535    203.9228   1.3389070731e+02   3.2303441853e+01    0.1782742     0.173279  88.12   0.00108929    1.748    0.428
       192  -8.9835    156.6717    204.7468   1.0778777365e+02   1.2455613130e+01    0.1133526   0.08252166  25.34 0.0003137949    1.552    0.356
       193 -10.6451    109.9481    201.5441   1.1575849189e+02   2.0331082159e+01    0.3099407    0.2096942 -84.34  0.001967772    1.680    0.405
       194  -9.0668    179.2167    202.3736   1.0351064266e+02   9.0426856551e+00    0.1537481   0.09614086  48.14 0.0002501075    1.413    0.292
       195  -8.6023    173.2870    202.3123   1.0453131269e+02   1.0044443590e+01    0.1148185   0.08506814  16.98  0.000301169    1.580    0.367
       196 -11.0737     56.2934    201.7645   1.2539339143e+02   2.7520480463e+01    0.1844013    0.1513179  70.60 0.0003981334    1.173    0.147
       197  -8.7394     21.2635    202.3424   1.3143597590e+02   3.1216971722e+01   0.08689827   0.06817038 -71.80 0.0004025102    1.597    0.374
       198 -10.0101    198.3434    201.0962   1.0004427063e+02   6.0003807474e+00    0.1872341    0.1359849  30.28 0.0004009554    1.183    0.155
       199  -9.2676    186.8746    201.1107   1.0199952747e+02   7.9245390899e+00     0.153571    0.1197677  23.55 0.0003108107    1.234    0.190
       200 -10.7801    164.2197    200.3666   1.0584097413e+02   1.1837466593e+01     0.480365    0.2000101  36.64  0.002033177    2.396    0.583
       201  -8.9992     34.2807    201.3011   1.2917910311e+02   3.0075644994e+01   0.08617231   0.07410207 -74.09  0.000222228    1.547    0.353
       202  -9.7145    132.3016    199.6956   1.1147934253e+02   1.7177120034e+01    0.2089824     0.157627  13.34 0.0008114695    2.036    0.509
       203  -8.9841     98.4988    200.5290   1.1772489503e+02   2.2180417283e+01    0.1135667   0.09378172  62.24 9.816416e-05    1.068    0.064
       204  -9.1220     90.5437    200.5080   1.1916507211e+02   2.3310516767e+01    0.1135994   0.09085276  65.80 0.0001128124    1.023    0.023
       205  -9.9764     69.3407    200.3628   1.2296898108e+02   2.6162756966e+01    0.1331595    0.1294887 -40.61 0.0005740442    1.627    0.386
       206 -10.7323    209.9448    198.2854   9.7648440137e+01   4.4047780785e+00     0.229378    0.2163539 -67.36 0.0005518878    1.522    0.343
       207 -10.3950    209.2820    192.4614   9.6791455920e+01   5.2308075916e+00    0.2817083    0.1911885  -6.14  0.001145859    1.748    0.428
       208  -9.7684     42.0557    199.1754   1.2770201742e+02   2.9614712804e+01    0.1446194    0.1239689  76.14 0.0005536053    1.295    0.228
       209 -10.0148    103.5456    198.0114   1.1653218900e+02   2.1876691649e+01     0.219494    0.1296259  56.78 0.0005527224    1.469    0.319
       210  -8.8875     80.6699    198.7367   1.2078259562e+02   2.4970061905e+01   0.09405445   0.08766797  27.08 0.0002621869    1.572    0.364
       211  -9.6256     75.3147    198.0342   1.2168852359e+02   2.5804058957e+01    0.1632145   0.06906546 -48.19  0.000704708    4.339    0.770
       212  -9.8892     49.4042    198.1228   1.2633870245e+02   2.8975618226e+01    0.1587471    0.1271727  58.87 0.0005046214    1.243    0.196
       213 -10.2774     63.7932    199.7939   1.2391198093e+02   2.6959217246e+01    0.1561886    0.1182151 -28.65 0.0009614225    2.856    0.650
       214  -9.5857    169.8987    195.9281   1.0417881888e+02   1.1517557708e+01    0.1777179    0.1443168  28.98 0.0004083139    1.194    0.163
       215 -10.5087    157.5284    194.6243   1.0620545117e+02   1.3812629011e+01    0.3108724    0.2199336 -39.72  0.001626402    1.708    0.415
       216  -9.6425    149.2387    196.5562   1.0798408234e+02   1.4908384860e+01    0.1652881    0.1014084  36.55  0.000457196    1.560    0.359
       217  -9.8345     89.0435    195.9305   1.1897637194e+02   2.4318868911e+01    0.1707375    0.1409563  66.00  0.000424236    1.070    0.066
       218 -10.4185    202.7534    194.6963   9.8266866061e+01   6.0627151701e+00    0.3591537    0.2145858  17.55  0.001175612    2.104    0.525
       219 -10.8151    206.5602    187.8242   9.6462041644e+01   6.2858937360e+00    0.4408676    0.2603691  13.10  0.001447761    2.353    0.575
       220 -10.2597    210.3122    187.3228   9.5738093599e+01   5.6994565656e+00    0.2027575    0.1452119  -7.49 0.0004610039    1.554    0.356
       221  -9.8044    184.3661    194.6014   1.0142049170e+02   9.2256844694e+00    0.1938102    0.1501377  29.33 0.0004015481    1.178    0.151
       222  -9.4479    176.4458    195.4852   1.0295082521e+02   1.0461936474e+01    0.1214672    0.1028094  38.36 8.952006e-05    1.005    0.005
       223  -9.2484    140.4301    195.1856   1.0940129511e+02   1.6580075862e+01    0.1509539    0.1130302 -75.15 0.0006356405    1.632    0.387
       224  -9.3786    143.9804    193.7429   1.0855068361e+02   1.6222828327e+01    0.1661224    0.1259573  86.39 0.0007000536    1.641    0.391
       225  -9.4065    113.1736    193.8463   1.1427112276e+02   2.1143153456e+01    0.1444396     0.134013  39.52 0.0003682658    1.305    0.234
       226 -10.1799     81.5871    193.6505   1.2012405327e+02   2.5750926603e+01    0.2200069    0.1158809  47.25  0.000644523    1.619    0.382
       227  -9.1866     54.5290    194.4893   1.2515022590e+02   2.9035145762e+01    0.1100403    0.0834337  72.58 4.992732e-05    1.021    0.021
       228  -9.3248    219.8587    193.1534   9.5149940371e+01   3.3584548107e+00    0.1693189    0.1176822  20.71 0.0004263726    1.326    0.246
       229  -9.8032     74.4984    193.5307   1.2142238130e+02   2.6717950866e+01    0.1131757    0.0898008  69.98 0.0001075177    1.032    0.031
       230  -9.0660     36.4013    192.7821   1.2827526811e+02   3.1387158092e+01    0.1312046   0.08317169 -73.56 0.0003914675    1.544    0.352
       231  -8.9616    194.3705    192.4940   9.9340566127e+01   7.7863282431e+00    0.1191582     0.102581  27.97 0.0001103732    1.035    0.034
       232 -10.2905    151.6647    191.5375   1.0682396371e+02   1.5281066894e+01    0.2220442    0.1991787  44.32 0.0006658834    1.071    0.066
       233  -9.6752    104.3307    191.7371   1.1567446983e+02   2.2848400760e+01     0.163348     0.136356  -1.11  0.001035623    2.024    0.506
       234 -10.2634    224.5576    190.0860   9.3849850647e+01   2.9315659308e+00    0.2316652    0.2096322 -27.57  0.001639235    1.385    0.278
       235 -10.1118    162.1499    190.2074   1.0470623754e+02   1.3693589139e+01    0.2362153    0.1847832  61.74  0.001300437    1.338    0.253
       236 -10.9581    158.9679    186.6303   1.0474081861e+02   1.4795669402e+01    0.3817977    0.2137052  45.27  0.002045867    1.546    0.353
       237 -10.3691    214.6490    187.6305   9.5061221224e+01   4.9124576754e+00    0.3726278    0.2083794 -11.71  0.001203119    2.508    0.601
       238  -9.9478     96.6325    189.0786   1.1682094074e+02   2.4457300250e+01    0.2822447    0.1335574 -66.07 0.0008641526    2.290    0.563
       239 -10.4549     73.3788    188.7917   1.2118137333e+02   2.7730867358e+01    0.2607107    0.1445376  85.51  0.001482122    1.951    0.487
       240  -8.8705     42.5419    190.4918   1.2701746658e+02   3.1141976615e+01    0.1090756    0.0808489  74.53 8.483814e-05    1.014    0.014
       241 -10.0166    199.5626    188.8270   9.7833089410e+01   7.3718803118e+00     0.203479    0.1590624  19.96 0.0004299129    1.215    0.177
       242  -9.5070    172.3904    189.0061   1.0266170816e+02   1.2096588327e+01     0.159091    0.1503044  18.66 0.0004258887    1.130    0.115
       243  -9.2148     64.4736    189.5636   1.2291726075e+02   2.8729131214e+01    0.1120914   0.08814428  72.07 3.601217e-05    1.036    0.035
       244  -8.9758    179.2602    188.0216   1.0126896231e+02   1.1037733051e+01    0.1311992    0.1083341 -34.24  0.000298248    1.390    0.281
       245 -10.0319    116.4258    187.8122   1.1290895050e+02   2.1681856604e+01    0.3102058    0.1848785  38.51  0.001744693    1.675    0.403
       246  -9.4607     77.5430    188.5467   1.2037387227e+02   2.7224373439e+01    0.1163529   0.09082197  70.61 6.007598e-05    1.019    0.019
       247  -8.8396    193.7220    186.2989   9.8420395399e+01   8.7349143951e+00    0.1112871   0.09599591  73.80 0.0002722563    1.538    0.350
       248 -10.0019    127.3448    185.6339   1.1054038306e+02   2.0309204734e+01     0.334219    0.1676961  33.47  0.001577251    2.407    0.585
       249  -9.9666    166.9532    184.4609   1.0292667310e+02   1.3733749522e+01    0.1714806    0.1661784  11.54 0.0004410289    1.140    0.123
       250  -8.8684     80.6776    184.7139   1.1938621708e+02   2.7511025531e+01   0.09786699    0.0936641 -14.06 0.0003477241    1.599    0.375
       251  -9.2974     34.8889    184.5267   1.2799374664e+02   3.3084252281e+01    0.1438398   0.09308096  45.28  0.000753632    1.524    0.344
       252 -10.3182    203.1121    180.3386   9.5744003722e+01   7.8795063166e+00    0.3847294    0.2042522 -47.83  0.001621507    2.556    0.609
       253 -10.7977    205.1239    175.0235   9.4430797464e+01   8.2396205575e+00    0.2517122    0.1928088 -11.93 0.0007173563    1.398    0.285
       254 -11.1175    211.1530    179.8429   9.4269349416e+01   6.5145992888e+00     0.331997    0.2513365 -18.31  0.001095746    1.394    0.282
       255 -10.4553    210.1665    173.9360   9.3354391421e+01   7.4734524215e+00      0.30459    0.2410007  39.15 0.0009240748    1.172    0.147
       256  -9.2440    140.4397    183.4431   1.0773359452e+02   1.8499215171e+01    0.1233477    0.1077617  52.19 6.634839e-05    1.025    0.025
       257  -8.7514     20.7238    186.2973   1.3066826824e+02   3.4177982367e+01    0.1082045   0.05578769  68.72 0.0002007259    1.532    0.347
       258  -9.5679     67.0256    182.5286   1.2178583506e+02   2.9725615391e+01    0.1879016    0.1274132  73.17 0.0009139099    1.261    0.207
       259  -9.1993    224.1397    181.8369   9.2448894675e+01   3.9901046032e+00    0.1633133    0.1206295  16.07 0.0003175404    1.246    0.197
       260  -8.9249    218.2692    181.6928   9.3399718296e+01   5.0265089025e+00    0.1054152   0.09926831  86.72 0.0002531413    1.538    0.350
       261  -9.4015    184.2533    180.9606   9.9192838474e+01   1.1174474321e+01    0.1656875    0.1480837  21.61 0.0003233648    1.079    0.074
       262  -9.2515    155.4339    181.5318   1.0460320974e+02   1.6222921730e+01    0.1247879    0.1103072  41.33 4.798728e-05    1.059    0.056
       263  -8.6984    197.6820    180.7171   9.6760001428e+01   8.7987512893e+00    0.1272783   0.08794773  18.36 0.0002774041    1.584    0.369
       264 -10.4718    175.1649    179.5976   1.0061458101e+02   1.3012514644e+01    0.2299616    0.2225228  27.01 0.0004440573    1.112    0.100
       265  -9.4669     55.5105    180.0172   1.2376469394e+02   3.1628606450e+01    0.1573807   0.09582612 -75.49 0.0005182545    1.510    0.338
       266  -9.4279    235.7935    179.1439   9.0053361904e+01   2.3150779206e+00    0.1689368    0.1195728  11.70 0.0003973744    1.322    0.243
       267 -10.3564    160.2012    179.6251   1.0340106312e+02   1.5687651671e+01    0.1816273    0.1067973  37.32 0.0004920646    1.627    0.385
       268  -9.8842     61.1756    177.5781   1.2244489267e+02   3.1410846677e+01    0.3067995    0.1433055  89.59  0.001513072    2.539    0.606
       269  -9.8722    191.0428    176.9504   9.7271125783e+01   1.0528159070e+01    0.1918714    0.1643841  26.33 0.0003752518    1.054    0.051
       270  -8.9671    134.5136    177.5570   1.0799756635e+02   2.0514769762e+01    0.1259359    0.1097441  57.49 0.0002407808    1.006    0.006
       271 -10.2808    101.0969    176.0291   1.1437848694e+02   2.6195592054e+01    0.2032531    0.1501919  72.00 -0.001320134    1.268    0.212
       272  -8.9346     69.3237    177.3288   1.2082550267e+02   3.0426955461e+01    0.1029248   0.09064392 -41.43 0.0007049589    1.696    0.410
       273  -9.1005    231.2489    178.3026   9.0632278754e+01   3.1919831352e+00    0.1213708   0.08193821  10.83 0.0002404792    1.498    0.332
       274  -9.4384    169.5060    176.4571   1.0113002353e+02   1.4520098872e+01    0.1282676    0.1128005  38.02 6.113936e-05    1.026    0.025
       275  -9.9843    140.1361    175.3922   1.0657033894e+02   1.9925616259e+01    0.2632665    0.1405077 -36.07  0.001196809    2.725    0.633
       276  -9.5031    125.5244    176.4921   1.0960027090e+02   2.2215781440e+01    0.1256235    0.1092406  62.63 0.0002326527    1.005    0.005
       277  -9.6650    219.3304    175.0349   9.1996769572e+01   5.6842089113e+00    0.1669482    0.1429269  -0.75 0.0003711378    1.123    0.109
       278 -10.7513    197.6955    174.2314   9.5593077338e+01   9.7030848855e+00    0.2947609    0.2508827 -44.81    0.0017584    1.407    0.289
       279  -9.5765    197.4346    168.4660   9.4568814287e+01   1.0577956815e+01    0.2324032    0.1247347 -30.88 0.0008213726    2.084    0.520
       280 -11.3231    161.5187    174.1191   1.0223983517e+02   1.6341889714e+01    0.3081686    0.1860102  31.98 0.0009946905    1.806    0.446
       281  -8.9412     46.6678    175.3042   1.2506458887e+02   3.3572661223e+01    0.1208904   0.06533219  68.15 0.0007037194    1.659    0.397
       282  -9.3708    182.7905    174.0031   9.8242677063e+01   1.2471889021e+01    0.1703892    0.1573888  22.02 0.0003730393    1.063    0.059
       283 -10.9825    153.3805    173.4845   1.0369338030e+02   1.7913736402e+01     0.351505    0.2231595  28.83  0.001464308    1.873    0.466
       284  -9.2284    129.1837    173.1320   1.0837785140e+02   2.2205604684e+01    0.1711954    0.1352174  72.80 0.0003602869    1.288    0.224
       285  -9.2675    233.3929    172.4851   8.9184944072e+01   3.5226262943e+00    0.1249995    0.1033181  11.81 0.0001106789    1.025    0.024
       286  -9.0046     24.3813    172.2629   1.2912633812e+02   3.6508899702e+01   0.09175595   0.07912061 -55.91 0.0006981189    1.680    0.405
       287 -10.1597    225.9207    170.8668   9.0103237122e+01   5.0416923282e+00    0.1900757     0.153954  19.01 0.0004371595    1.058    0.054
       288  -9.9599    192.9797    171.2844   9.5896013229e+01   1.0995298624e+01    0.1828392    0.1488299  34.29 0.0003711098    1.090    0.083
       289 -10.0637    188.0309    170.7202   9.6690209001e+01   1.1996696312e+01    0.1863884    0.1491702  36.55 0.0004089198    1.115    0.103
       290  -8.9906     76.3271    171.3208   1.1878411501e+02   3.0671659319e+01    0.1062816   0.09411439 -35.55 0.0007047621    1.685    0.407
       291 -10.0981    201.0234    170.2419   9.4263037367e+01   9.6566815246e+00    0.1812065    0.1535046  27.15 0.0003116396    1.039    0.037
       292  -9.8447    158.4926    168.9167   1.0193096010e+02   1.7755325805e+01    0.1775288    0.1300144 -45.43 0.0005122883    1.511    0.338
       293  -9.7570    143.4740    169.4727   1.0496646259e+02   2.0373880866e+01    0.1281321    0.1165173  47.23 0.0003120782    1.064    0.060
       294  -9.3445    134.9603    167.7195   1.0637754130e+02   2.2189334499e+01    0.1801486    0.1528141  51.50 0.0004071259    1.076    0.071
       295  -9.9868    200.0749    162.5279   9.2953822090e+01   1.0947348053e+01    0.2573312    0.1874008   7.08 0.0008941162    1.580    0.367
       296 -11.2297    205.5649    166.2282   9.2695611536e+01   9.3812334245e+00    0.4102582    0.2451826 -20.82  0.001551225    1.968    0.492
       297 -10.3897    210.9919    166.0837   9.1717385234e+01   8.3914678263e+00     0.434385    0.2923613 -54.49  0.002242751    2.220    0.549
       298 -10.1702    213.1898    160.3072   9.0195477556e+01   8.7819921597e+00    0.2303365    0.1750642   9.08 0.0004256213    1.342    0.255
       299 -11.4495    205.4244    159.2430   9.1347408856e+01   1.0407408027e+01    0.4934971    0.3259082  -1.28  0.001983386    1.954    0.488
       300 -10.5922    206.0270    152.6178   8.9890334434e+01   1.1260678366e+01     0.300377    0.1904102 -23.66 0.0008660691    1.701    0.412
       301 -10.3469    150.3358    166.8913   1.0317718331e+02   1.9591479023e+01    0.1682556    0.1659983 -69.05 0.0003598251    1.115    0.103
       302  -9.0695     84.5346    167.4305   1.1664794420e+02   3.0300793108e+01       0.1216    0.1024384  75.62  9.89568e-05    1.024    0.024
       303 -10.4234    218.9214    165.2918   9.0198244062e+01   7.0341687988e+00    0.2123566    0.1716748  -4.96 0.0003846429    1.200    0.167
       304  -9.1929    179.0246    166.4955   9.7578444349e+01   1.4330030516e+01    0.1909872    0.1185818  43.54 0.0003227896    1.460    0.315
       305  -9.6615    169.9385    166.5208   9.9303095321e+01   1.6031585656e+01    0.1989477    0.1187695  44.23 0.0003970643    1.520    0.342
       306  -8.9119    140.5093    166.5912   1.0508003425e+02   2.1413439131e+01    0.1299981    0.1149537  57.80  0.000230554    1.027    0.026
       307  -8.8668    229.6464    164.2366   8.8190628023e+01   5.2161346612e+00     0.112953    0.1001869  66.02 0.0003673685    1.575    0.365
       308  -9.7576    191.9255    162.7546   9.4477165940e+01   1.2463953695e+01    0.1962832     0.160495  21.99 0.0004611056    1.189    0.159
       309 -10.2130    184.5491    163.0611   9.5900069739e+01   1.3822592270e+01    0.2850361    0.1841562  61.13 0.0008250172    1.926    0.481
       310  -9.4590    111.1675    162.9244   1.1050051227e+02   2.7120248612e+01    0.1602613    0.1514051 -40.98 0.0005554403    1.324    0.245
       311  -9.0384     80.5498    163.5231   1.1699038729e+02   3.1644992753e+01    0.1228253    0.1025332  79.23 0.0001678128    1.010    0.010
       312  -8.6918    172.6594    162.2708   9.7999242881e+01   1.6213337715e+01    0.1294965    0.1020433  73.92 0.0004042363    1.607    0.378
       313 -10.4574     48.7982    161.5307   1.2339196497e+02   3.6090369387e+01    0.1992581    0.1223771 -64.37  0.001168774    1.604    0.377
       314  -9.1315    246.7782    161.3354   8.4850462062e+01   2.5264951476e+00    0.1665303    0.1004281  33.83 0.0003034996    1.521    0.342
       315  -9.8175    221.1128    159.7413   8.8720055963e+01   7.3735235075e+00    0.2062543    0.1859354 -54.10 0.0007592625    1.485    0.326
       316 -10.5195    153.1013    160.1029   1.0143213393e+02   2.0273078840e+01    0.1957622    0.1756957  16.84 0.0003741625    1.244    0.196
       317 -10.3352    250.4608    156.7684   8.3346578340e+01   2.4267863758e+00    0.2948129    0.1319328 -25.87   0.00120531    2.155    0.536
       318 -11.1707    157.5861    157.5422   1.0006545520e+02   1.9881060689e+01    0.4253732    0.2409733  63.69   0.00183648    2.454    0.592
       319  -9.6827    141.1048    157.2572   1.0335498630e+02   2.3006762843e+01    0.3040704    0.1882856  83.09  0.001256836    2.990    0.666
       320  -9.9552     53.9624    158.1640   1.2197228773e+02   3.6182957454e+01    0.3098606    0.1146776  46.48  0.001085522    2.441    0.590
       321 -10.1390    159.3396    162.9940   1.0071808006e+02   1.8604656036e+01    0.1748255    0.1694236  38.23 0.0004775065    1.064    0.060
       322  -8.6858     99.2932    156.2752   1.1201978102e+02   3.0337077103e+01    0.1117125    0.1025716 -16.87 0.0002937196    1.523    0.343
       323  -9.1571    246.4287    155.4980   8.3713100037e+01   3.2926437945e+00    0.1298153     0.106085   6.66 0.0001122394    1.026    0.026
       324 -10.4610    226.1798    154.7888   8.6851581779e+01   7.0915799527e+00    0.2499834    0.1882571  27.43 0.0007305127    1.214    0.176
       325 -10.3212    227.8456    150.6044   8.5697839562e+01   7.3401734044e+00    0.2433071    0.1872449  30.88 0.0006335666    1.198    0.166
       326  -9.5636    197.2549    154.7425   9.1912077828e+01   1.2654324635e+01    0.1807839    0.1445559  11.15 0.0004414375    1.305    0.234
       327 -10.0953    221.5153    150.5773   8.6759762216e+01   8.5519178500e+00    0.2733991    0.1705576 -31.09 0.0005817673    1.611    0.379
       328  -9.6130    216.2493    153.9993   8.8379485688e+01   9.0840767839e+00    0.1885779    0.1819245 -75.02 0.0004241135    1.364    0.267
       329 -11.4606    212.1143    150.3740   8.8343438379e+01   1.0401044212e+01    0.6241465    0.4720006  16.18  0.003491976    1.339    0.253
       330 -10.0194    166.8133    153.6002   9.7479126770e+01   1.8795713458e+01    0.1866198    0.1224247  54.68 0.0003238023    1.561    0.359
       331  -8.7144    192.7048    152.6685   9.2326909844e+01   1.3866669155e+01    0.1386076    0.1008557  10.27 0.0002920262    1.637    0.389
       332 -10.4661    144.8487    149.5104   1.0115486307e+02   2.3753244458e+01    0.4277982    0.2193275 -52.79  0.001915923    2.128    0.530
       333 -10.7921    249.5486    147.9941   8.1653531657e+01   3.6536607380e+00    0.4509551    0.2182851 -20.20  0.001582102    2.102    0.524
       334 -11.0746    243.7713    145.7859   8.2084069356e+01   4.9865700314e+00    0.4627227    0.2467212 -30.77  0.001290557    1.802    0.445
       335 -12.6411    236.2511    123.8136   7.8341146392e+01   9.3701053263e+00     1.493699    0.8452647  23.23  0.006581387    2.211    0.548
       336 -12.0067    229.0514    121.4781   7.8952479240e+01   1.1172299618e+01    0.8595413    0.3937894 -18.35  0.003235244    2.774    0.640
       337 -12.3714    248.1234     93.9714   6.9259703704e+01   1.1018767937e+01     0.864689    0.6041956  72.69  0.004311742    1.989    0.497
       338 -11.3047    249.7171    139.8992   7.9880069132e+01   4.6329034209e+00    0.4918507     0.308708  -1.19  0.001606765    1.718    0.418
       339 -10.7903    248.5329    133.7555   7.8700366917e+01   5.6379604684e+00    0.3664944    0.2829446  -3.02 0.0009318333    1.169    0.144
       340 -13.1902    244.2862    110.6525   7.3951261715e+01   9.5472803631e+00     1.713712     1.059646  54.32  0.008473549    1.829    0.453
       341 -10.8811    249.0212    122.8247   7.6130354226e+01   6.9681652780e+00    0.3174595    0.2537297   7.41  0.000713671    1.163    0.140
       342 -10.9917    242.2043    131.7739   7.9235708643e+01   7.1097067512e+00     0.330499    0.2363428  14.82 0.0009661808    1.412    0.292
       343 -11.2049    246.8401    127.7654   7.7602347723e+01   6.7418739655e+00    0.5158976    0.2963833   0.44  0.002119602    2.243    0.554
       344  -9.0994    202.5094    149.5300   8.9878489262e+01   1.2413648269e+01    0.1366118    0.1226083  17.78 0.0002131056    1.012    0.012
       345  -8.7202    122.2813    148.3235   1.0574568188e+02   2.8113620054e+01    0.1250091    0.1074836 -13.24 0.0004646666    1.592    0.372
       346 -10.3871    159.7862    144.2394   9.7022861157e+01   2.1831947833e+01    0.2354415    0.1858002 -35.42 0.0003365874    1.364    0.267
       347  -9.2002    150.3123    147.2737   9.9585336118e+01   2.3127454814e+01    0.1320127    0.1072271  12.30 0.0001996649    1.556    0.357
       348  -8.7719     98.3217    146.3316   1.1069579004e+02   3.2535704796e+01    0.1233908    0.1043159 -24.06 0.0004823812    1.698    0.411
       349 -11.5367     36.9075    144.4048   1.2425353520e+02   4.0979182818e+01    0.4012765    0.2111691 -70.66  0.002328763    1.601    0.376
       350 -11.4276     25.7590    143.9619   1.2666936351e+02   4.2168922751e+01    0.3834787    0.1753459  76.81  0.001083798    2.242    0.554
       351 -10.2947    235.0656    143.9070   8.3072914844e+01   6.8658236477e+00    0.2503737    0.1731963  35.29 0.0005061009    1.373    0.271
       352  -9.4427    223.5236    144.4930   8.5116848076e+01   9.0116751693e+00    0.1370822     0.118401   9.66 0.0001326762    1.031    0.030
       353  -9.7460    208.5001    143.0016   8.7404767312e+01   1.2204468029e+01     0.196604    0.1316537 -29.34 0.0003914369    1.506    0.336
       354  -9.9159    238.5113    139.4871   8.1548444876e+01   6.7957753728e+00    0.2343961    0.1833466  -9.56  0.000518139    1.169    0.145
       355 -10.2243    237.1824    135.8586   8.0954632726e+01   7.5373753625e+00    0.1909512    0.1770299  -8.31 0.0003739568    1.157    0.136
       356  -9.6493    118.8609    144.8236   1.0587001095e+02   2.9417912213e+01    0.3238372    0.2261236  -0.13  0.001392564    3.086    0.676
       357  -9.9219    135.2652    138.5006   1.0105919979e+02   2.7691983143e+01    0.3014004    0.1645985 -52.82  0.001364169    1.900    0.474
       358  -9.6928    131.1903    139.1625   1.0208558816e+02   2.8326635424e+01    0.1863945    0.1568362  86.34 0.0005164518    1.267    0.211
       359  -9.5804    109.6145    138.6194   1.0682492069e+02   3.2294668636e+01    0.1805646    0.1588577 -16.45  0.001042653    1.536    0.349
       360  -9.4326    243.6512    138.0191   8.0408271438e+01   6.0098861261e+00     0.186584    0.1474184 -10.68 0.0003980927    1.135    0.119
       361 -10.4977    166.2391    137.2141   9.4224470018e+01   2.1804214846e+01    0.2980473    0.2234802 -53.59  0.001019665    1.468    0.319
       362  -9.1959    218.5757    135.5537   8.3984054010e+01   1.1276360507e+01    0.1365405    0.1248597   2.83 3.543541e-05    1.043    0.041
       363 -10.3846    216.6984    132.7588   8.3673516482e+01   1.2071234396e+01    0.3688774    0.2064227  20.42  0.001498618    2.556    0.609
       364  -9.3029    195.7986    137.2118   8.8445276980e+01   1.5696240005e+01    0.1906815    0.1552599   4.63 0.0004788044    1.309    0.236
       365  -9.4180     39.0124    131.4967   1.2238017296e+02   4.3572255378e+01    0.1570356    0.1149301  42.06 0.0004228289    1.544    0.352
       366  -9.2300     32.4919    131.4579   1.2391890077e+02   4.4235096636e+01    0.1192104   0.09332158 -86.39 0.0001473493    1.038    0.037
       367  -8.7031     80.6714    130.6618   1.1223819165e+02   3.8590208157e+01    0.1272286    0.1003556 -34.02 0.0004706458    1.732    0.423
       368 -10.6949    103.0345    125.4311   1.0588133332e+02   3.6225431876e+01    0.3766799    0.2739521 -12.16  0.000979321    2.503    0.600
       369 -11.1495    221.6041    126.0128   8.1267285185e+01   1.2056984239e+01    0.3216302    0.2216017  30.85  0.001631703    1.474    0.322
       370 -11.0725      5.4070    121.1537   1.2936705124e+02   4.8772477744e+01    0.3588775    0.1397897 -72.36  0.001454627    1.908    0.476
       371  -9.0737    153.5466    122.4544   9.3581390470e+01   2.7192244049e+01    0.1427139    0.1397224  13.22 -5.719273e-06    1.053    0.051
       372 -10.8457     12.6921    118.7311   1.2738880193e+02   4.8767953108e+01    0.2508879    0.1204913  70.33 0.0009131744    2.120    0.528
       373 -10.2052     16.7999    115.3901   1.2603410726e+02   4.9190000511e+01    0.1320434    0.1146147  -3.10 0.0009526529    1.744    0.427
       374  -9.6082    145.7437    123.0530   9.5432376795e+01   2.8689372885e+01    0.2041268    0.1943378 -61.16  0.001162309    1.048    0.046
       375 -10.3997     90.2768    112.4687   1.0645242881e+02   4.1184808422e+01    0.2523497    0.2197858 -64.53 0.0005529271    1.069    0.064
       376 -11.3410      5.9946    111.9774   1.2842146298e+02   5.0748721900e+01    0.1835314    0.1334043 -88.31 0.0006776957    1.032    0.031
       377 -12.1320     25.9380    107.5169   1.2274628187e+02   5.0206662639e+01    0.4877435     0.314447   5.66  0.002780994    2.645    0.622
       378 -10.3411      2.2392    108.7643   1.2908055960e+02   5.1709669483e+01    0.2090827    0.1384657 -61.14 0.0008103786    1.451    0.311
       379 -10.4203     12.8618    105.8809   1.2603220023e+02   5.1622435604e+01    0.1624205    0.1103942  78.16 0.0005060438    1.328    0.247
       380 -12.3794    248.2063    102.8784   7.1469862810e+01   9.7966438181e+00     0.784664    0.6174562 -70.24  0.003689158    1.856    0.461
       381  -9.9732     60.4082    103.9557   1.1276477317e+02   4.7386784316e+01     0.407166    0.1957659 -73.56   0.00178419    2.232    0.552
       382  -9.9133     89.2803    102.9557   1.0465875424e+02   4.3482662600e+01     0.214495    0.2005176  59.48 0.0005802075    1.163    0.140
       383 -11.0993     24.9954     98.9831   1.2185935328e+02   5.2235028405e+01    0.3230536    0.1709925 -56.80  0.001345165    1.665    0.399
       384 -10.1513    214.3589     97.3989   7.5356322178e+01   1.7978336953e+01    0.2762493    0.2483604 -39.73  0.000612396    1.155    0.135
       385  -9.2344    106.3178     98.6698   9.9100462118e+01   4.1511674740e+01    0.1485454    0.1105839 -88.12 0.0007047169    1.686    0.407
       386  -9.9431     44.3043     97.4869   1.1612910319e+02   5.0745644038e+01    0.3303941     0.124148 -62.18  0.001468662    2.104    0.525
       387 -10.3348     86.8590     96.1179   1.0373710276e+02   4.5411976149e+01    0.3341691    0.2836804 -44.84  0.001397579    1.203    0.169
       388  -9.3509    147.7724     95.9502   8.8145693545e+01   3.3628743411e+01    0.2166691    0.1923272 -40.80 0.0006638108    1.094    0.086
       389 -11.0088      6.8039     95.3599   1.2650640842e+02   5.4410777787e+01    0.2872424    0.1295194  79.68   0.00141263    2.458    0.593
       390 -10.5169     39.3693     94.1809   1.1698133534e+02   5.2018547979e+01    0.2410668    0.2005674 -13.14 0.0009618892    1.694    0.410
       391 -10.8203     44.2844     90.9857   1.1495098249e+02   5.2250973725e+01    0.5038142    0.2881648  75.69  0.002404221    2.409    0.585
       392 -11.5597     20.6197     94.2008   1.2243385725e+02   5.3685952133e+01    0.3187838    0.2032138   8.39  0.001873254    2.464    0.594
       393  -9.9193     68.7270     93.9989   1.0838743841e+02   4.8586837424e+01    0.2028148    0.1551532 -63.63  0.001155099    1.126    0.112
       394  -9.4029     35.2965     91.5812   1.1773095236e+02   5.3016396099e+01    0.1372752    0.1226854 -11.65 0.0004782657    1.517    0.341
       395 -10.0823     24.1371     87.9598   1.2046712990e+02   5.4835669056e+01     0.215418    0.1346621 -35.06  0.001220106    2.112    0.527
       396 -11.6568     10.1331     85.4656   1.2431540375e+02   5.6434799127e+01    0.3198957    0.1801111  40.62  0.001945444    2.086    0.521
       397 -10.3813    249.4929     86.4826   6.7168592605e+01   1.1737232842e+01    0.2962167    0.1914252 -32.33  0.001034364    1.379    0.275
       398 -12.7500    249.7649     78.6938   6.5127451646e+01   1.2720107021e+01     0.761347    0.5891097 -46.65  0.003042216    1.363    0.266
       399 -11.0312    242.9437     81.8092   6.6857451729e+01   1.3795034694e+01    0.3277493    0.1893931 -16.72  0.001316216    1.761    0.432
       400 -11.9302    240.0947     84.6923   6.8010824708e+01   1.4028349300e+01    0.6239198    0.3714711 -82.79  0.002227774    3.872    0.742
       401 -11.6045    238.5269     80.4886   6.7125583135e+01   1.4961149056e+01    0.2812926    0.2044989 -26.12 0.0006984829    1.234    0.189
       402  -8.8111    165.3185     87.7161   8.1945339158e+01   3.1164378221e+01    0.1532059    0.1217459 -74.72 0.0002564916    1.587    0.370
       403 -10.4981    230.1917     84.3282   6.9357080001e+01   1.6306640401e+01    0.3386182    0.2284516 -43.63   0.00102656    1.516    0.340
       404  -9.5596    201.9967     84.4999   7.3958721893e+01   2.2905727379e+01    0.2170532    0.1521555  55.11 0.0004514427    1.506    0.336
       405  -9.1395    193.2879     83.3302   7.5177211610e+01   2.5197765949e+01    0.1574756    0.1174302  11.57 0.0004000436    1.619    0.382
       406 -10.7823      2.5167     82.4941   1.2622622044e+02   5.7574095217e+01     0.306808    0.1568332  84.46  0.001362307    1.922    0.480
       407 -11.5504     46.3027     79.6292   1.1201207485e+02   5.4654177893e+01    0.3363734    0.2744444 -19.86  0.002050803    1.592    0.372
       408 -10.4681     37.6011     80.4049   1.1494226123e+02   5.5373637705e+01    0.3668059    0.1873363 -47.43  0.001862766    1.885    0.470
       409 -11.1943     60.9054     79.1227   1.0727539128e+02   5.3032248698e+01    0.2880154    0.1880872  49.60  0.001530369    1.800    0.445
       410 -11.1672      6.5812     74.7431   1.2390751830e+02   5.9089977117e+01    0.4156645    0.2203981  47.61  0.002426786    2.257    0.557
       411 -12.5906    247.6952     61.8248   6.0952015190e+01   1.5399837674e+01    0.6270003    0.3972836  26.56  0.002892005    2.004    0.501
       412 -11.1545    101.6419     68.9679   9.1962566775e+01   4.8756036988e+01    0.5150082    0.2360471 -38.69  0.001464519    2.157    0.536
       413 -10.6813     10.1545     71.2572   1.2219810906e+02   5.9661535299e+01    0.3924813    0.2142832  79.75  0.001590561    2.163    0.538
       414 -10.2999      6.9777     66.7458   1.2252575106e+02   6.0874438310e+01    0.1776619    0.1668172  45.39  0.001014729    1.397    0.284
       415 -10.2504    230.6015     69.1874   6.5182836247e+01   1.8356187737e+01    0.2099578    0.1336911 -14.39 0.0004568284    1.642    0.391
       416 -12.5241    239.9737     70.1756   6.4172851457e+01   1.6047722594e+01    0.5018905     0.329608  22.56  0.002313506    1.897    0.473
       417 -11.6497     53.1059     70.9725   1.0773799072e+02   5.5851609431e+01    0.3700778    0.2968903  82.27  0.001988897    1.460    0.315
       418 -11.2720     43.6548     64.2699   1.0921577360e+02   5.8433167174e+01    0.4155865     0.188043 -54.13  0.001990226    1.740    0.425
       419  -8.9791     20.5989     72.7419   1.1898618494e+02   5.8601615490e+01    0.1203763   0.07574344 -41.46 0.0006960765    1.715    0.417
       420  -9.9830    135.6375     60.9794   8.0257098417e+01   4.3082080092e+01    0.4135191    0.2195152 -60.81  0.001346966    3.331    0.700
       421  -8.8444     54.3240     62.3454   1.0497639978e+02   5.7632187616e+01    0.1387385   0.08998796 -32.78 0.0007050214    1.739    0.425
       422  -9.8678     13.6156     62.3777   1.1942394127e+02   6.1447273407e+01    0.2390516    0.1213499   8.43  0.001254219    3.062    0.673
       423 -10.7293     27.8416     56.0172   1.1280561484e+02   6.1801175297e+01     0.539026    0.2254654  31.97  0.002254049    2.886    0.654
       424 -12.2777     17.0298     52.2626   1.1598827044e+02   6.3477854493e+01    0.7185031     0.417932 -61.07  0.002912934    1.280    0.219
       425 -10.3909      1.4504     61.0652   1.2350824781e+02   6.2453123253e+01    0.2799102    0.1354982 -62.90 0.0009662362    1.470    0.320
       426 -12.0222      7.5750     57.5474   1.2067438860e+02   6.2906225015e+01    0.7651441    0.2032325 -57.64  0.003454007    2.420    0.587
       427 -11.8838      3.9055     54.9733   1.2154305025e+02   6.3684452702e+01    0.5819666    0.2205281 -71.84  0.001497191    2.054    0.513
       428 -12.3187     79.0731     57.4787   9.5087866692e+01   5.5131910293e+01    0.4320034    0.2760579 -52.71  0.002140573    1.467    0.318
       429  -9.7704     60.5079     60.0000   1.0214237381e+02   5.7351291537e+01    0.2615335   0.07872751  35.78 0.0009369247    3.952    0.747
       430  -9.7089     65.1502     57.1855   9.9656218708e+01   5.7317761656e+01    0.1771463    0.1534057 -76.21 0.0003915241    1.307    0.235
       431 -10.4846     49.6795     74.9448   1.0984983498e+02   5.5350144921e+01    0.3494371    0.1360555  46.47  0.001434281    3.301    0.697
       432  -9.5395    125.2155     73.4478   8.6973985777e+01   4.3052352763e+01     0.201182    0.1491679  64.67 0.0005001571    1.599    0.375
       433 -11.4258     45.8320     53.9630   1.0553635674e+02   6.0473195100e+01    0.3410576    0.2272546 -39.04  0.001721004    1.421    0.296
       434 -10.8598    223.2511     51.0469   6.1057660076e+01   2.2606019643e+01    0.4480318    0.2834632  12.02  0.001430851    2.172    0.540
       435  -9.0005    131.6445     53.3016   7.8539679976e+01   4.5379369498e+01    0.1564794     0.119553 -70.75 0.0007038303    1.708    0.414
       436 -11.5860     82.5020     49.4984   9.1140143785e+01   5.6170371410e+01    0.2869871    0.2198199 -32.03  0.001549749    1.209    0.173
       437 -10.5542    248.4116     50.8071   5.7919702542e+01   1.6641095433e+01    0.2057109    0.1274816 -13.10 0.0009496089    1.688    0.408
       438  -8.9564    172.0742     49.9787   6.8741601425e+01   3.5867807012e+01    0.1779198    0.1728004 -20.40            0    1.013    0.013
       439 -11.4534     49.7035     42.3821   1.0023930511e+02   6.2467136325e+01    0.3833062    0.3763655  17.84  0.002631949    1.247    0.198
       440 -10.1880     51.1688     50.1746   1.0236425492e+02   6.0659392494e+01    0.2516886    0.1780125 -64.92 0.0003402721    1.463    0.316
       441 -10.7834     48.4196     47.8148   1.0261427424e+02   6.1491491281e+01    0.2376361    0.1848085 -39.77 0.0006183375    1.135    0.119
       442  -9.4918     42.3072     49.3435   1.0543508073e+02   6.1862314962e+01    0.2052699      0.12481 -32.27 0.0007992921    1.806    0.446
       443 -10.3310     69.2361     48.5888   9.5292744945e+01   5.8506333363e+01    0.1770476    0.1308617  18.92 0.0009471331    1.679    0.405
       444 -10.3067    243.5092     42.5102   5.6215877775e+01   1.8806090946e+01    0.2292079    0.1123338 -35.78 0.0008562921    1.755    0.430
       445  -9.8237    108.5025     45.0856   8.1543407549e+01   5.1985104712e+01     0.225664    0.1369317 -34.20 0.0008581639    1.527    0.345
       446 -10.7371    225.2092    247.7832   1.0249023848e+02  -3.0562924420e+00    0.1857556     0.145979  31.53 0.0005131032    1.185    0.156
       447 -10.8073     61.4891    248.5093   1.2760681607e+02   1.9436418583e+01    0.1762939    0.1336931  62.20 0.0005761652    1.172    0.147
       448 -10.4580     17.2806    248.7698   1.3398879789e+02   2.4137461091e+01    0.1505981    0.1143746  58.66 0.0005990323    1.361    0.265
       449 -10.3076      8.8286    248.4167   1.3514779436e+02   2.4998144508e+01    0.1482753    0.1056647  79.67 0.0004147484    1.279    0.218
       450 -12.0854     19.7064     28.0624   1.0777888777e+02   6.8452356126e+01    0.4055056    0.2566609 -25.57  0.001176995    1.715    0.417
       451 -11.2523     20.9819     23.0823   1.0530432215e+02   6.9345965574e+01    0.3333991    0.2848419  -5.19  0.001679693    1.346    0.257
       452 -10.9362    157.4086    245.6753   1.1260105966e+02   6.9851274831e+00    0.3503894    0.2358226  32.24  0.002547316    1.424    0.298
       453 -10.4574    154.8609    241.1730   1.1251942514e+02   7.8959122728e+00    0.3084793    0.2048151  18.16  0.001990636    2.202    0.546
       454 -11.1386    165.6074    240.7762   1.1077469138e+02   6.3529974371e+00    0.3634814    0.2417121  10.48  0.002291019    2.420    0.587
       455 -11.3009    170.6852    239.9416   1.0987667177e+02   5.6940910381e+00    0.3826674    0.2357909  27.00  0.001572371    1.746    0.427
       456 -11.2818     31.1331     41.1469   1.0725127806e+02   6.4742215776e+01    0.3112909    0.2402944 -35.03 0.0003715028    1.238    0.193
       457 -11.2226     28.8613     37.8174   1.0710522171e+02   6.5653209010e+01     0.384693    0.2507445 -23.44  0.001725903    1.789    0.441
       458 -10.4066     11.9294     44.3115   1.1607790441e+02   6.5569007174e+01    0.2671599    0.1713822 -37.50  0.001073115    1.560    0.359
       459 -10.8923    115.4296     37.3027   7.6580712936e+01   5.1784045790e+01    0.3814235    0.2874865  60.72  0.001832925    1.518    0.341
       460 -12.1961    247.6346     31.9224   5.2913409368e+01   1.9097632408e+01    0.4269683    0.3402684  31.30   0.00235226    1.464    0.317
       461 -11.1578     59.1741     35.4608   9.3929825286e+01   6.2579327375e+01    0.2877773    0.2245228  73.01  0.001580117    2.044    0.511
       462 -10.4131     49.7961     33.0425   9.6628075806e+01   6.4319111723e+01    0.2591459    0.1489076 -33.76  0.001290327    1.624    0.384
       463 -12.0670     58.5507     27.7707   9.0898626976e+01   6.4098345449e+01    0.3515907    0.3218012 -41.40   0.00088689    1.212    0.175
       464 -11.6418     65.6374     26.5662   8.7645521504e+01   6.3224436015e+01    0.4262668    0.3407618  10.07   0.00184996    1.356    0.263
       465  -9.9307      5.5088     29.4879   1.1484468725e+02   6.9127969677e+01    0.2361091    0.1542498 -59.92  0.001133229    1.147    0.129
       466  -9.0587    119.1705    248.3722   1.1882119101e+02   1.2084559947e+01    0.1545478   0.06822012  50.09  0.000948364    1.690    0.408
       467 -10.9205     78.3456     20.8145   8.0417961440e+01   6.1978943753e+01    0.3936919    0.2731438 -61.05   0.00125165    2.241    0.554
       468 -10.6773     31.3121    246.8861   1.3193250841e+02   2.3001602142e+01    0.2395111    0.1321544  67.50 0.0007630173    1.273    0.214
       469 -10.4002    235.9283     20.3002   5.0840621156e+01   2.3206935981e+01     0.249893    0.1715657 -40.56 0.0006599561    1.310    0.237
       470 -10.4103     70.8742     20.1569   8.2711048804e+01   6.3414077017e+01    0.2006233    0.1732567 -44.75  0.001127952    1.316    0.240
       471  -9.9234     33.8073     20.0015   9.7943408449e+01   6.8691872678e+01    0.2059254    0.1730283  38.37  0.001388651    1.566    0.361
       472 -11.7471    210.8827    246.1038   1.0441383658e+02  -8.6722115140e-01     0.227056    0.1581237  25.77 0.0005308533    1.183    0.155
       473 -10.9894     59.7354     17.0623   8.5376562883e+01   6.5741782032e+01    0.2603179    0.2258853   9.95 0.0008918254    1.195    0.163
       474  -9.7642    124.3187    246.9801   1.1789908733e+02   1.1552700330e+01    0.1334806    0.1072857  56.82 0.0004064123    1.113    0.102
       475  -9.1955    179.0131     14.9701   5.5598931863e+01   3.8561947056e+01    0.1760139    0.1683736 -23.69 0.0003799981    1.035    0.034
       476 -10.4553    132.8992    245.3374   1.1640643316e+02   1.0557098367e+01    0.1749786    0.1438282  58.66  0.000408098    1.145    0.127
       477 -10.6317    113.2096    244.5822   1.1942292327e+02   1.3403047642e+01    0.3562371    0.2465109 -58.21  0.002752797    1.894    0.472
       478 -10.2950    121.4293    237.2582   1.1746312316e+02   1.3250395799e+01    0.2193187     0.130093 -57.39  0.001510714    2.141    0.533
       479 -10.1264    114.7222    240.0310   1.1878790450e+02   1.3811882092e+01    0.2429879    0.1413233  70.01    0.0014192    1.926    0.481
       480 -10.1087    118.0054    238.9878   1.1817131854e+02   1.3496657316e+01    0.2047902    0.1135309  45.34 0.0004031365    1.384    0.277
       481  -8.8952    243.2610    245.3347   9.9516519427e+01  -5.3522255521e+00    0.1022723    0.0591189  17.00 0.0003124173    1.577    0.366
       482 -11.5679    191.9743    244.1088   1.0704896438e+02   2.0818140232e+00    0.2334777    0.1654703  29.19  0.000537729    1.202    0.168
       483  -9.9245     93.5949    244.7915   1.2249209983e+02   1.5996049477e+01    0.1615165    0.1058067  44.58 0.0006011032    1.331    0.249
       484 -10.0807     80.9324    244.4565   1.2441868792e+02   1.7662257788e+01    0.1406917     0.120572  63.97 0.0004981065    1.310    0.236
       485  -9.6181     41.3505    244.8605   1.3038646223e+02   2.2235766211e+01    0.1237888   0.08927789  71.62 0.0006163134    1.140    0.123
       486 -11.1416    177.0399    243.3833   1.0927874827e+02   4.3619283679e+00    0.2230653    0.1607011  31.42 0.0005310515    1.223    0.183
       487 -10.7976    225.7525    240.2632   1.0140822166e+02  -2.4637977966e+00    0.2128482    0.1506504  21.58 0.0003899835    1.155    0.134
       488 -11.9326    210.5724    237.5531   1.0334947485e+02   2.7586221389e-03    0.4479778    0.2535056  36.00  0.001887972    1.329    0.248
       489 -11.2872    217.9108    241.2383   1.0272027281e+02  -1.4241739468e+00    0.3132221    0.2572528  73.34  0.002310413    2.185    0.542
