#   1 NUMBER                 Running object number                                     
#   2 MAG_AUTO               Kron-like elliptical aperture magnitude                    [mag]
#   3 X_IMAGE                Object position along x                                    [pixel]
#   4 Y_IMAGE                Object position along y                                    [pixel]
#   5 X_WORLD                Barycenter position along world x axis                     [deg]
#   6 Y_WORLD                Barycenter position along world y axis                     [deg]
#   7 A_WORLD                Profile RMS along major axis (world units)                 [deg]
#   8 B_WORLD                Profile RMS along minor axis (world units)                 [deg]
#   9 THETA_WORLD            Position angle (CCW/world-x)                               [deg]
#  10 FWHM_WORLD             FWHM assuming a gaussian core                              [deg]
#  11 ELONGATION             A_IMAGE/B_IMAGE                                           
#  12 ELLIPTICITY            1 - B_IMAGE/A_IMAGE                                       
         1 -12.7185      2.3675     23.1126   1.3378650979e+02   7.2118203590e+01      1.83132    0.1673535 -68.04  0.004202504    8.851    0.887
         2 -13.6914      2.9455      7.5288   1.2769585640e+02   7.5495415252e+01     1.477322     1.033789 -34.03  0.009475866    1.175    0.149
         3 -14.3168    200.1588     16.0401   6.5181186094e+01   3.2834188187e+01      2.63414      1.54732  23.89   0.01041776    2.366    0.577
         4 -13.6637    205.3329      9.5283   6.2848338393e+01   3.2223218534e+01     1.423405    0.6663607  48.83  0.001321129    2.395    0.582
         5 -11.7494    120.3406    239.1475   1.2992194868e+02   1.2744222219e+01    0.2611586    0.2054133  85.43  0.001901231    1.822    0.451
         6 -11.1595    249.8134    248.3136   1.0854679484e+02  -4.1449591747e+00    0.2976456    0.1133888 -31.37  0.001800582    2.931    0.659
         7 -12.5260    139.4296    248.8839   1.2734913396e+02   9.0543941772e+00    0.5650746    0.2324439  37.52  0.003221785    1.808    0.447
         8 -11.9269    124.0402    249.9075   1.3026746162e+02   1.0818860658e+01    0.5736795    0.1183062  35.00  0.002364042    3.424    0.708
         9 -11.9789    125.9774    245.6877   1.2950534639e+02   1.1142847611e+01    0.3691539    0.1855159  52.19  0.002085087    2.374    0.579
        10 -12.1027    111.8460    249.1489   1.3244197268e+02   1.2396685178e+01    0.5346279     0.165794  35.93   0.00270394    2.294    0.564
        11 -13.0678    100.0266    247.6699   1.3450213749e+02   1.4005745332e+01    0.6052036    0.4322217  28.14  0.004521197    1.227    0.185
        12 -15.8077      2.5404    234.4287   1.5161053765e+02   2.5802479049e+01     10.30892     0.881196 -78.11   0.03687042    8.383    0.881
        13 -15.7168     50.8540    219.2036   1.4191524516e+02   2.3992842948e+01     6.273031     2.409955  35.80   0.02153187    1.998    0.499
        14 -10.4792    193.4336    195.5637   1.1002612234e+02   8.7232236238e+00    0.6385057    0.3575664 -59.24  0.002024268    8.240    0.879
        15 -11.5395     68.6554    195.3880   1.3636543120e+02   2.6363523869e+01    0.3372538    0.2321917 -39.33  0.001674953    1.977    0.494
        16  -9.3811    113.6721    193.3092   1.2611669313e+02   2.0916037696e+01    0.2396528    0.1379256  15.02 0.0009969765    2.375    0.579
        17 -11.6258     73.7092    188.1891   1.3453916593e+02   2.7146434456e+01    0.2581791    0.2165452 -46.58  0.000795014    1.431    0.301
        18  -9.2251    126.0117    185.4724   1.2230217862e+02   2.0515883923e+01    0.1879114    0.1052591  13.89 0.0008097446    2.665    0.625
        19 -10.8084     82.4837    176.0483   1.3114842568e+02   2.8453774444e+01    0.2202934     0.206769  59.84 0.0004219406    1.060    0.057
        20 -13.2427     70.0328    173.5366   1.3386921273e+02   3.0533081668e+01    0.4663363    0.2661869 -41.97  0.001689299    2.323    0.569
        21 -12.4177     88.9625    167.2126   1.2844482235e+02   2.9394070597e+01     1.403739    0.4712127  44.90  0.005407261    2.894    0.654
        22 -13.2624     67.7842    145.0072   1.3094203489e+02   3.7011515525e+01     1.372054    0.7187022  76.61  0.005416302    3.156    0.683
        23 -12.5108     58.4624    132.9426   1.3189996405e+02   4.0933837470e+01     1.868052     0.632961 -79.93    0.0042785    8.633    0.884
        24  -9.2826    104.0018    146.6712   1.2142844826e+02   3.1512277418e+01     0.357871     0.190968 -27.07  0.001288651    3.560    0.719
        25 -11.9347     90.0235    150.2450   1.2570499956e+02   3.2845573834e+01    0.2676335    0.2402178 -10.89 0.0004994359    1.274    0.215
        26  -9.6136    134.4126    148.6721   1.1412804332e+02   2.6052279770e+01    0.2453711    0.1380895 -52.35 0.0007470107    2.011    0.503
        27 -11.8902     43.1361    148.7449   1.3812388050e+02   3.8932487985e+01    0.4511438    0.1961446  35.49   0.00215468    2.112    0.526
        28 -11.0804     33.3131    228.8776   1.4583286034e+02   2.4072205841e+01    0.2087957    0.1348207  50.71 0.0006148643    1.163    0.140
        29  -9.8808    111.3935    136.3703   1.1755795644e+02   3.2517666538e+01    0.3076938    0.2236705 -12.78  0.001455595    1.837    0.456
        30 -14.6573     10.0085    207.2240   1.4945239383e+02   2.9877635221e+01     2.578073     1.525819 -46.99   0.01467213    2.581    0.613
        31 -11.3726     49.9753    129.9992   1.3399905680e+02   4.2585496221e+01      0.28734     0.238259  63.98 0.0007806479    1.180    0.153
        32  -9.5171    108.0949    123.4760   1.1579856920e+02   3.5881454521e+01    0.1981648     0.191455 -31.78 0.0003331031    1.042    0.040
        33 -10.4511     99.2046    133.5538   1.2032309837e+02   3.5127896799e+01    0.2705726    0.2132455 -25.43  0.000607894    1.483    0.326
        34 -14.7594     45.5406    229.5191   1.4354767064e+02   2.2786055926e+01     2.259726     1.460482  25.16  0.001488894    1.608    0.378
        35 -11.3884     35.3475    225.1889   1.4527492396e+02   2.4500212287e+01    0.2568549    0.1660637  43.51 0.0009310045    1.199    0.166
        36 -10.0548    100.8810    151.1104   1.2299977432e+02   3.1049213920e+01    0.2602853    0.2147464  34.81   0.00077929    1.152    0.132
        37 -11.1676    168.2755    113.4628   9.8328021483e+01   2.6228465634e+01    0.3390177    0.3090795 -63.45 0.0008086153    1.364    0.267
        38 -12.0816     69.3237    235.1920   1.3934949306e+02   1.9376702733e+01    0.4069866    0.2320822  68.29  0.001605528    1.967    0.492
        39 -11.3811    144.4690    243.5300   1.2585731280e+02   9.1063895305e+00    0.1929084     0.159305  42.71  0.000766853    1.306    0.235
        40  -9.4704     94.5712    216.7220   1.3282491010e+02   1.9419895151e+01    0.2572064    0.1224488  55.55  0.001029735    2.449    0.592
