#   1 NUMBER                 Running object number                                     
#   2 MAG_AUTO               Kron-like elliptical aperture magnitude                    [mag]
#   3 X_IMAGE                Object position along x                                    [pixel]
#   4 Y_IMAGE                Object position along y                                    [pixel]
#   5 X_WORLD                Barycenter position along world x axis                     [deg]
#   6 Y_WORLD                Barycenter position along world y axis                     [deg]
#   7 A_WORLD                Profile RMS along major axis (world units)                 [deg]
#   8 B_WORLD                Profile RMS along minor axis (world units)                 [deg]
#   9 THETA_WORLD            Position angle (CCW/world-x)                               [deg]
#  10 FWHM_WORLD             FWHM assuming a gaussian core                              [deg]
#  11 ELONGATION             A_IMAGE/B_IMAGE                                           
#  12 ELLIPTICITY            1 - B_IMAGE/A_IMAGE                                       
         1 -11.1094     35.6582     60.6043   9.0345071779e+01   6.1389640056e+01     2.076212    0.8673345 -22.80  0.006707661    4.573    0.781
         2 -10.5772     16.4062     65.8637   1.0043005750e+02   6.1951567986e+01     1.504796     0.485783 -61.32  0.005313453    2.859    0.650
         3 -11.0763     23.6647     32.5148   8.5976219934e+01   6.7882603802e+01     1.455125    0.4905558 -34.76  0.005249779    2.881    0.653
         4 -10.4717     27.1767     11.1708   7.4380081231e+01   7.0701511809e+01    0.8423085    0.3694586  34.31  0.003533144    2.182    0.542
         5 -10.2446     18.2916      5.3754   7.6248380967e+01   7.2509775643e+01     0.578409    0.3961934 -41.16  0.002473775    1.938    0.484
         6  -9.4020      2.4058     14.4037   9.0255786744e+01   7.2675730791e+01    0.4117367     0.209541 -57.37  0.002080019    2.866    0.651
         7 -10.4498      5.6464      4.6996   8.3536758645e+01   7.3875506226e+01    0.5218852     0.339421   3.27  0.001626979    1.272    0.214
         8 -10.2714      4.9279     41.6672   9.9033829570e+01   6.7663347882e+01    0.7606996    0.3625949 -64.41  0.003775358    2.446    0.591
         9  -9.5083     77.9961      4.0346   5.0468953638e+01   6.2782021883e+01    0.4923908    0.2845023  -0.82  0.002638739    2.033    0.508
        10 -10.1914     69.5790     41.0113   6.8938311227e+01   6.0085493527e+01    0.9502603    0.3382299 -34.94  0.003707266    2.882    0.653
        11 -10.0057     73.6904     17.6335   5.7706167060e+01   6.2361560841e+01    0.8963151    0.2249086 -28.53  0.002981344    4.196    0.762
        12  -8.5769     72.0968      8.4504   5.4199464774e+01   6.3589853527e+01    0.2391687    0.1878835  -8.90 0.0004050065    1.327    0.246
        13 -10.0496     63.2777      2.9237   5.4586403519e+01   6.5788127569e+01    0.4769664    0.3709862  13.88  0.001624046    1.158    0.136
        14  -9.6276     63.1928     21.2274   6.3020767692e+01   6.3922781685e+01    0.4294254    0.2649618 -45.47  0.001697922    2.316    0.568
        15  -9.8828     64.6037     12.9694   5.8778548626e+01   6.4588308805e+01    0.3678308     0.270249 -13.59  0.001525174    1.381    0.276
        16 -10.8660     37.7949     11.0434   6.8986810793e+01   6.9274916333e+01     1.081892    0.3470428 -41.07  0.004198729    4.443    0.775
        17 -10.2391     51.1076     15.2046   6.5069369673e+01   6.6715560800e+01    0.9964585     0.491907  10.73  0.004115717    3.285    0.696
        18  -9.7525     10.3453     18.7218   8.7423882554e+01   7.1374883161e+01     0.683134    0.2824298 -11.82  0.002662702    4.148    0.759
        19  -9.6551    131.6971     16.8937   4.3044208566e+01   4.9574222083e+01    0.4468751    0.2632254  64.43  0.001677902    1.490    0.329
        20  -7.9154    189.1815     17.1597   3.5086070909e+01   3.5861947213e+01    0.2574541    0.1422843 -27.24 0.0007104528    2.105    0.525
        21  -9.0976     96.2696     15.1007   5.0041168192e+01   5.7913954667e+01    0.5100209     0.248667  -9.85  0.002199272    2.796    0.642
        22  -8.9386    115.4615      4.0319   4.1725019386e+01   5.4521593231e+01    0.2739943    0.1928786 -32.00  0.001013818    1.650    0.394
        23  -9.3493    132.0216      5.1400   3.9226834634e+01   5.0546700800e+01    0.4899013     0.177093  47.22  0.001563363    2.605    0.616
        24  -7.9731    136.5216      1.4951   3.7400667329e+01   4.9770785250e+01    0.2193767    0.1068433  68.36 0.0006378664    1.721    0.419
        25  -8.9165    120.4742      5.8787   4.1434023164e+01   5.3207363152e+01    0.3867944    0.1627061  54.10  0.001797928    1.901    0.474
        26  -8.6224    120.6393     15.5705   4.4699989328e+01   5.2317537721e+01    0.4056526    0.1922712  36.25  0.001755876    2.454    0.593
        27  -9.0920    125.9818      4.9795   4.0168649542e+01   5.1986918757e+01    0.4374188    0.2132284  35.66  0.001518729    2.413    0.586
        28  -8.7076    112.3646     15.3772   4.6350280860e+01   5.4260679563e+01      0.26318     0.205799 -43.59  0.000775107    1.508    0.337
        29  -9.1128    114.3089      9.8277   4.3976786124e+01   5.4312765506e+01    0.3995452    0.1796597  42.37 0.0006022343    2.132    0.531
        30  -8.8270    125.0638     12.9371   4.2961309487e+01   5.1520872559e+01     0.257234    0.2048436 -15.37 0.0009392389    1.464    0.317
        31  -9.0148    126.7747      9.0102   4.1354310747e+01   5.1464501234e+01    0.3033397    0.1353896  51.24  0.000685825    1.901    0.474
        32  -8.6085    105.0249     14.1366   4.7541632114e+01   5.6053216255e+01    0.2564564    0.1756625   9.19  0.001125321    1.725    0.420
        33  -9.4483     85.3348     13.0218   5.2162470290e+01   6.0462589578e+01    0.3791457    0.2534151 -53.77  0.001691707    2.289    0.563
        34  -7.8574     80.4268     12.4046   5.3336882484e+01   6.1541111168e+01    0.2073978    0.1059313 -36.72  0.001014792    2.350    0.575
        35  -8.8677    155.7152      9.4524   3.7066308923e+01   4.4523037332e+01    0.3627363    0.1141193 -25.43  0.001419191    3.627    0.724
        36  -9.2131    133.4301     11.5655   4.1035884536e+01   4.9660214744e+01    0.3699766    0.1796842 -47.41  0.001693147    2.503    0.601
        37  -8.9920    102.0613      7.7728   4.5840132260e+01   5.7282927072e+01    0.2289693    0.1956725 -50.67  0.000741741    1.446    0.308
        38  -9.3889    110.2507      5.1007   4.3113792792e+01   5.5639515221e+01    0.4313296    0.2759825 -18.74  0.002434765    1.821    0.451
        39  -8.2974    104.8360      1.8963   4.3050154413e+01   5.7120589066e+01    0.2858724    0.1580492  48.06  0.001119082    1.499    0.333
        40  -8.8312     97.8429      6.1352   4.6183347382e+01   5.8359905194e+01    0.2178716    0.1759963   9.48 0.0007053202    1.324    0.245
        41  -8.7529     95.8364      2.8517   4.5376287301e+01   5.9062856420e+01    0.2508233      0.19599  57.38 0.0005677574    1.139    0.122
        42  -8.0197     85.4554      6.0180   4.9234703834e+01   6.1060478610e+01     0.424682    0.1494523  35.58  0.001637071    3.207    0.688
        43  -8.8413     89.0144      2.3369   4.6806076675e+01   6.0592049858e+01      0.47078     0.306957  50.64  0.002074111    1.249    0.199
        44  -7.8568     68.1562      8.8822   5.5685489503e+01   6.4319199209e+01    0.1706983    0.1615897  31.66 0.0004459778    1.282    0.220
        45  -7.6607    151.4383      1.5394   3.5383140716e+01   4.6226686795e+01    0.1258182    0.1057603  81.17 0.0008057726    1.040    0.038
        46 -10.2762    140.7352    117.4847   7.1381422530e+01   3.0807083045e+01    0.8240406    0.4181652 -51.79  0.001779882    2.138    0.532
        47  -8.6257    219.8146    249.9722   8.1031102391e+01  -8.6619752992e+00    0.1849496     0.110275   8.28  0.001058624    1.590    0.371
        48 -10.7459    195.4979    249.9751   8.5722978165e+01  -5.4471157125e+00    0.6873786    0.2959715  22.98 -0.0007687846    2.432    0.589
        49 -10.3461    117.2641    125.3658   7.9814594344e+01   3.3879312391e+01    0.6957361    0.6725501 -17.68  0.001861061    1.021    0.021
        50  -9.6078    110.8124     89.7078   7.1910034900e+01   4.3218934696e+01    0.8473146     0.392245  29.03   0.00271329    3.260    0.693
        51 -10.2421    139.6026    103.4349   6.7892544360e+01   3.4093733774e+01    0.7947127    0.4537065 -46.64  0.001852573    1.765    0.433
        52 -10.6313    131.3799    119.0998   7.4277659892e+01   3.2445772880e+01     0.953017     0.622586  78.39  0.002044427    2.962    0.662
        53 -11.1983    120.5444    110.3655   7.4962511095e+01   3.6694911755e+01     1.565942     0.641175 -50.30  0.004831657    2.581    0.613
        54 -10.6863    127.8958    101.6678   7.0502085938e+01   3.7047189969e+01     1.336578    0.7749547 -22.97  0.003314088    2.564    0.610
        55 -10.4076    123.2656     91.2368   6.8774542151e+01   4.0244319650e+01    0.9182828    0.5318381 -30.48  0.002025343    1.987    0.497
        56 -10.2203    108.7259    114.4411   7.9507319905e+01   3.8138172888e+01      0.88516    0.5967773 -89.67  0.001485601    2.820    0.645
        57 -10.8378    108.6204    100.6870   7.5775557226e+01   4.1301863349e+01      1.07445    0.8000839 -70.07  0.004485358    1.775    0.437
        58  -9.9936     41.8970    122.4497   1.0297101297e+02   4.6257087010e+01    0.6732076    0.3516333 -87.37  0.002517882    3.004    0.667
        59 -10.7440    133.8278    109.4359   7.1047890556e+01   3.4076343068e+01    0.9288046    0.4549032 -46.55  0.002517501    2.041    0.510
        60  -8.0676    158.4450    121.9298   6.8145630969e+01   2.5981475126e+01     0.221027    0.1352586 -64.86 0.0008063826    2.424    0.587
        61  -8.2760    152.4290    120.8231   6.9309601301e+01   2.7532376951e+01    0.2331269    0.1481482 -32.39 0.0009547218    1.703    0.413
        62  -8.5535      1.6347    116.6625   1.1523380472e+02   5.0801810391e+01    0.3950933    0.1464182 -81.34  0.001578266    2.754    0.637
        63 -10.2581     92.0135    112.7709   8.4238628489e+01   4.1642714087e+01    0.6763676    0.5423886  68.52  0.002261905    1.585    0.369
        64  -9.1585     93.0271    103.3555   8.1404191994e+01   4.3681618587e+01    0.6963307    0.4334676  12.59  0.002719973    2.357    0.576
        65  -9.8253     14.2584    110.2486   1.1019506329e+02   5.1658171028e+01    0.7326252    0.3003215 -78.89  0.002673792    2.723    0.633
        66  -8.6709    152.8391    115.1316   6.7736862046e+01   2.8668184202e+01    0.2406569    0.2123228 -66.60 0.0005617967    1.241    0.194
        67 -10.2175     78.2496    112.8026   8.8725563396e+01   4.3936477921e+01    0.5842392    0.3747101 -79.39  0.001683617    2.432    0.589
        68  -8.0227     78.0032    105.4868   8.6951103198e+01   4.5744966323e+01    0.3612213    0.2248496  -7.18  0.001384666    2.592    0.614
        69  -9.4909     81.4651    100.1268   8.4345255414e+01   4.6444334348e+01    0.8076668    0.2952928 -50.05  0.002728472    2.592    0.614
        70  -7.7975    167.4688    114.0374   6.4055888844e+01   2.5652412214e+01     0.233346    0.1486375 -43.20  0.000482985    1.517    0.341
        71  -9.0209     56.2158    113.3313   9.6302747734e+01   4.6926148268e+01    0.2570985    0.2015985 -61.89 0.0007228379    1.218    0.179
        72 -10.6460     63.0415     95.7979   8.9639888031e+01   5.0284628978e+01     1.245214    0.6103337 -66.57  0.001645419    2.996    0.666
        73  -9.2118     64.1147     86.5628   8.6694323027e+01   5.2254214253e+01    0.8608912    0.4771657 -28.47  0.003575929    2.163    0.538
        74 -10.2750     65.7552    110.8351   9.2459539684e+01   4.6281243403e+01    0.7302409    0.6138738  78.95  0.001264073    1.470    0.320
        75  -8.9393     59.0458    109.0522   9.4356268237e+01   4.7627715565e+01     0.508604    0.2584258 -70.97  0.001002942    2.691    0.628
        76  -8.8619    158.9515    111.1856   6.5253482769e+01   2.8139822411e+01    0.4084178    0.2012056 -45.67  0.001264079    2.007    0.502
        77 -11.1004     20.9255     98.7954   1.0588322298e+02   5.4014940667e+01     1.894803    0.7403709 -76.13  0.005783534    3.391    0.705
        78 -10.4890     25.6847     77.9361   9.9521802167e+01   5.8569210703e+01    0.7613689    0.5144199  70.81  0.001978116    2.492    0.599
        79  -8.5111    249.0219    248.3862   7.5477147702e+01  -1.1955641903e+01     0.202141    0.1270405 -12.43  0.001231345    1.303    0.233
        80  -9.7212    160.7547    246.0122   9.2205088205e+01   1.6082518340e-01    0.2497803      0.19561 -79.65  0.001417064    2.119    0.528
        81 -10.8371     21.9893     53.4425   9.4314420514e+01   6.4133233770e+01    0.7767676    0.5087641 -88.90  0.002999154    3.631    0.725
        82 -10.2647    175.1789    248.8672   8.9641927244e+01  -2.4145261551e+00    0.3524548    0.2170524  34.51  0.001981732    1.423    0.297
        83  -7.9125    234.1362    247.0749   7.7911653591e+01  -1.0045674003e+01    0.1825328    0.1238796  -3.73 0.0006476744    1.211    0.175
        84  -8.9766    126.1779     83.7334   6.5737144562e+01   4.1099684217e+01    0.5651004    0.3427869  15.07  0.001971283    3.058    0.673
        85  -9.7769    177.8090    243.6340   8.8306090177e+01  -1.9656637823e+00    0.2410714    0.1863765  50.38  0.001427399    1.669    0.401
        86  -8.0350    222.7455    243.7472   7.9465794526e+01  -8.1738252048e+00    0.1825497   0.08638044  39.94 0.0008995173    2.440    0.590
        87 -10.2273     12.2318     45.4235   9.6508616086e+01   6.6469355557e+01    0.8648159    0.3606126  -0.62  0.002478135    3.193    0.687
        88  -7.9922    246.9824    236.3280   7.3813675895e+01  -1.0143139981e+01    0.1660174   0.08766592  48.01 0.0003222559    4.420    0.774
        89 -10.1198     36.8501     80.9195   9.5725391226e+01   5.6875108575e+01     0.738589    0.3536914 -19.02  0.002770399    3.297    0.697
        90 -10.0513      7.4490     28.0330   9.2939952083e+01   7.0035934551e+01    0.4431753    0.2409323  24.63  0.002611105    2.005    0.501
        91  -9.3553     30.7206    110.2097   1.0451283191e+02   5.0416366475e+01     0.400861    0.1829749 -47.56  0.001764337    1.915    0.478
        92  -8.1381    149.7432    109.6080   6.7030537988e+01   3.0528573813e+01      0.28486       0.1336 -43.24 0.0007011432    2.091    0.522
        93  -9.9275     27.5465    122.8554   1.0774990260e+02   4.7503046693e+01    0.5977223    0.3149206  71.58  0.002304086    3.004    0.667
        94 -10.8308     44.5704    102.1909   9.7932938776e+01   5.1043877813e+01    0.8532777    0.4967764  63.83  0.002940113    3.045    0.672
        95  -8.8286     39.9671    106.6489   1.0055373935e+02   5.0430254731e+01     0.281001    0.1900314 -69.02  0.000893002    1.468    0.319
        96  -9.5421    149.5039    103.1842   6.5355202061e+01   3.1921623740e+01    0.4601088    0.3082911 -58.09  0.001088612    1.744    0.427
        97  -9.4321      6.3444    103.4605   1.1188344475e+02   5.3794429419e+01    0.3730133    0.2446579  62.02  0.001242095    1.928    0.481
        98  -8.0898    166.0303    103.8363   6.1719780270e+01   2.8038486813e+01    0.2632494    0.2107579 -46.03 0.0005528814    1.221    0.181
        99  -8.0848     74.0195    102.8626   8.7625349937e+01   4.6996938912e+01    0.2209063    0.1998938  82.00  0.000487238    1.333    0.250
       100  -8.4369    159.0552    101.0452   6.2533424895e+01   3.0183130365e+01    0.2378601    0.2199688 -66.84 0.0005262079    1.128    0.114
       101  -8.9594    237.9841    116.5216   5.1758420349e+01   1.0643490723e+01    0.1843049    0.1364252  51.15  0.001029758    1.584    0.369
       102  -8.9465    186.4993     99.1471   5.6321646079e+01   2.4318821657e+01    0.3576733     0.258973 -23.45  0.001199107    1.589    0.371
       103  -8.8900     96.3866     90.3939   7.6598824846e+01   4.5956926389e+01    0.8466698    0.4880996  -5.00  0.002487499    4.496    0.778
       104  -9.4534     94.3049     97.0200   7.9211638801e+01   4.4890952021e+01    0.3569662    0.2978857 -88.53 0.0006892902    1.603    0.376
       105  -9.3256     90.3779     93.9628   7.9614995262e+01   4.6295215333e+01    0.2459081    0.2326128 -22.57  0.000417903    1.025    0.024
       106  -9.7765    243.4474     96.5261   4.6698693611e+01   1.2997564723e+01    0.2467369    0.2111139 -47.24  0.001548815    1.025    0.024
       107  -8.3859    150.9714     95.9220   6.3006173756e+01   3.3055225816e+01    0.4619583    0.2622215  20.36  0.001424732    3.842    0.740
       108  -8.5123    164.4223     93.9282   5.9423145032e+01   3.0339688481e+01    0.2714936    0.2254113 -58.53  0.000821125    1.258    0.205
       109  -9.4071    138.6090     92.3659   6.5027545307e+01   3.6590551742e+01    0.4103381     0.326314 -61.12 0.0007577254    1.427    0.299
       110  -9.3793    140.2511     83.2659   6.1974620954e+01   3.7981871309e+01    0.7844796    0.3268068 -35.18   0.00211496    2.605    0.616
       111  -8.9867    157.5666     90.9006   6.0098677550e+01   3.2507639954e+01    0.3742839    0.2615065 -39.37  0.001452204    1.420    0.296
       112 -10.0989      4.5967     89.2991   1.1025183738e+02   5.7286352564e+01    0.6303353    0.3116458 -88.02  0.002427189    2.728    0.633
       113  -9.4353      5.9429     79.0583   1.0785140269e+02   5.9610201675e+01    0.7390893     0.226903 -31.02  0.002649197    4.042    0.753
       114  -8.2521     47.5032     90.4302   9.4014613946e+01   5.3530323136e+01    0.3166289    0.1738667  35.51  0.001457089    2.013    0.503
       115  -8.7138    150.3717     88.6380   6.1105403142e+01   3.4612558862e+01    0.2844425    0.2301821 -46.50 0.0009507013    1.242    0.195
       116  -7.5299    174.6135     88.2517   5.5799342989e+01   2.9037621028e+01    0.2116916    0.1419299 -29.23 0.0009503069    1.631    0.387
       117  -8.8812    162.8259     87.2191   5.7936256108e+01   3.1972886134e+01    0.2729774    0.2590953  76.11 0.0005220227    1.067    0.063
       118  -9.9352     81.5751     72.1181   7.5852383825e+01   5.2483710599e+01    0.5393838    0.3584755 -60.67  0.001011858    2.097    0.523
       119  -9.0386     83.7927     64.4616   7.2488377223e+01   5.3543689745e+01    0.5845819    0.4111592  17.27  0.002697297    1.561    0.359
       120 -10.1108     85.4148     86.4602   7.9057402624e+01   4.8831921810e+01    0.4470716    0.3598056 -86.24 0.0008364503    1.821    0.451
       121  -9.7521     87.3751     78.8895   7.6039168546e+01   5.0068428545e+01    0.7727581    0.4037449  23.16  0.002876066    2.657    0.624
       122 -10.1349     48.0417     84.2013   9.2160743524e+01   5.4904978913e+01     0.599153    0.4546639 -87.70  0.001757186    1.944    0.485
       123  -9.1483     48.3630     77.3105   9.0093250027e+01   5.6407730485e+01    0.6831152    0.3329206   6.08  0.002473564    3.505    0.715
       124  -9.5549      6.9111     32.3055   9.4831822159e+01   6.9308063708e+01    0.2982987    0.1837692 -15.09 0.0007842625    1.445    0.308
       125 -10.2273    103.9835     82.4877   7.1779914168e+01   4.6108556417e+01    0.5280175    0.3234721 -52.80 0.0008553852    1.879    0.468
       126  -9.9048    104.8060     72.1733   6.8237433022e+01   4.7947634537e+01    0.9026877    0.5042325 -25.46  0.003257618    2.239    0.553
       127  -8.3295    157.7440     62.9046   5.2133733000e+01   3.7369260806e+01    0.4371219    0.1732443 -40.30  0.001628187    2.508    0.601
       128  -8.3983    156.5381     70.0447   5.4432568726e+01   3.6494069687e+01    0.4435218    0.1774514 -34.78  0.001156438    2.623    0.619
       129  -8.8161    158.1046     81.9355   5.7479987424e+01   3.4048575530e+01    0.5614826    0.2695601 -29.27  0.002004252    2.576    0.612
       130  -8.3807    156.7466     75.9870   5.6088266822e+01   3.5427657862e+01     0.391074    0.2327034 -35.03  0.001658047    1.735    0.424
       131  -7.9497    170.4218     83.2379   5.5286579742e+01   3.0918228179e+01    0.2187575    0.1338094 -49.10   0.00095096    1.670    0.401
       132  -8.9716    149.9446     79.8007   5.8677242931e+01   3.6357827198e+01    0.4824303     0.205575 -39.95  0.001348575    2.339    0.573
       133  -9.4722    115.2622     71.8115   6.5045836450e+01   4.5770682567e+01    0.6313201    0.4086469 -20.72   0.00222633    1.899    0.473
       134  -8.7236    119.0105     80.3835   6.6687669973e+01   4.3337701478e+01    0.3323835    0.2330549 -50.60 0.0005692595    1.562    0.360
       135  -8.7791    119.9162     75.6459   6.4959378756e+01   4.4035844225e+01    0.3218495    0.2553904  30.64 0.0006657772    1.292    0.226
       136  -9.0948     74.2325     80.2013   8.1071837233e+01   5.2083947780e+01    0.3836483    0.2461331 -60.28  0.000867329    1.977    0.494
       137  -8.5222     75.0101     74.7483   7.9063246554e+01   5.3092310923e+01    0.3317473    0.2012496   7.28  0.001345768    2.430    0.589
       138  -8.8090    166.3888     78.8919   5.4907303357e+01   3.2635540492e+01     0.308408     0.184991 -23.33  0.001264712    2.152    0.535
       139  -8.1871    184.1875     78.0232   5.1322594561e+01   2.8615508852e+01    0.2446547    0.2080117  57.27  0.000581617    1.206    0.171
       140  -7.3338    174.4490     78.5347   5.3237372828e+01   3.0799534240e+01    0.1492734    0.1362343 -72.35 0.0008058114    1.091    0.084
       141  -8.7429    139.7930     74.9426   5.9615383137e+01   3.9616021347e+01    0.4287668    0.2017272 -43.32   0.00110725    2.185    0.542
       142  -9.4538    127.4097     75.0447   6.2753131382e+01   4.2460424322e+01    0.4157453     0.279203 -55.37 0.0008573478    1.782    0.439
       143  -9.0606    130.5225     66.3502   5.9246140620e+01   4.3274233335e+01    0.6615806    0.3724595 -28.52  0.002593623    2.022    0.506
       144  -7.9747    163.0051     73.0960   5.3977550566e+01   3.4437302155e+01    0.2784781    0.1767825 -62.01 0.0007648973    1.982    0.495
       145  -9.1136     53.5760     38.8210   7.4464818956e+01   6.3063870913e+01    0.2262594    0.2170584 -74.32 0.0009744467    1.589    0.371
       146 -10.6193     55.2032     70.8825   8.5395644165e+01   5.6904534635e+01    0.7019876    0.3956294  43.93  0.001429082    2.204    0.546
       147 -10.5581     60.7264     61.1060   7.9929287515e+01   5.8070303006e+01     1.247475     0.425334  28.23  0.003500613    3.707    0.730
       148  -9.9388     50.2039     54.5038   8.1930152950e+01   6.0829361688e+01    0.4847153    0.3448834 -63.02  0.001532815    2.106    0.525
       149  -9.7355     55.7325     43.4849   7.5428868971e+01   6.1978548053e+01    0.9612492    0.4927886   1.14  0.003184414    4.558    0.781
       150  -7.5972    175.4839     72.4753   5.1417820967e+01   3.1582056016e+01    0.1453217    0.1369126 -76.91  0.000312234    1.020    0.020
       151  -8.5986    169.4252     70.7004   5.2061579100e+01   3.3311185220e+01    0.3501016    0.1500416 -32.96 0.0009857573    2.528    0.604
       152  -8.5683    170.8981     65.3108   5.0309469332e+01   3.3835134377e+01    0.3249049    0.1909463 -37.38   0.00101803    1.709    0.415
       153  -9.2130    147.0504     69.1595   5.6212785750e+01   3.8905787075e+01    0.4066319    0.2535802 -56.76  0.001017166    1.961    0.490
       154  -8.0651    147.0081     63.8118   5.4629704858e+01   3.9799642451e+01    0.4245854     0.204768  32.33  0.001370689    3.636    0.725
       155  -9.7343     94.7976     68.1181   7.0040393121e+01   5.0747175579e+01    0.4449514    0.2634611 -46.01 0.0008239036    1.816    0.449
       156  -8.4908     95.7444     60.6595   6.7186037394e+01   5.1893742245e+01    0.4881741    0.2845226  -6.21  0.001780511    3.139    0.681
       157  -8.8515     98.8215     56.4028   6.4733956724e+01   5.1978275536e+01     0.398418     0.273937  26.26  0.001933241    1.546    0.353
       158  -8.7059    138.1366     66.2746   5.7379852568e+01   4.1503223704e+01     0.480939    0.2288222 -47.93  0.000674166    2.413    0.586
       159  -8.0713    138.6683     61.6815   5.5843762408e+01   4.2130406186e+01      0.34359    0.2412685  70.34  0.001615472    1.624    0.384
       160  -9.0084    121.3064     65.9422   6.1493531540e+01   4.5460329972e+01    0.3312854    0.2559432 -59.55 0.0005816708    1.572    0.364
       161  -8.1637    122.4736     60.8548   5.9538351420e+01   4.6047344502e+01    0.2926698    0.1983757  40.96 0.0007595626    1.441    0.306
       162  -9.3773    109.7881     63.7901   6.3988069928e+01   4.8391426252e+01     0.370404    0.2984687 -62.35 0.0009294251    1.566    0.362
       163  -8.7431    110.5796     58.2475   6.1897106809e+01   4.9148890917e+01    0.3852881     0.281351  12.67  0.001608225    1.655    0.396
       164  -9.7789     73.1881     59.2603   7.4472661636e+01   5.6398542401e+01     0.430496    0.2550609 -50.01 0.0008917474    1.996    0.499
       165  -9.3018     76.0179     50.2893   7.0145387135e+01   5.7455256704e+01    0.6726304    0.3785883  13.40  0.002694742    2.736    0.635
       166  -7.9951    164.6248     60.1826   5.0038101190e+01   3.6140459815e+01    0.1884453    0.1392385 -23.70 0.0005132543    1.559    0.358
       167  -7.7742    152.5094     59.5570   5.2211275217e+01   3.9153471583e+01    0.3020147     0.143011 -35.12  0.001216362    2.185    0.542
       168  -8.5071    146.6743     58.2709   5.3038998712e+01   4.0755573275e+01    0.4884575    0.1927065 -29.66  0.001673566    3.020    0.669
       169  -7.8411    148.0000     52.9771   5.1170556275e+01   4.1234379380e+01    0.3216029    0.1353432 -36.78  0.001229881    2.421    0.587
       170  -9.0967    130.1201     56.5092   5.6223974895e+01   4.4965708831e+01     0.613849    0.2300553 -33.67  0.001948883    2.846    0.649
       171  -9.1210     87.9752     56.1123   6.8117281744e+01   5.4223550060e+01    0.8203378    0.3972695 -30.17  0.002545019    2.291    0.563
       172 -10.1937     85.1288     47.8378   6.6038984972e+01   5.6128351470e+01    0.3948801    0.2997496 -58.99  0.001038631    1.889    0.471
       173  -8.6759    141.8727     48.2126   5.0978065894e+01   4.3397033767e+01    0.2739609    0.1934894 -31.05 0.0005285555    1.524    0.344
       174  -8.9696    138.8741     56.6529   5.4241201546e+01   4.2871575333e+01    0.4152013    0.2085519 -44.03 0.0008830054    2.140    0.533
       175  -8.2271    139.4699     51.4944   5.2506420224e+01   4.3502256968e+01    0.2610944    0.2153105  35.10 0.0008125217    1.260    0.207
       176  -9.4593    118.3254     55.4034   5.8826279899e+01   4.7867590493e+01    0.4792059    0.3076856 -46.47  0.001764725    1.756    0.431
       177  -9.0087    121.1703     46.8462   5.5233459904e+01   4.8492926413e+01     0.449842    0.2656753 -33.83 0.0005851361    1.797    0.443
       178  -8.3309    157.7443     54.5358   4.9717586009e+01   3.8651637559e+01    0.2880797    0.1831253 -17.47  0.001287502    2.091    0.522
       179  -8.7526    162.8342     53.7838   4.8559504839e+01   3.7533455128e+01    0.2807876    0.1865707 -46.90 0.0007774144    1.546    0.353
       180  -8.9860    105.6227     51.7673   6.1078463161e+01   5.1266240693e+01      0.57385    0.2811554 -30.04   0.00180137    2.239    0.553
       181  -8.5930    157.2173     48.5300   4.8075404465e+01   3.9644694360e+01    0.2342949    0.1830305 -62.44 0.0009118707    1.383    0.277
       182  -9.6515    130.5077     46.1140   5.2782266814e+01   4.6406717338e+01    0.7080202    0.3017518 -23.75  0.002405491    3.169    0.684
       183  -9.7739    149.2721     46.0898   4.8848696692e+01   4.1907219190e+01    0.6538112    0.2708524 -47.57  0.002059174    2.862    0.651
       184  -9.4592    153.5412     40.4428   4.6376065658e+01   4.1628296922e+01    0.3687111     0.280119 -14.07  0.001553008    1.614    0.380
       185  -8.1872    153.5143     34.5173   4.4637005782e+01   4.2381847266e+01    0.1928036     0.122582 -44.98 7.241836e-05    1.669    0.401
       186  -9.0229    112.4036     44.8698   5.6795192360e+01   5.0780761451e+01    0.7676322    0.3750564 -18.16  0.002551256    3.032    0.670
       187  -8.5143    161.6530     45.8639   4.6517749926e+01   3.8940478185e+01     0.268489    0.1744449  82.89 0.0007903507    1.780    0.438
       188  -9.6336    194.0115    234.2444   8.3490794588e+01  -2.8245384614e+00    0.3012428    0.2669032  64.17  0.001178122    1.779    0.438
       189  -8.9896     70.7920     25.8989   6.2257519189e+01   6.1958288511e+01    0.5063689    0.2093394  49.78  0.001535941    2.435    0.589
       190  -8.9123    188.2609    233.5277   8.4543319518e+01  -1.8674683674e+00    0.2698211    0.1808102 -51.34  0.001347015    1.979    0.495
       191  -9.9278     76.2470     32.0176   6.2887611829e+01   6.0137753652e+01    0.5329549    0.4012011  61.87  0.002559248    1.766    0.434
       192 -10.3735    214.3048    228.3304   7.8464798161e+01  -4.7839958101e+00    0.2193418    0.1844856  -0.24 0.0002318225    1.103    0.093
       193  -9.4301    182.4005    228.4614   8.4914915648e+01  -1.4743420220e-01    0.3456526    0.2249689  39.68 0.0009528493    1.553    0.356
       194  -9.6767     79.2660     23.7859   5.8477305240e+01   6.0571550246e+01    0.4946608    0.2496799  33.51  0.001238923    1.957    0.489
       195  -9.1442     84.9223     21.6584   5.5825611400e+01   5.9662707768e+01    0.3091598    0.2211719  46.57  0.001189613    1.249    0.199
       196 -10.0542     37.5028     41.5015   8.2739771980e+01   6.4809303500e+01    0.3789427    0.3504809  88.28  0.001817946    1.786    0.440
       197 -10.5446     35.9374     37.9242   8.2065376351e+01   6.5613903346e+01    0.6070411    0.3300128 -10.59 0.0004166036    2.331    0.571
       198  -8.1441    110.0107     26.1514   5.0757437261e+01   5.3691495845e+01    0.3284545     0.152783 -32.53  0.001471595    2.324    0.570
       199  -9.0925    110.3658     33.0949   5.3163416565e+01   5.2797452218e+01    0.3614257     0.258229 -48.06  0.001077154    1.690    0.408
       200  -8.9976    104.8982     40.7762   5.7371688740e+01   5.3026842417e+01    0.3230759    0.2281249 -55.99 0.0009571284    1.914    0.477
       201  -8.7259    105.9991     36.4843   5.5519098384e+01   5.3353331067e+01    0.3678841    0.1999641  31.57  0.001178341    2.128    0.530
       202  -9.3903    139.0376     39.7684   4.8928629505e+01   4.5222065512e+01    0.6165199    0.3330742  77.56  0.002477046    2.562    0.610
       203  -9.7640    139.2512     22.0626   4.3339334842e+01   4.7243176803e+01    0.4421019    0.2909547  57.95  0.002375815    1.326    0.246
       204  -8.3669    136.2857     26.6431   4.5319636392e+01   4.7461567122e+01    0.2737622    0.1741219 -41.73 0.0007805902    1.731    0.422
       205  -8.8814    132.8871     35.8048   4.8927107096e+01   4.7199522695e+01    0.2487185    0.1979762 -39.16 0.0006193517    1.368    0.269
       206 -10.6448    134.0653     30.8785   4.7100954831e+01   4.7511418807e+01    0.2665325    0.2338793  50.84            0    1.057    0.054
       207  -8.2954    122.5006     40.5264   5.2786081647e+01   4.9051600368e+01    0.3359234    0.2281303  22.20  0.001621452    1.812    0.448
       208  -8.5979    122.4274     37.4520   5.1765951407e+01   4.9468403597e+01     0.318816    0.1334428  59.39 0.0005499396    2.303    0.566
       209  -8.7581    118.8969     34.5813   5.1609882751e+01   5.0652930216e+01    0.3162021    0.2125334 -38.64 0.0008232422    1.642    0.391
       210 -10.3002     90.4507     37.9330   6.0556938449e+01   5.6508163859e+01    0.8983642    0.2810608  38.48  0.002909441    3.707    0.730
       211  -7.5896    160.1575     39.5602   4.4973547000e+01   4.0139376419e+01    0.2445676   0.09258897 -34.54 0.0005723137    2.678    0.627
       212  -9.1007    144.4430     36.6261   4.6898783375e+01   4.4317908973e+01    0.3288173    0.2177739 -63.20 0.0006724653    1.879    0.468
       213  -8.9791    103.0179     21.0699   5.0609178313e+01   5.5820287061e+01    0.2668824    0.2500313 -61.37 0.0006908414    1.295    0.228
       214  -9.3816    101.0732     32.1339   5.5254805799e+01   5.4992790453e+01    0.5090399    0.2416748 -28.45  0.001522772    2.291    0.563
       215  -7.9654    101.7848     25.8165   5.2702453714e+01   5.5580279875e+01     0.322429    0.1869187  30.34  0.001540144    1.882    0.469
       216 -10.1427     34.4989     90.3383   9.8984209211e+01   5.4917288625e+01    0.5588201    0.3101959 -77.87  0.001908463    2.585    0.613
       217  -9.0073    183.7606    224.0360   8.3883251880e+01   4.0077727103e-01    0.2348706    0.2016025  21.98 0.0004154762    1.126    0.112
       218  -9.3858     60.3019     33.5468   6.9491764094e+01   6.2791656617e+01    0.3742985    0.2643665 -37.15  0.001307631    1.554    0.357
       219  -8.7024     62.2859     26.7107   6.5780918566e+01   6.3395361800e+01    0.4413852    0.2024027  32.91  0.002017406    2.124    0.529
       220  -7.3316     73.4832    224.5127   1.0856078404e+02   1.7248445469e+01    0.1296358    0.1148337  59.93  0.000810137    1.030    0.029
       221  -7.9374    104.5339    222.0132   1.0121222492e+02   1.3305668743e+01    0.1851548     0.134922 -64.74 0.0003650503    1.515    0.340
       222  -8.6071    227.2800     33.5160   3.4985826248e+01   2.5508795544e+01    0.2022083    0.1820845 -42.38 0.0005011259    1.291    0.226
       223  -8.2577    184.1546    219.0748   8.2944418163e+01   1.2023647517e+00     0.200226    0.1711849   3.67 0.0004236234    1.020    0.020
       224  -7.1477      2.3017    217.3263   1.2314086270e+02   2.6770908471e+01    0.1067985   0.08011302 -56.63 0.0005834079    1.640    0.390
       225  -8.8329     45.4090     15.6488   6.7745691196e+01   6.7574473085e+01    0.2264267    0.1697175   3.13 0.0005758552    1.128    0.113
       226 -10.1274     46.2815     29.4518   7.3693707170e+01   6.5583946668e+01    0.4961544    0.2869716 -45.36  0.001368747    2.166    0.538
       227  -8.7308     42.3682     27.8400   7.4769712136e+01   6.6380357932e+01     0.215215    0.1331535   2.72            0    1.724    0.420
       228  -9.4570    152.8679     28.3534   4.2934632470e+01   4.3267058461e+01    0.4215063    0.2606583   4.35  0.001885371    2.696    0.629
       229  -7.8995    239.6561     28.6012   3.2876882867e+01   2.3578721985e+01    0.1821803    0.1341485 -31.49  0.001159021    1.573    0.364
       230  -9.1041     91.4861     26.0125   5.5619043381e+01   5.7795266544e+01    0.3428489    0.2244931 -46.30 0.0007861243    1.983    0.496
       231  -8.3349     92.0472     20.9702   5.3473712042e+01   5.8236076690e+01    0.3280362    0.1938362  25.12  0.001184626    1.885    0.469
       232  -8.7784    128.4265     25.7927   4.6571905013e+01   4.9433361758e+01    0.2975042    0.2093011 -55.59 0.0009213466    1.716    0.417
       233  -7.9190    118.8902     26.9490   4.8980090898e+01   5.1552919770e+01    0.2162019    0.1711463  34.37  0.001232299    1.241    0.194
       234  -8.9048    144.2614     25.4556   4.3513575083e+01   4.5672080471e+01    0.2251996    0.1853656 -29.36 0.0007023424    1.363    0.266
       235  -9.5503    118.5683     21.3980   4.7131201043e+01   5.2225272450e+01     0.320443    0.2227665  54.58 0.0005606592    1.245    0.197
       236  -8.6110    111.6080     21.0881   4.8561480889e+01   5.3869870909e+01    0.2767099    0.1297898 -24.93  0.001247283    2.405    0.584
       237  -7.2083    211.4665    216.5293   7.6929254822e+01  -2.5093224212e+00    0.1319347    0.1096937  -1.67 7.736158e-05    1.024    0.024
       238 -10.3429    151.1468    213.1517   8.9156897064e+01   7.6493100004e+00    0.2487996    0.2296159 -26.28 0.0003575848    1.140    0.123
       239  -8.4044    103.0300    208.9057   9.9766768963e+01   1.6368916406e+01    0.1997631     0.187134  46.84 0.0003399255    1.024    0.024
       240  -7.3094     62.6659    208.2747   1.0928342563e+02   2.2297525218e+01    0.1403266   0.08791463  61.40            0    1.601    0.375
       241  -9.9316     10.1973    207.3701   1.2095067302e+02   2.8257913141e+01    0.5306322    0.2856461  16.69  0.002778237    2.662    0.624
       242  -8.7502    174.0071    198.9042   8.1482627093e+01   6.6005036333e+00    0.2073872    0.1868287   3.38 0.0003547489    1.004    0.004
       243  -8.8453    191.9357    193.9069   7.6657033287e+01   4.5201755277e+00    0.6721225    0.3648243 -64.67  0.001932224    6.130    0.837
       244  -9.3394     35.4020    196.3361   1.1447691102e+02   2.8325463205e+01    0.2206097    0.2002098 -78.74 0.0007903569    1.163    0.140
       245  -7.8634    159.2959    195.7521   8.4210900500e+01   9.7739513063e+00    0.2106783    0.1840417 -64.78 0.0009930731    1.390    0.280
       246  -7.8096    101.2525    185.5172   9.6632441151e+01   2.2048793028e+01    0.1873329    0.1424807  18.48 0.0004532617    1.503    0.335
       247  -8.9245     37.6092    180.9572   1.1241367108e+02   3.1802348943e+01    0.2130524      0.18787  44.92 0.0003266972    1.215    0.177
       248 -10.4760    101.0048    175.9946   9.5085961274e+01   2.4390510218e+01    0.2083928    0.2025307  72.39            0    1.008    0.008
       249  -8.4076    230.4333    169.1642   6.4157979749e+01   2.6642042538e+00    0.3416729       0.1167 -42.24  0.001292255    2.664    0.625
       250  -7.0935    133.4169    167.6090   8.4999041386e+01   2.0679602325e+01     0.151315    0.1454707   4.57 2.589616e-05    1.030    0.029
       251  -8.5933    133.6370    146.4139   8.0353756696e+01   2.5626604474e+01    0.6446037    0.1561636 -53.95  0.001386961    6.233    0.840
       252  -9.3557    234.7287    146.8939   5.8778124653e+01   5.8879348240e+00    0.2779345    0.1622484  41.99  0.001376996    1.967    0.492
       253  -9.6005    180.4615    145.7529   6.8905832182e+01   1.6283269071e+01    0.2568178    0.2449906  -5.84 0.0002918828    1.037    0.036
       254  -9.4653     66.8311    144.3997   9.9106896606e+01   3.7598546822e+01    0.5385601    0.3390882  57.64  0.002379976    1.926    0.481
       255  -7.9908    185.9193    142.9099   6.7078966697e+01   1.5772477485e+01    0.2308058    0.1942352 -12.90 0.0003877999    1.246    0.198
       256  -8.3825    124.0150    143.0539   8.2167456522e+01   2.8316489498e+01    0.2251684     0.216123 -25.01  0.001164639    1.032    0.031
       257 -10.9205     69.8612    127.2997   9.4796560834e+01   4.1569249557e+01     1.221256    0.6093391 -44.96  0.002457511    1.969    0.492
       258 -10.1873     58.2744    124.3632   9.7944831412e+01   4.3879536072e+01    0.6376006    0.4031275  78.45  0.002339887    2.465    0.594
       259  -8.6018    112.2839    133.7523   8.3287827663e+01   3.2826122106e+01     0.341838     0.260371 -87.81  0.001275161    1.795    0.443
       260  -8.0258     86.9098    134.0000   9.0896596990e+01   3.7258199212e+01    0.3254221    0.1971714  44.44 0.0008602249    1.764    0.433
       261  -8.6361     82.6588    131.0005   9.1550712577e+01   3.8700688323e+01    0.4735329    0.2728668 -75.56  0.001508514    2.546    0.607
       262  -9.7490    134.3626    131.0744   7.6514545022e+01   2.9072930399e+01    0.5778872    0.5200529  12.09  0.002876201    1.175    0.149
       263  -9.8161     98.6463    128.5666   8.6082432522e+01   3.6613190808e+01    0.6795878    0.4267397  69.59  0.002135137    2.750    0.636
