#   1 NUMBER                 Running object number                                     
#   2 MAG_AUTO               Kron-like elliptical aperture magnitude                    [mag]
#   3 X_IMAGE                Object position along x                                    [pixel]
#   4 Y_IMAGE                Object position along y                                    [pixel]
#   5 X_WORLD                Barycenter position along world x axis                     [deg]
#   6 Y_WORLD                Barycenter position along world y axis                     [deg]
#   7 A_WORLD                Profile RMS along major axis (world units)                 [deg]
#   8 B_WORLD                Profile RMS along minor axis (world units)                 [deg]
#   9 THETA_WORLD            Position angle (CCW/world-x)                               [deg]
#  10 FWHM_WORLD             FWHM assuming a gaussian core                              [deg]
#  11 ELONGATION             A_IMAGE/B_IMAGE                                           
#  12 ELLIPTICITY            1 - B_IMAGE/A_IMAGE                                       
         1 -14.9942      9.4076    152.6082   1.4504979460e+02   4.2492166292e+01     8.568541     2.660974 -87.95   0.03324248    3.620    0.724
         2 -13.3094    194.8754     28.9219   6.8628238279e+01   3.3015665475e+01     1.497847     1.346512 -23.60  0.007256255    1.242    0.195
         3 -13.3778    210.6542      9.4158   6.1528642152e+01   3.1206508774e+01      1.29226     1.033038  26.34  0.007339543    1.656    0.396
         4 -11.7382      2.7333     20.8256   1.2469689869e+02   7.1460362521e+01    0.4856847    0.2154643 -57.33  0.002735704    1.955    0.488
         5 -11.8830      2.3504      5.1317   1.1842703581e+02   7.4167015940e+01    0.5816442    0.3695932 -17.65  0.004124219    1.375    0.272
         6 -12.6285      2.7147     34.4325   1.2913517564e+02   6.8907313380e+01     2.905304          nan -55.54  0.006949306    9.464    0.894
         7 -10.9763      2.2737     13.1943   1.2200759308e+02   7.2831396073e+01    0.3520414    0.1646208 -52.44  0.002093183    1.775    0.437
         8 -12.3450      9.5584    206.8678   1.4850161372e+02   3.1091195500e+01    0.6801084    0.3958291  38.72  0.003140023    1.813    0.448
         9 -10.5256    249.3856    249.1907   1.0907727229e+02  -1.0759014689e+01    0.3022254    0.1783938  13.49  0.001960102    1.545    0.353
        10 -10.0376    139.1088    250.1370   1.2838931107e+02   5.9683807952e+00    0.1792516    0.1404215  35.52  0.001233723    1.235    0.190
        11 -10.2125    126.4808    250.2786   1.3067371527e+02   7.9198200843e+00    0.3312611   0.06858203  45.01  0.001220761    3.560    0.719
        12 -10.9759     34.6910    246.2905   1.4627409334e+02   2.1166315019e+01    0.5221335    0.2959476 -69.50  0.003613823    1.954    0.488
        13  -9.7003     29.2777    248.8027   1.4728052213e+02   2.1347455522e+01    0.3055109    0.1107031 -73.06  0.001766764    2.687    0.628
        14 -10.8340     15.3026    249.6523   1.4952588800e+02   2.2708738573e+01    0.3748084   0.09364713  42.89   0.00201614    2.735    0.634
        15 -10.6766      2.5245    248.1940   1.5143187184e+02   2.4240100273e+01    0.2925051    0.1747982 -86.92  0.002298242    1.471    0.320
        16 -10.7500     16.9272    198.2052   1.4665618026e+02   3.2102801720e+01    0.2623084    0.1531241  56.76 0.0005204786    1.409    0.290
        17  -8.7018     50.0931    196.6741   1.4002394227e+02   2.8761384599e+01    0.1601611    0.1265615  65.15 0.0003616855    1.101    0.092
        18 -11.2948      2.4453    193.2647   1.4910226608e+02   3.4437664442e+01    0.4294999    0.1764216 -74.35  0.002480074    2.028    0.507
        19 -12.5638     34.4416    233.7176   1.4561475002e+02   2.3414710615e+01     0.268241    0.2196483  88.38 0.0007738128    1.324    0.245
        20  -9.3519    192.0252    193.2310   1.0993962831e+02   5.7401474037e+00    0.3306995     0.181042 -64.87  0.001088212    5.158    0.806
        21 -13.7305     39.7047    226.4581   1.4425330028e+02   2.4139967455e+01    0.7960194    0.5863615  59.60  0.002641765    1.149    0.130
        22 -11.6971     67.3762    191.0532   1.3588148104e+02   2.7699682138e+01    0.2656837    0.2319085 -74.05 0.0004712325    1.281    0.219
        23  -9.9348    174.0155    222.7744   1.1831629316e+02   4.3114813170e+00    0.3450916    0.2310462  64.28  0.001844441    2.013    0.503
        24 -10.6689     77.5036    178.1123   1.3214696446e+02   2.9060784455e+01    0.2369281    0.2066471 -87.60 0.0004011155    1.109    0.098
        25 -12.9759     64.2072    176.2716   1.3491996476e+02   3.1327588322e+01    0.4664056     0.278402 -48.41   0.00154467    2.142    0.533
        26  -9.0444     98.4971    175.2547   1.2696810385e+02   2.6430189191e+01    0.2191378    0.1579584  65.81 0.0005106211    1.346    0.257
        27 -11.4264     84.5217    169.3661   1.2935079581e+02   2.9951410703e+01    0.5891668    0.4881944 -59.13    0.0020131    1.308    0.235
        28 -10.2262     91.5111    165.9979   1.2720304779e+02   2.9612807307e+01    0.4045172    0.2524588 -70.76  0.001347618    1.627    0.385
        29  -8.3632     92.5623    214.7920   1.3327105251e+02   1.9263413982e+01    0.1562512     0.106711  88.34 0.0002509131    1.524    0.344
        30  -9.9358     97.6914    152.8595   1.2354894765e+02   3.1582985407e+01    0.3272306    0.2985884 -40.99 0.0008889739    1.298    0.229
        31  -9.0253    100.8640    148.3651   1.2194901213e+02   3.2074510222e+01    0.1918334    0.1750942  50.20 0.0005532252    1.143    0.125
        32 -11.7644     86.2684    151.9177   1.2624300438e+02   3.3659846506e+01     0.281039    0.2419942 -49.54 0.0005916777    1.310    0.237
        33 -12.0707     67.3746    143.7457   1.2974698801e+02   3.8352039260e+01    0.6934188     0.435282  67.98   0.00344819    1.779    0.438
        34  -8.4964    152.4888    213.0404   1.2105272357e+02   9.6361321764e+00    0.1604468    0.1315694 -53.08  0.000334478    1.436    0.304
        35  -8.2244    192.2673    144.2909   9.9907959139e+01   1.4292298116e+01    0.1444142    0.1142563   5.47 0.0002544881    1.505    0.336
        36  -9.5359    109.3760    137.6108   1.1767972434e+02   3.3033050585e+01     0.375711     0.271762 -18.31  0.001536001    2.204    0.546
        37 -10.1961     96.6393    134.8373   1.2045081661e+02   3.5942955449e+01    0.2438327    0.2329103  -9.81  0.000471311    1.257    0.205
        38 -10.3525     34.0944    133.0584   1.3695600058e+02   4.4782882704e+01    0.3074852    0.1327993  46.88  0.001453227    2.432    0.589
        39 -10.5552     56.8627    131.0502   1.3052739500e+02   4.2731087391e+01    0.3853998    0.1859481 -79.33  0.001595856    2.476    0.596
        40  -8.9415     90.1305    130.8606   1.2140109736e+02   3.7970189124e+01    0.2142915    0.1749651  80.09 0.0004052377    1.274    0.215
        41  -8.6380     79.0418    131.4859   1.2453734491e+02   3.9573921563e+01    0.1959287     0.134876  44.21  0.000350538    1.505    0.336
        42 -10.5563     21.2274    125.9648   1.3950726791e+02   4.7599960361e+01    0.2217811    0.1426745  63.80 0.0008251572    1.613    0.380
        43  -8.7548    106.6630    124.0383   1.1546946423e+02   3.6668205350e+01    0.1957575     0.176447 -63.37 0.0003628721    1.069    0.065
        44  -9.2971    167.5613    112.8635   9.7517029339e+01   2.6010123256e+01    0.2951492    0.2387068 -89.01 0.0009999332    1.521    0.343
        45  -9.4597    203.1827    111.8149   8.9962561136e+01   1.7821155755e+01    0.2118196     0.179674   4.62 0.0006147119    1.348    0.258
        46  -8.7067     38.6604     94.9365   1.2950906748e+02   5.3279934650e+01    0.1767387    0.1409238 -68.10 0.0003549052    1.089    0.082
        47  -9.3720    157.5921     76.2387   8.9438612239e+01   3.5501590260e+01    0.2159079    0.1523854 -24.65  0.000460282    1.596    0.374
        48  -9.6225     43.0285     67.5707   1.2156125010e+02   5.8971110017e+01    0.2469024    0.1917875  60.48 0.0009375368    1.711    0.416
        49 -10.6301     14.6717     55.1800   1.2944857964e+02   6.4029168915e+01    0.2056165    0.1667561  61.85 0.0006688669    1.649    0.393
        50 -10.4651     21.2431    244.4807   1.4836093586e+02   2.2966920043e+01    0.3102126    0.1054618  57.37  0.001767589    2.132    0.531
        51 -10.3065     11.5922    241.2468   1.4975709822e+02   2.4532876020e+01    0.2269087    0.1842621 -35.59  0.001696397    2.652    0.623
        52 -11.4399     61.0750    199.4280   1.3804171672e+02   2.6795554645e+01    0.2613822    0.2228346 -63.30 0.0005110363    1.448    0.309
        53 -14.1721     95.6405    227.5982   1.3401747587e+02   1.6425792273e+01     8.689694          nan  46.09   0.01781901   11.459    0.913
        54  -9.5840     46.7312    248.9982   1.4444552837e+02   1.9285510006e+01    0.2365434    0.1059726  66.38  0.001390784    1.929    0.482
