#   1 NUMBER                 Running object number                                     
#   2 MAG_AUTO               Kron-like elliptical aperture magnitude                    [mag]
#   3 X_IMAGE                Object position along x                                    [pixel]
#   4 Y_IMAGE                Object position along y                                    [pixel]
#   5 X_WORLD                Barycenter position along world x axis                     [deg]
#   6 Y_WORLD                Barycenter position along world y axis                     [deg]
#   7 A_WORLD                Profile RMS along major axis (world units)                 [deg]
#   8 B_WORLD                Profile RMS along minor axis (world units)                 [deg]
#   9 THETA_WORLD            Position angle (CCW/world-x)                               [deg]
#  10 FWHM_WORLD             FWHM assuming a gaussian core                              [deg]
#  11 ELONGATION             A_IMAGE/B_IMAGE                                           
#  12 ELLIPTICITY            1 - B_IMAGE/A_IMAGE                                       
         1 -15.4645    104.6815    109.3357   1.0587670950e+02   4.0383447496e+01     2.012363     1.649354   3.41   0.01002258    1.450    0.311
         2 -15.0036     66.9403     49.6092   9.9951895814e+01   5.8395243750e+01     2.010456    0.7300328 -33.05  0.007974789    2.997    0.666
         3 -14.8441     86.4283     66.4954   9.9027589684e+01   5.2350806323e+01     1.640282    0.9598506 -12.41  0.006760467    2.669    0.625
         4 -15.3997      6.6532     71.8835   1.2927624332e+02   6.0540003179e+01     1.329717    0.6597747 -51.68  0.004399761    1.502    0.334
         5 -14.8772    101.7178     50.3316   8.9014094869e+01   5.2056547218e+01     1.087243    0.8613173 -26.32  0.001836032    1.313    0.238
         6 -15.3804    119.4121     54.8552   8.5649920857e+01   4.7641705300e+01     1.598007    0.9171417  35.85  0.005580494    1.830    0.454
         7 -15.2376    122.2846     36.9557   7.9199095193e+01   4.9457305231e+01     1.533816     0.626525  42.63   0.00471723    2.385    0.581
         8 -14.7681    111.8832     40.6930   8.3002030084e+01   5.1271779463e+01     1.816572    0.9955255   0.86  0.006788805    3.632    0.725
         9 -12.9222    139.2040     21.4851   7.0797666849e+01   4.7305151776e+01    0.4469813    0.2915153  64.53 0.0005208862    1.355    0.262
        10 -14.6935    166.5728     30.1249   6.8500651706e+01   3.9778693640e+01     1.041141    0.7444871  57.85  0.003303095    1.249    0.200
        11 -14.8685    147.0369     30.5633   7.2011954117e+01   4.4453238407e+01     1.531375    0.6394842  60.37  0.005072545    2.067    0.516
        12 -14.9382    212.4751     41.0679   6.4723682109e+01   2.7307044456e+01     2.117433     1.041321  70.61  0.009823974    1.918    0.479
        13 -13.5359    222.9495     21.4359   5.9271194490e+01   2.7403395554e+01    0.4749529    0.3899781  11.30  0.001491347    2.051    0.512
        14 -14.9719    217.4215     17.1937   5.8926929726e+01   2.9159256362e+01      1.44281    0.9621407  -8.69  0.007469948    2.783    0.641
        15 -13.8663    215.2446      9.5994   5.7534539163e+01   3.0505719086e+01    0.7327647    0.3800131  75.46  0.001775824    1.636    0.389
        16 -13.6063    231.0379      3.3949   5.4904454079e+01   2.7657656301e+01    0.7539484    0.3220856  62.91   0.00247871    2.185    0.542
        17 -14.3086    189.8562     27.0023   6.4317840065e+01   3.4493619346e+01     2.173979    0.6517613 -45.01  0.007807783    3.397    0.706
        18 -14.5016     29.5828     32.3236   1.0829580933e+02   6.5845134173e+01     1.004873    0.7965894  28.04  0.006951499    1.528    0.346
        19 -15.1905     42.5614      8.2542   9.2968076168e+01   6.7362869574e+01     1.485534    0.9442179  -8.75  0.009803083    1.435    0.303
        20 -13.4791      9.2189      3.2526   1.0581049727e+02   7.1708219354e+01    0.5691634    0.4287403  19.87  0.002748024    1.525    0.344
        21 -15.1040      8.3910     29.4669   1.1670111790e+02   6.8111176139e+01    0.8671753    0.6953292  13.93  0.006711925    1.445    0.308
        22 -15.3155     14.7095     19.0666   1.0986665155e+02   6.9168554972e+01     1.104062    0.5691921 -21.14  0.004767806    1.751    0.429
        23 -13.9076     25.2449     14.1466   1.0295622699e+02   6.8806751444e+01    0.5239046    0.3054475  18.73  0.002033543    1.543    0.352
        24 -12.8356    236.5061     29.9657   5.9695219142e+01   2.3319088772e+01    0.7434076    0.2480487 -38.02  0.003180022    2.871    0.652
        25 -13.4894    194.8453     23.4515   6.2833234235e+01   3.3714306215e+01     1.039888    0.3464369 -40.23  0.004292945    2.913    0.657
        26 -13.3951     56.0373     27.5828   9.5766950892e+01   6.3189466625e+01    0.4764982    0.2813154  37.05  0.001538853    1.625    0.385
        27 -15.8552     99.7635     12.9072   7.6523211153e+01   5.6906655132e+01     1.441476     0.666846  52.10  0.003072023    1.775    0.437
        28 -12.2399    202.5755     11.4972   5.9210271115e+01   3.3221335334e+01    0.3477178    0.2365985 -73.49  0.001427434    1.372    0.271
        29 -12.9223    244.4968     14.0108   5.5858205094e+01   2.3566648369e+01    0.3341193    0.2197596 -47.14  0.002109323    1.468    0.319
        30 -11.4792    153.6486      8.0938   6.4520031924e+01   4.5176551704e+01    0.2429695    0.1530049  60.85 0.0004709286    1.301    0.231
        31 -11.6398    250.4318      2.9491   5.3366334456e+01   2.3594231790e+01    0.3115064    0.1050589 -43.66  0.001547321    2.504    0.601
        32 -12.0134     67.6478      3.9332   8.2112191762e+01   6.3835868672e+01    0.2644565    0.1941358   8.51  0.001038372    1.248    0.198
        33 -12.3182    120.7890      4.0924   6.8918780434e+01   5.3111777667e+01    0.2957363    0.1661894  69.48  0.001183494    1.715    0.417
        34 -11.5638     26.5640      3.9591   9.7850555703e+01   6.9854003703e+01    0.2092714    0.1189949  14.54 0.0008812246    1.555    0.357
        35 -11.0706    192.7934      2.8500   5.8293635616e+01   3.6384713418e+01    0.1767562    0.1463846  75.25 0.0004556236    1.127    0.113
        36 -12.4927     80.7694      1.8867   7.7404188544e+01   6.1609321760e+01    0.5502184    0.1325929  51.62  0.002224982    3.054    0.673
        37 -10.9827     62.4801      1.5115   8.2771313499e+01   6.4927555069e+01    0.2139327     0.134534  27.17 0.0006569848    1.311    0.237
        38 -11.4816     59.4698      1.5175   8.3777463672e+01   6.5430083306e+01    0.2335555    0.1369318  29.61  0.001113925    1.403    0.287
        39 -12.8041     98.4095    187.1899   1.2387674078e+02   2.2921053682e+01    0.4839525    0.3958879 -25.67  0.002499192    1.655    0.396
        40 -11.8010    209.4701    249.5039   1.0997568523e+02  -9.0126094715e+00    0.2378494    0.1938051  18.28   0.00154063    1.010    0.010
        41 -14.5078     96.2238    237.1778   1.3128338369e+02   1.2246275266e+01     1.591589     0.756131  58.07  0.005851167    2.193    0.544
        42 -13.1613     54.9406    247.1608   1.4035937893e+02   1.6335881539e+01    0.8144337    0.4621277  29.36  0.004293511    2.448    0.591
        43 -14.0869     27.4240    245.0230   1.4515331824e+02   2.0221673921e+01      1.16183    0.5758061 -88.60  0.006677644    1.828    0.453
        44 -13.9105      9.1981    210.7679   1.4610748279e+02   2.9276091752e+01     1.631994    0.5967541  47.84  0.008393171    2.405    0.584
        45 -13.0542     16.6147    196.2693   1.4353404548e+02   3.1734727294e+01     1.046689     0.241918 -66.82  0.004176476    3.228    0.690
        46 -14.0235     30.2669    168.8794   1.3780072620e+02   3.6701530448e+01    0.7281871    0.4958256 -45.83  0.001202046    1.705    0.413
        47 -13.8972     25.6363    227.7683   1.4425626225e+02   2.3939502034e+01    0.9334857    0.3361093 -65.21  0.004566913    2.542    0.607
        48 -13.5932     20.3497    224.5033   1.4499750266e+02   2.5209107661e+01    0.4918199    0.3932188 -73.44  0.001935399    1.369    0.270
        49 -13.4917     22.5124    181.0880   1.4089392413e+02   3.4615071747e+01    0.6044334    0.4526455 -82.07  0.002449587    1.081    0.075
        50 -14.8375      8.4721    183.4348   1.4414571034e+02   3.5382098568e+01     1.093403    0.9011349  75.10  0.007805377    1.154    0.134
        51 -15.0830     15.5776    175.4728   1.4188558365e+02   3.6570679347e+01     2.431589     1.205089  78.77   0.01122358    2.203    0.546
        52 -11.9412      2.9594    249.9774   1.4955182254e+02   2.1936155858e+01    0.2813361    0.1477773  59.73  0.001874467    1.455    0.313
        53 -14.2374      9.1947    245.6541   1.4830081643e+02   2.2121781627e+01    0.7688013    0.4128072  63.01  0.003146256    1.442    0.307
        54 -12.2015    110.5776    183.0330   1.2021833736e+02   2.1766353907e+01    0.5544016    0.3190491  13.28   0.00172227    4.433    0.774
        55 -12.5635     48.7404    180.8160   1.3486841651e+02   3.1775656865e+01    0.6193479    0.2945712 -60.39  0.002913359    1.892    0.472
        56 -12.6173    198.6811    182.5610   9.9787083590e+01   4.4541125838e+00    0.3309221    0.2971423 -22.48  0.001491769    1.100    0.091
        57 -13.3072    194.9261    177.0019   9.9419517231e+01   6.3050295184e+00    0.5575844    0.4546719 -64.14  0.002105744    1.466    0.318
        58 -11.5139    122.5414    181.7656   1.1706967028e+02   1.9846495018e+01    0.5271782    0.3074289  79.66  0.001766006    3.427    0.708
        59 -13.1076     85.1100    179.9767   1.2596650456e+02   2.6839802697e+01    0.5238144    0.3399399 -87.23  0.002420522    1.800    0.444
        60 -13.5599    123.9051    166.5177   1.1379953805e+02   2.3181286711e+01    0.7856519    0.5231685 -71.16  0.003382188    1.800    0.444
        61 -12.6083    131.4422    173.3512   1.1328361431e+02   2.0088098565e+01    0.4706877    0.4149392  77.08  0.002430504    1.175    0.149
        62 -10.9716    177.4632    167.4831   1.0118776417e+02   1.1881630999e+01    0.1516403    0.1497253  19.03 0.0001229409    1.004    0.004
        63 -12.8172    122.4447    154.8387   1.1175655732e+02   2.6256021632e+01    0.7832345    0.4395531 -45.39  0.003174912    1.840    0.456
        64 -13.2364    234.5560    160.1558   8.8064120050e+01   1.8239559266e+00    0.5987278     0.175661  38.63  0.001799205    4.602    0.783
        65 -10.6660    101.5816    161.2758   1.1850180324e+02   2.8617497823e+01    0.3847488    0.1411348  32.18  0.001191547    3.539    0.717
        66 -12.3587     26.0483    157.2043   1.3743045602e+02   3.9891570011e+01    0.4822113    0.3717867  70.80  0.003008774    1.300    0.231
        67 -12.6452     77.6199    157.2940   1.2408571920e+02   3.3547034204e+01    0.4423686    0.3399709  35.58  0.001204759    1.414    0.293
        68 -13.3430     74.1873    153.4816   1.2432562190e+02   3.4999612621e+01     0.693342    0.6023517  21.37  0.002743376    1.360    0.265
        69 -11.4190    155.1367    157.6131   1.0419532705e+02   1.8822218354e+01    0.3947852    0.2345314  62.42  0.001485197    2.251    0.556
        70 -13.4086    208.4032    154.4222   9.1764757216e+01   8.0864127452e+00    0.7848622    0.5869483  44.53   0.00389124    1.387    0.279
        71 -12.6177    111.5701    155.6918   1.1477194839e+02   2.8149679012e+01    0.6371672    0.3822041  77.61  0.002207789    3.082    0.676
        72 -11.7417     55.6927    155.8440   1.2964692933e+02   3.6954927009e+01    0.4341964    0.2602063 -35.40  0.001870814    2.287    0.563
        73 -12.3972     85.5897    153.4896   1.2125757106e+02   3.3236117632e+01    0.6145132    0.3629771 -44.70   0.00270657    1.807    0.446
        74 -12.2537    103.3681    150.1028   1.1579654343e+02   3.1021817371e+01    0.4468513    0.3555094 -26.61  0.001769266    1.541    0.351
        75 -11.9694      6.3656    148.2911   1.4126007349e+02   4.3627381928e+01    0.4628386     0.275585 -78.47   0.00272058    1.366    0.268
        76 -13.1252    244.1086    146.6941   8.3552992404e+01   2.5078442293e+00    0.4957037    0.2241485 -42.98  0.002097548    1.988    0.497
        77 -12.3773     63.4388    146.6376   1.2603273583e+02   3.8199569495e+01    0.2602743    0.1952827 -87.13  0.001021597    1.413    0.292
        78 -11.2896     44.9065    145.1065   1.3083957110e+02   4.0858466090e+01    0.2054534    0.1750578 -58.36 0.0006129351    1.113    0.102
        79 -11.1869    149.4714    141.0475   1.0178375031e+02   2.3821262069e+01    0.3804318    0.2339347  62.51  0.001467069    2.072    0.517
        80 -13.3699     42.7300    139.7611   1.3058285064e+02   4.2391475285e+01    0.8007126     0.440025 -64.13  0.003285439    1.561    0.359
        81 -12.2504     46.9992    135.1703   1.2861906670e+02   4.3025599065e+01    0.5476221    0.1883815 -52.10  0.002141688    2.496    0.599
        82 -12.3607     62.2809    134.4693   1.2412229995e+02   4.1321340632e+01    0.4620736    0.4052209  71.47  0.001463579    1.227    0.185
        83 -13.1352    246.7244    133.3528   8.0292132211e+01   4.4351734011e+00    0.5891684    0.4393058 -50.89  0.002660087    1.263    0.208
        84 -14.7537    229.9344    129.6508   8.2258471892e+01   8.4440997601e+00     1.374665     1.028459  66.89  0.007031963    1.570    0.363
        85 -13.6280    121.2084    101.9656   9.9204249143e+01   3.8652246361e+01    0.9476465    0.4599373  44.24  0.001140698    2.054    0.513
        86 -14.8331    105.4418    123.5011   1.0923672435e+02   3.7008356694e+01     1.877574     1.265513  35.43  0.008543829    1.565    0.361
        87 -14.6714    169.9128    241.7997   1.1664680401e+02  -1.2325523714e+00     1.309113    0.9055489  33.72  0.007267957    1.272    0.214
        88 -13.1209    137.0189     96.0888   9.3376414681e+01   3.6389158770e+01    0.5654069    0.4378071 -44.68  0.002304952    1.317    0.241
        89 -12.9212    135.7535    103.2251   9.5662652690e+01   3.5213986382e+01    0.7824652     0.396973  48.65  0.002025879    1.965    0.491
        90 -11.4161    138.0253    132.6859   1.0265963840e+02   2.8230648147e+01    0.2872519    0.2261817 -16.19 0.0009331504    1.623    0.384
        91 -11.9626    132.8653    129.1103   1.0312318630e+02   3.0160845277e+01    0.9532357    0.3258964 -43.63  0.002932462    3.030    0.670
        92 -12.0168     60.0151    125.6183   1.2304391464e+02   4.3747043664e+01    0.5712659    0.3296309 -29.04  0.002447618    2.427    0.588
        93 -14.1455     27.9798    124.1562   1.3222578883e+02   4.7555131201e+01      2.07903    0.3206959 -49.27  0.005992678    5.305    0.811
        94 -13.0387      5.1352    118.8970   1.3799037291e+02   5.0468856215e+01    0.7047855    0.4459759 -30.21   0.00423802    1.849    0.459
        95 -13.3854     62.1878    102.1798   1.1716129770e+02   4.8896327351e+01     1.302983    0.5330778 -57.39  0.005135358    2.441    0.590
        96 -14.1987     50.1217     98.2083   1.2015272710e+02   5.1275740030e+01     1.689396    0.9282208   0.12  0.007000179    3.100    0.677
        97 -14.1014      2.5513     97.0903   1.3548188627e+02   5.5469123634e+01     1.086861    0.3780023 -68.43  0.004198011    2.434    0.589
        98 -15.1089     17.1667    109.8278   1.3306590301e+02   5.1723819523e+01     1.224116     1.001598  58.36  0.004606558    1.484    0.326
        99 -15.5880     26.2507     94.6344   1.2730468516e+02   5.4412251557e+01     1.837679     1.255017   4.49   0.01089992    1.749    0.428
       100 -10.9632    184.9838    124.0392   8.9512219957e+01   1.9450841015e+01    0.2809538    0.2184435  78.89 0.0007046673    1.543    0.352
       101 -11.8516    180.6794    121.0680   8.9700013519e+01   2.1062547748e+01    0.3909298    0.2356708  52.88  0.001049178    1.691    0.409
       102 -14.7048     88.3625    112.0922   1.1142632690e+02   4.2701183779e+01      2.01622     1.269009  -5.45  0.006592736    2.955    0.662
       103 -10.0825     11.4288    134.4895   1.3833621988e+02   4.6464136176e+01     0.124035   0.09804979 -73.96 0.0001171355    1.035    0.033
       104 -10.3527     72.2892    121.3182   1.1845865962e+02   4.3083841691e+01    0.1454927    0.1049664 -28.77 0.0003332537    1.597    0.374
       105 -11.7657     51.9142    117.2797   1.2379064696e+02   4.6718882159e+01    0.4540219     0.219248 -72.93  0.001758327    2.838    0.648
       106 -10.6528    192.9768    117.4851   8.6276826405e+01   1.8934751059e+01    0.2190258    0.1365411  78.34 0.0008101012    2.525    0.604
       107 -11.4575    199.6437    114.6755   8.4291815603e+01   1.7952884779e+01    0.1554802    0.1225625  10.88 0.0007045539    1.770    0.435
       108 -11.9343    176.8385    111.1281   8.8043389963e+01   2.3999307843e+01    0.4397499    0.3635548 -23.02  0.002128687    1.396    0.283
       109 -12.5967     45.6206    109.9736   1.2423147880e+02   4.9126508824e+01    0.5618939    0.3827006 -42.46  0.003082091    1.355    0.262
       110 -11.0531    194.9312    113.0000   8.4800340669e+01   1.9372116485e+01    0.2540773   0.08724189  51.88 0.0002407099    2.968    0.663
       111 -13.9488     98.2141     93.4996   1.0348546064e+02   4.5014450621e+01     1.194022      0.80692  62.31   0.00531751    2.048    0.512
       112 -13.4880    248.8910     97.4820   7.2331713373e+01   1.0362374322e+01    0.8116704    0.3241306 -41.74  0.003360448    2.199    0.545
       113 -10.8409    162.1107     96.7373   8.7536099386e+01   3.0379375239e+01    0.3683579    0.1293225  49.27  0.001183625    2.768    0.639
       114 -12.2540    127.6727     95.8081   9.5740536283e+01   3.8533983781e+01    0.4560848    0.2501394  59.18  0.001730458    2.291    0.564
       115 -10.7339     76.0396     95.5009   1.1097472572e+02   4.8373444331e+01    0.1991657     0.139153  31.59 0.0004361317    1.508    0.337
       116 -13.6216    188.6344     84.3061   7.8866808326e+01   2.6272234668e+01     1.319462    0.4707471  49.71  0.003747695    2.822    0.646
       117 -13.5683    214.3039     78.1411   7.3035412718e+01   2.1225275897e+01     1.145399    0.7346368  70.87  0.005516658    1.622    0.384
       118 -14.0627    198.0074     70.8239   7.3861956917e+01   2.6305245217e+01     2.214622    0.7307484  46.18  0.006815421    4.006    0.750
       119 -13.1793    164.3031     70.9092   8.0059897905e+01   3.4531970315e+01      1.00675    0.4725185  45.79  0.003695354    2.198    0.545
       120 -14.5707    160.8387     80.7293   8.3483081678e+01   3.3680330605e+01     2.029098     0.885657  36.84  0.006309259    3.599    0.722
       121 -14.2905    170.2943     76.9360   8.0480580029e+01   3.2040964172e+01    0.9520919    0.7599649  43.29  0.003880608    1.312    0.238
       122 -11.8416     90.0574     87.6547   1.0432540781e+02   4.7694680758e+01    0.4770088    0.2552958  46.27  0.002050608    2.044    0.511
       123 -12.8700    129.7874     85.7940   9.2330330448e+01   4.0037115345e+01    0.9372794    0.4021156  48.15  0.003451166    2.268    0.559
       124 -13.3271    134.8958     79.5178   8.9198185954e+01   4.0048415938e+01    0.9231635    0.4238687  51.87  0.003146132    2.140    0.533
       125 -13.7832    238.3541     81.6108   7.0361909275e+01   1.5250421787e+01    0.9936121    0.5620815  80.46  0.004440461    2.289    0.563
       126 -11.7552    235.7368    248.5782   1.0483749158e+02  -1.2819793077e+01    0.2384396    0.1003465  31.98  0.001148537    2.151    0.535
       127 -12.8861    100.3346     64.4101   9.4044080023e+01   5.0106969315e+01    0.5214798    0.4256894  -0.47  0.002150453    1.290    0.225
       128 -14.2960     39.0806     67.8470   1.1612308117e+02   5.8771465887e+01     2.555795    0.5039281  25.29  0.007234439    7.160    0.860
       129 -14.5044     51.1325     68.6222   1.1189018919e+02   5.7262749517e+01     1.206662    0.6481321 -55.32  0.005841075    2.112    0.527
       130 -14.2033     75.1034     74.1161   1.0514901429e+02   5.2856935729e+01     1.173715    0.6395517  22.52  0.005172995    2.253    0.556
       131 -11.8517     41.2610    249.8748   1.4305610707e+02   1.7585067863e+01    0.2334603    0.1484296 -89.42   0.00149792    1.382    0.276
       132 -13.6430     56.5224     78.7826   1.1292219210e+02   5.4604439559e+01    0.6582662    0.3625832 -29.77  0.001306764    1.981    0.495
       133 -14.0195     60.8771     75.7005   1.1050764079e+02   5.4641382661e+01    0.7430635    0.4046119 -41.45  0.000767621    1.674    0.403
       134 -12.0467    113.8154     80.4760   9.5108595243e+01   4.4504624295e+01     0.417408    0.3750878 -28.75  0.001445579    1.125    0.111
       135 -12.0553     90.7746     80.3220   1.0194041768e+02   4.9020826741e+01    0.4087333    0.3248653 -12.84  0.001642072    1.342    0.255
       136 -13.2164    147.3383    238.8610   1.2087779497e+02   3.2365039996e+00    0.6062398    0.4085878  81.02  0.002611217    2.327    0.570
       137 -11.3497     98.4270     84.0487   1.0068770402e+02   4.6884602720e+01    0.2611933    0.2017565  57.16  0.000612349    1.529    0.346
       138 -12.3200     41.9610     77.2403   1.1767690027e+02   5.6617651729e+01    0.3373378    0.2419026 -45.85 0.0009352666    1.221    0.181
       139 -13.8934      5.2060     64.0576   1.2803466072e+02   6.2170629493e+01    0.4791062    0.3907642   7.42  0.002874001    1.417    0.294
       140 -12.6456    241.8187     71.8121   6.7809908238e+01   1.6101188801e+01    0.5484126    0.3142611 -76.53  0.002495147    2.224    0.550
       141 -13.6655    134.1462     67.1085   8.5717533374e+01   4.2377231916e+01     1.218464    0.7218518  41.40  0.005224546    1.682    0.406
       142 -12.8772    144.8162    231.5885   1.2032070846e+02   5.0456471894e+00    0.4157307    0.2063242 -47.84  0.001870354    2.303    0.566
       143 -13.3503    236.6759    230.5160   1.0151092545e+02  -1.0399963855e+01    0.5247775    0.4830632 -46.95  0.003518406    1.530    0.346
       144 -12.4199    160.4730    230.3529   1.1680311108e+02   2.4701716104e+00    0.2672391    0.2304287   7.11  0.001262054    1.293    0.227
       145 -12.4813     45.5385    208.6504   1.3868133224e+02   2.5720840380e+01    0.4440525    0.2212549  87.22  0.002064625    2.246    0.555
       146 -11.2431    158.0413     63.5738   7.9309576539e+01   3.7255177862e+01    0.2872728     0.201138 -56.75  0.001370502    1.619    0.382
       147 -13.9503     79.5880     60.0407   9.9158517906e+01   5.4647801693e+01    0.9007161    0.5664955 -12.81  0.004308858    2.001    0.500
       148 -12.0678     86.1132     49.7989   9.3564312303e+01   5.5137486481e+01    0.3123401    0.2512681  -2.92 0.0009450236    1.219    0.179
       149 -13.9403    178.1464     57.5598   7.3850781852e+01   3.3246854341e+01    0.7764505    0.6131755 -71.46  0.002433765    1.331    0.249
       150 -12.9843     39.4361     60.4011   1.1377995510e+02   6.0132851336e+01    0.3230819    0.2663899  31.12  0.002014826    1.445    0.308
       151 -13.2882    248.3041     51.9876   6.2951694807e+01   1.7744043111e+01    0.6392444    0.4192884 -42.36  0.003641442    1.483    0.325
       152 -12.1080    230.4140     55.2997   6.5673838048e+01   2.1154705321e+01    0.5223703    0.2536003  70.06   0.00239189    2.080    0.519
       153 -12.4186     24.5121     60.0266   1.1947536529e+02   6.1615371228e+01    0.3147039    0.1936332 -40.16  0.001015122    1.311    0.237
       154 -11.5413      6.1532     50.5715   1.2422611902e+02   6.4660944682e+01    0.2604353    0.1476675 -28.52  0.001214474    1.513    0.339
       155 -10.8458     23.1796     49.9414   1.1701344186e+02   6.3560406530e+01        0.163    0.1434169 -30.16  0.000514659    1.223    0.183
       156 -13.6240    157.1039     44.7477   7.4187506730e+01   4.0244101595e+01     1.036513    0.5251809  40.08  0.004280546    2.352    0.575
       157 -13.0061     52.7439    214.1873   1.3773784640e+02   2.3561158697e+01    0.5392179    0.2657319  63.39  0.002562074    2.103    0.525
       158 -13.2180     57.4563    202.6086   1.3548376773e+02   2.5546216388e+01    0.9637606    0.3353762 -69.32  0.003818466    2.799    0.643
       159 -13.7449     67.7315    222.7233   1.3552357563e+02   1.9625657770e+01     0.739881    0.6720386  27.24  0.004793421    1.478    0.323
       160 -14.2383     62.8614    214.8784   1.3569091867e+02   2.2035498933e+01    0.8418062    0.6436253  80.20  0.004348204    1.136    0.119
       161 -10.7832    136.6618    237.3144   1.2288796770e+02   5.3978235493e+00    0.1408531   0.09588961  66.01 0.0005678569    1.697    0.411
       162 -14.3629     97.6075    217.3641   1.2850214686e+02   1.6181239259e+01    0.8103707    0.6439211  34.13  0.004576635    1.391    0.281
       163 -11.2690    163.4999    225.4869   1.1536646130e+02   2.8286623472e+00    0.2329999    0.1291919 -35.80  0.001032308    2.259    0.557
       164 -11.4661    204.6238    217.7917   1.0542858042e+02  -3.1644143324e+00    0.1815584    0.1281433 -49.55 0.0008650512    1.685    0.406
       165 -12.5694    180.9054    216.3478   1.1008343416e+02   1.3484534204e+00    0.3706794    0.2342227 -27.27  0.001737371    1.959    0.489
       166 -13.3617      9.0964     42.7770   1.2073021848e+02   6.5863119075e+01    0.7561166    0.5167298  31.24  0.005148111    1.894    0.472
       167 -13.2584    185.4253    210.8986   1.0813521568e+02   1.5299483629e+00    0.9227268     0.266749 -42.13  0.003010903    3.770    0.735
       168 -11.9642     85.4229    215.9281   1.3097471785e+02   1.8455668153e+01    0.3428427    0.2037244  48.55  0.001735862    1.517    0.341
       169 -10.6972    154.4819    214.9673   1.1555324188e+02   6.5301047021e+00    0.1914815    0.1273408 -81.98 0.0008095379    2.488    0.598
       170 -11.6536    157.5703    213.3515   1.1459739918e+02   6.2740982925e+00     0.248261    0.1431596 -55.52 0.0008642351    2.013    0.503
       171 -12.1619    141.9235    214.1704   1.1819598119e+02   9.0331687287e+00    0.3950443    0.1435938  47.31  0.001209925    2.668    0.625
       172 -11.8867    136.8336    211.5014   1.1889367120e+02   1.0533206721e+01    0.2712486    0.2125436 -68.42   0.00112054    1.426    0.299
       173 -11.0297    169.4383     42.8890   7.1457640310e+01   3.7474650516e+01    0.2657072    0.1808859  63.27 0.0008082627    1.313    0.238
       174 -11.2988     25.6633     43.0244   1.1374978847e+02   6.4528554715e+01    0.1691323    0.1212068 -31.10 0.0004607855    1.138    0.121
       175 -13.2530     75.8468     37.4173   9.2502686025e+01   5.8727342061e+01    0.4459903    0.2930901  22.27 0.0007837843    1.485    0.327
       176 -12.8228     70.4752     36.6390   9.4036032793e+01   5.9738149767e+01    0.4734796    0.2990976 -10.74  0.000901175    1.743    0.426
       177 -11.1770     39.3230    210.8001   1.4017463359e+02   2.6003425415e+01    0.3732511     0.146116  39.15  0.001579483    2.446    0.591
       178 -12.5308    245.4811     31.5074   5.9149915516e+01   2.1178652124e+01    0.3489209     0.211169 -48.46  0.001611616    1.491    0.329
       179 -13.0155    245.3654     36.7083   6.0188093702e+01   2.0512155887e+01    0.5260568    0.2707114 -72.33  0.002054677    2.101    0.524
       180 -12.9467    241.6799     35.8709   6.0380346075e+01   2.1416304413e+01    0.6161837    0.2798344  63.96  0.002964585    2.115    0.527
       181 -12.7706    232.0756    185.3154   9.3735845049e+01  -2.2861150045e+00    0.4776128    0.3207169  39.67  0.002488742    1.551    0.355
       182 -13.1938     46.2042     34.0492   1.0207046224e+02   6.3668297491e+01    0.5763809    0.3435608 -14.04  0.003255319    1.735    0.424
       183 -11.9133     80.2041    208.5984   1.3119073996e+02   2.0901881271e+01    0.3350091    0.1948359  63.27  0.001598733    1.793    0.442
       184 -12.5581    102.9524     26.9236   8.0646622454e+01   5.4827653094e+01    0.3768238    0.2196284  60.37  0.001892197    1.829    0.453
       185 -12.5043     97.7016     27.2135   8.2155155748e+01   5.5874373972e+01    0.3538134    0.2318297  52.28  0.001626665    1.436    0.304
       186 -11.4367     65.3830     24.4518   9.1151105892e+01   6.2125897592e+01    0.3145475    0.1847888   2.40  0.001646807    2.047    0.512
       187 -11.7903     75.0263     23.4761   8.7528436225e+01   6.0602843019e+01     0.292309    0.1373134  31.97 0.0009707929    2.102    0.524
       188 -10.9334    149.9912    206.6759   1.1512005585e+02   9.0695606283e+00    0.2193015    0.1751917  39.90  0.001146476    1.166    0.142
       189 -11.6783    213.4103    200.9648   1.0047105342e+02  -1.7627704493e+00    0.3417222    0.3067949  74.20  0.001967879    1.496    0.331
       190 -10.6989     80.6031    201.7816   1.3020985916e+02   2.2396120417e+01    0.1956634    0.1221925 -80.74 0.0009450571    1.694    0.410
       191 -11.5751     70.7652     16.8602   8.6331290138e+01   6.2068230247e+01    0.2091836    0.1669748  29.92 0.0004258624    1.105    0.095
       192 -11.7269     45.2832    197.7091   1.3760312782e+02   2.8239894856e+01    0.3977047    0.2589419 -74.48  0.002257026    1.356    0.263
       193 -11.1709     60.0463     15.3275   8.9367840854e+01   6.4014542292e+01    0.1704785    0.1266795  27.02 0.0004134036    1.135    0.119
       194 -12.2975     41.6047    200.8327   1.3872434960e+02   2.7971860394e+01    0.2681287    0.1922262  85.05  0.001440023    1.199    0.166
       195 -12.9376     39.5479    195.2677   1.3859452247e+02   2.9492063616e+01    0.4918922    0.3730966 -86.85  0.002332364    1.102    0.092
       196 -13.4401    164.6365    194.9065   1.0966839233e+02   8.6842272609e+00     0.807211    0.4854585 -66.96  0.003231783    2.496    0.599
       197 -12.9390    179.3777    197.0645   1.0682135409e+02   5.3542563574e+00    0.3490815    0.3136064  82.30  0.001905414    1.336    0.252
       198 -13.4973    202.0771    192.3383   1.0106786505e+02   1.9105106059e+00    0.7941411    0.5767142 -28.74   0.00250518    1.427    0.299
       199 -10.8444    107.5169    193.0367   1.2264313332e+02   1.9970696258e+01    0.2199257    0.1407458 -58.22  0.001029239    1.589    0.371
       200 -10.4757     81.2491    193.3859   1.2890407194e+02   2.4250779358e+01    0.2024808     0.117937  49.28   0.00095346    1.644    0.392
