#   1 NUMBER                 Running object number                                     
#   2 MAG_AUTO               Kron-like elliptical aperture magnitude                    [mag]
#   3 X_IMAGE                Object position along x                                    [pixel]
#   4 Y_IMAGE                Object position along y                                    [pixel]
#   5 X_WORLD                Barycenter position along world x axis                     [deg]
#   6 Y_WORLD                Barycenter position along world y axis                     [deg]
#   7 A_WORLD                Profile RMS along major axis (world units)                 [deg]
#   8 B_WORLD                Profile RMS along minor axis (world units)                 [deg]
#   9 THETA_WORLD            Position angle (CCW/world-x)                               [deg]
#  10 FWHM_WORLD             FWHM assuming a gaussian core                              [deg]
#  11 ELONGATION             A_IMAGE/B_IMAGE                                           
#  12 ELLIPTICITY            1 - B_IMAGE/A_IMAGE                                       
         1 -12.9823    200.6418     27.2030   5.2577188043e+01   3.1001538636e+01    0.7727396    0.5326322 -22.32  0.003778267    1.509    0.337
         2 -12.9036     21.9982     19.8539   1.0028551167e+02   6.9913380467e+01    0.7082406    0.3466617 -27.17  0.003560219    2.356    0.576
         3 -12.8915    217.0139     11.1274   4.6151315330e+01   2.8555360606e+01    0.7289348    0.6401775 -61.68  0.003109508    1.063    0.059
         4 -12.1783    208.8012     20.5060   4.9646587577e+01   2.9651046247e+01    0.4335861    0.2987925  30.32  0.001188007    1.801    0.445
         5 -14.3379    245.3921    236.5425   9.2487671665e+01  -5.7812760582e+00     1.799234    0.7921926 -22.62    0.0105252    2.630    0.620
         6 -11.7643    201.8319    238.1678   9.9668424998e+01   4.3498277200e-01     0.692084     0.509477  48.67  0.004938257    1.446    0.308
         7 -13.1014    164.3714    246.5789   1.0694347963e+02   5.1619959125e+00     1.392583    0.4412646  43.04  0.006802766    2.318    0.569
         8 -11.7830    157.4621    240.3612   1.0739480609e+02   6.9769969771e+00    0.7407591    0.2862012  32.18   0.00328688    3.141    0.682
         9 -12.2455    193.8190    247.3442   1.0217500449e+02   6.5499561331e-01    0.5267897     0.392204 -22.46  0.003978188    1.708    0.415
        10 -13.2255    185.2841    247.0216   1.0353112340e+02   1.9646762424e+00     1.209855    0.7326002   8.63   0.00705025    2.577    0.612
        11 -12.1117    111.3297    249.9050   1.1613939874e+02   1.2496579251e+01    0.8484948    0.1971238  41.39  0.003694997    3.188    0.686
        12 -12.2085    142.9183    249.5625   1.1084802592e+02   7.9940875362e+00    0.4863152     0.282242  41.08  0.002586908    1.291    0.226
        13 -12.8305    136.3485    249.2898   1.1191643881e+02   8.9937436076e+00    0.9488633    0.4795502  25.99  0.004693158    3.234    0.691
        14 -13.4318    120.2340    246.1947   1.1431969433e+02   1.1744974785e+01     0.927677    0.3894584  47.88  0.005022835    1.770    0.435
        15 -12.7205    130.7896    244.8111   1.1240562925e+02   1.0399852350e+01    0.4983599    0.4180145  22.16  0.002878924    1.492    0.330
        16 -10.1738     81.9831    250.4121   1.2100062994e+02   1.6376174504e+01    0.1598022     0.100354  41.07  0.001149398    1.431    0.301
        17  99.0000     25.3276    180.0701   1.2630477294e+02   3.5162721272e+01     4.891696      1.92019 -72.10   0.02696169    2.262    0.558
        18 -12.9723     42.7580    220.3613   1.2561336202e+02   2.5913604919e+01    0.9476853    0.4865307  79.47   0.00611229    1.816    0.449
        19 -13.4580     25.9412    217.4861   1.2833943217e+02   2.8219586303e+01     1.484371    0.6535854  67.87  0.009271305    1.889    0.471
        20  -9.8102     82.3235    225.9092   1.1907797479e+02   2.0090330058e+01    0.1493894    0.1185247  69.27 0.0009257437    1.116    0.104
        21 -14.9576    145.1436    225.2283   1.0776640880e+02   1.0924581762e+01     2.477413     1.262758  41.95   0.01324416    1.537    0.349
        22 -12.3304    224.8950    211.5285   9.1913864283e+01  -2.2057988431e-01    0.5904922     0.339884 -10.85  0.003339007    2.159    0.537
        23 -11.8194    200.0475    205.4491   9.5182847596e+01   4.5662741927e+00    0.6470785    0.3986526 -11.22  0.003516387    2.249    0.555
        24 -11.3978    178.8300    232.2665   1.0274839889e+02   4.6689777918e+00    0.4819677    0.3695198   5.47   0.00317214    1.563    0.360
        25  -9.7141      1.6149    214.5528   1.3228225753e+02   3.1051954252e+01    0.2163897   0.09310422  82.36  0.001415173    1.894    0.472
        26 -11.5889     35.4396    199.9313   1.2565914291e+02   3.0342012774e+01    0.5431479    0.2618487  76.79  0.002782711    1.947    0.486
        27 -12.2736     39.1322    195.3846   1.2466550094e+02   3.0783022767e+01    0.5616341    0.2917149  74.29  0.002909326    1.750    0.429
        28 -10.3870      7.8789    199.7144   1.3063075010e+02   3.3107070683e+01    0.1848072    0.1078887  79.18 0.0008307297    1.301    0.232
        29 -10.6977    165.0856    199.3134   1.0059881276e+02   1.1415390728e+01    0.4654327    0.1411418  42.62  0.001841384    2.743    0.635
        30 -12.5107    221.1220    189.6235   8.8857567238e+01   2.9848098511e+00    0.5784117    0.3285807   5.51  0.002755546    2.558    0.609
        31 -11.8528    193.9485    194.1745   9.4437840660e+01   7.1059033840e+00    0.5197059    0.3682015 -47.74  0.003083186    1.823    0.452
        32 -10.7560     80.0897    194.8687   1.1665962983e+02   2.5784118064e+01    0.3630725    0.2909763  32.50   0.00244565    1.517    0.341
        33  99.0000     22.3068    155.0035   1.2513575268e+02   4.0533049939e+01     3.787237     1.883817  80.43   0.02122248    1.883    0.469
        34 -13.7891    210.9429    180.2945   8.8954763909e+01   5.9805549903e+00     1.442681    0.8314654 -12.02  0.006931531    2.402    0.584
        35 -10.0780     80.9851    167.9842   1.1344611361e+02   3.0887555525e+01    0.2112551    0.1623066  84.36 0.0005194736    1.218    0.179
        36  -9.4022     67.2023    184.1850   1.1818634812e+02   2.9549165758e+01    0.2035449    0.1648465 -29.47   0.00129303    2.059    0.514
        37 -13.0603    197.0813    168.6774   8.9306999186e+01   1.0195787249e+01     0.430402    0.3659339  37.31  0.002626977    1.092    0.085
        38 -12.2409    160.6474    176.7727   9.7844930503e+01   1.5782967474e+01    0.7658644    0.3312641  43.15  0.003357518    2.025    0.506
        39 -10.1204     72.0692    177.9879   1.1653350001e+02   3.0118805769e+01    0.1592699    0.1408024 -41.67 0.0004818103    1.592    0.372
        40 -10.9218      8.8587    175.0475   1.2924646514e+02   3.7669844290e+01    0.3817786    0.1792769 -86.82  0.001939105    1.759    0.431
        41 -14.5170    113.4665    223.4493   1.1327144605e+02   1.6065199765e+01     1.988324     1.490821  59.33   0.01024177    1.124    0.111
        42 -13.6189    145.5767    157.1447   9.7485722699e+01   2.2094247133e+01     1.322824     1.010171  82.88  0.006941343    1.680    0.405
        43 -12.6381     86.1526    179.2694   1.1370859815e+02   2.7890183993e+01    0.9908656     0.696812  82.36    0.0043783    1.428    0.300
        44 -11.0810     88.1419    160.2610   1.1082216215e+02   3.1420142580e+01    0.4117649    0.3103864 -34.07  0.002149563    1.938    0.484
        45 -11.0431     96.6426    227.4233   1.1667182305e+02   1.7879739366e+01    0.3580116    0.2235768  85.99  0.002195696    1.884    0.469
        46 -12.2253     68.3763    164.5166   1.1581849045e+02   3.3344992628e+01    0.3429165    0.2232638 -48.22  0.001038402    1.966    0.491
        47 -11.0385     70.4915    144.9886   1.1282284170e+02   3.7213095611e+01    0.3050308    0.2159595  77.32   0.00102312    1.403    0.287
        48 -11.1659     66.0697    142.0937   1.1349627024e+02   3.8440684558e+01    0.4773835    0.3103025  59.58  0.002431972    1.505    0.335
        49 -11.7295     89.2359    144.1051   1.0814446974e+02   3.4667584325e+01    0.2787692    0.2612489  24.82  0.000470066    1.309    0.236
        50 -12.5420     95.0971    143.1715   1.0657254643e+02   3.3940592528e+01    0.7095054    0.3845694  50.61  0.003379212    1.803    0.445
        51 -12.3591    178.6813    140.2017   8.7089659418e+01   1.8485175444e+01    0.4395877    0.3427185 -11.66  0.002277181    1.503    0.335
        52 -11.6176     84.8744    133.2315   1.0742112681e+02   3.7712330028e+01    0.5683787    0.2295832 -53.08  0.002362009    2.437    0.590
        53 -13.7627     59.6904    242.9656   1.2413903885e+02   2.0271445362e+01     1.574437    0.6722843  53.97  0.009973125    1.705    0.413
        54 -10.7037     98.2666    129.4810   1.0334187957e+02   3.6384589172e+01    0.2674921    0.2230635 -33.72 0.0008033274    1.466    0.318
        55 -16.1368     17.4317    241.7425   1.3077051637e+02   2.5103011387e+01     2.541499      0.62421  48.83   0.01477148    2.404    0.584
        56 -12.5103    193.4593     34.4256   5.5712755747e+01   3.2003077558e+01    0.5158983    0.3241062  42.54  0.001838731    1.742    0.426
        57  -9.7346     94.0084    246.9502   1.1876950951e+02   1.5292323161e+01    0.1322006   0.08558346  49.88 0.0005095686    1.127    0.113
        58 -11.2782      2.2813     22.6851   1.1145843049e+02   7.0754605048e+01    0.4024198   0.06057669 -60.56  0.001454067    4.096    0.756
        59 -12.4388    175.5948    218.1602   1.0141057299e+02   6.9824124773e+00    0.7422065    0.5819517 -12.14   0.00500254    1.606    0.377
        60 -13.8023    113.2031    186.4375   1.0898435659e+02   2.2367296061e+01     1.724994     1.337911  60.68  0.009745119    1.141    0.124
