#   1 NUMBER                 Running object number                                     
#   2 MAG_AUTO               Kron-like elliptical aperture magnitude                    [mag]
#   3 X_IMAGE                Object position along x                                    [pixel]
#   4 Y_IMAGE                Object position along y                                    [pixel]
#   5 X_WORLD                Barycenter position along world x axis                     [deg]
#   6 Y_WORLD                Barycenter position along world y axis                     [deg]
#   7 A_WORLD                Profile RMS along major axis (world units)                 [deg]
#   8 B_WORLD                Profile RMS along minor axis (world units)                 [deg]
#   9 THETA_WORLD            Position angle (CCW/world-x)                               [deg]
#  10 FWHM_WORLD             FWHM assuming a gaussian core                              [deg]
#  11 ELONGATION             A_IMAGE/B_IMAGE                                           
#  12 ELLIPTICITY            1 - B_IMAGE/A_IMAGE                                       
         1 -14.0184    203.4207     19.4884   6.1370540614e+01   3.2416788135e+01     1.806658     1.286557   3.70   0.00914603    2.511    0.602
         2 -13.7847    209.9780     13.5480   5.9350225273e+01   3.1573624483e+01     2.451628     1.243255  35.93  0.001479561    4.717    0.788
         3 -11.4898      2.2069      5.8774   1.0979598967e+02   7.1876484873e+01    0.6094103    0.1052157 -43.65  0.002367905    5.273    0.810
         4 -11.0411    177.4563    249.7274   1.1662879650e+02  -3.6574564586e+00    0.3535416   0.09908773  35.89    0.0012111    3.564    0.719
         5 -12.7482    116.4754    248.0246   1.2850570353e+02   6.8774673735e+00    0.7575386    0.4463828  45.42  0.004049571    1.434    0.302
         6 -13.3101    140.0777    249.1505   1.2396252115e+02   2.7351434476e+00    0.9637064    0.5630994  50.27  0.005056919    1.536    0.349
         7 -12.7881    126.6012    248.0316   1.2649788684e+02   5.1998032813e+00    0.6350602    0.5963557 -87.54  0.004269647    1.190    0.160
         8 -13.8750     53.3150    235.4291   1.3946150814e+02   1.8905112300e+01     1.821927    0.7611325 -78.60  0.008475525    2.538    0.606
         9 -14.8684     91.7450    247.9915   1.3333935742e+02   1.0830013677e+01     4.822375     3.196695  23.03   0.02521014    2.319    0.569
        10 -14.7090      8.3383    241.3777   1.4791017782e+02   2.3022823468e+01     3.050448     1.565935 -64.32   0.01881194    2.071    0.517
        11 -15.9017      7.6050    198.7929   1.4521699088e+02   3.2011954238e+01      8.50178     1.327446 -72.41   0.02140015    4.626    0.784
        12 -14.3426     34.4124    246.7834   1.4381221501e+02   1.9012951080e+01     2.674362     1.809129  16.87    0.0149627    3.051    0.672
        13 -11.3525     43.3929    231.0914   1.4095717963e+02   2.1091788832e+01    0.2606806    0.2335481 -33.50   0.00177975    1.809    0.447
        14 -11.8011     26.3847    203.6290   1.4188920340e+02   2.9048101672e+01    0.2878146    0.1626291  60.18 0.0007622776    1.631    0.387
        15 -10.0518    226.5627    202.0212   9.8648062722e+01  -3.9991804217e+00    0.2866761    0.2150561 -61.93   0.00102347    1.925    0.481
        16 -10.3003    193.0058    194.9967   1.0392601027e+02   3.3190124295e+00    0.6880789    0.3143732 -62.44  0.001611284    7.986    0.875
        17 -11.5075     64.8064    192.1672   1.3240907875e+02   2.6926808930e+01    0.3726335    0.2513164 -45.18  0.001296947    1.859    0.462
        18  -8.6967    181.5113    192.4714   1.0584900619e+02   6.0233371153e+00    0.1447892     0.138292  18.46 4.676507e-05    1.012    0.012
        19 -11.7210     70.0702    185.1424   1.3025240080e+02   2.7843002749e+01    0.3031006    0.2540389 -44.85 0.0004920691    1.442    0.306
        20 -11.0514     79.5921    173.5318   1.2622590887e+02   2.9223761092e+01    0.2537382    0.2320431 -70.52 0.0003796367    1.110    0.099
        21 -13.1940     66.7270    170.8111   1.2897175462e+02   3.1773018065e+01    0.5230891    0.2831241 -44.80  0.001426973    2.211    0.548
        22 -12.1760     86.1306    165.0765   1.2317581347e+02   3.0260262445e+01    0.9371762    0.5729972  58.75  0.001698172    1.841    0.457
        23 -12.9978     67.9188    144.9226   1.2435318681e+02   3.7941081072e+01     1.119146    0.6635782 -87.17  0.003577586    2.347    0.574
        24 -12.3065     57.7653    131.5164   1.2467356072e+02   4.2549786586e+01      1.81189    0.6017472 -71.18  0.003930614    8.476    0.882
        25 -10.8370     67.1479    225.9403   1.3584020244e+02   1.8996283453e+01    0.2091421     0.143044  72.92   0.00071745    1.316    0.240
        26  -9.9585     99.4418    149.4444   1.1675503536e+02   3.1848013220e+01    0.2697984    0.2530552 -74.25 0.0009021598    1.008    0.008
        27 -12.0022     88.0002    148.3921   1.1959117010e+02   3.4044640209e+01    0.3037016    0.2505314 -42.29 0.0005244529    1.286    0.223
        28 -11.2506     38.8933    146.7598   1.3243334934e+02   4.1061750177e+01    0.3143084    0.1831613  50.33  0.001378275    1.924    0.480
        29  -9.2871    102.2334    145.5730   1.1520957585e+02   3.2293276119e+01    0.2610739    0.1743164 -36.36  0.001148006    1.763    0.433
        30 -12.8148     38.7973    224.5529   1.4127171020e+02   2.3042108928e+01    0.3578762    0.3232229 -81.72  0.000751836    1.349    0.259
        31  -9.6344    110.4818    135.4468   1.1077003733e+02   3.3205173968e+01    0.3257163    0.2275433 -13.92  0.001063835    2.293    0.564
        32 -10.5603     97.7772    132.2751   1.1351938530e+02   3.6289706105e+01    0.2883019    0.2338208 -31.74 0.0009735869    1.370    0.270
        33 -15.0825     46.4567    215.0108   1.3890036369e+02   2.4157960196e+01     2.360232     1.717363  52.28   0.01478563    1.309    0.236
        34  -8.8973    116.3177    128.3654   1.0753785304e+02   3.3743659150e+01    0.1609038    0.1226417 -14.84 0.0007039498    1.776    0.437
        35  -9.2943    107.2458    122.7264   1.0864892562e+02   3.6809087193e+01    0.1942441    0.1715872 -18.07 0.0003481418    1.269    0.212
        36 -11.1901    167.9542    112.9569   9.0890404042e+01   2.5851278987e+01    0.3676756    0.3048429 -79.63 0.0006211855    1.357    0.263
        37 -10.9652      1.8458     90.1841   1.3402406743e+02   5.6985176407e+01    0.4480527   0.09202552 -65.00  0.001650919    3.668    0.727
        38 -10.6285      1.9683     80.2677   1.3213832622e+02   5.9063081179e+01    0.2496834    0.1128003 -61.42  0.001001655    1.719    0.418
        39  -9.7729      1.4965     62.0118   1.2838662402e+02   6.2742633394e+01    0.1711017   0.08835267 -56.65 0.0004046745    1.536    0.349
        40  -9.6838    109.1380     42.8153   8.4656853563e+01   5.1561996732e+01    0.1905009    0.1766887  71.51 0.0005090134    1.250    0.200
        41 -10.6148    249.6555    248.8820   1.0291305283e+02  -1.4524702966e+01    0.3817608    0.0961683 -34.26  0.001465669    4.161    0.760
        42 -10.7105    229.6210    249.1179   1.0656270287e+02  -1.1758140880e+01    0.2029974    0.1497841  34.40 0.0005429379    1.326    0.246
        43 -10.7368    189.9391     15.5103   6.1992948361e+01   3.6019956682e+01    0.1889369    0.1668906 -72.14 0.0007305352    1.142    0.124
