#   1 NUMBER                 Running object number                                     
#   2 MAG_AUTO               Kron-like elliptical aperture magnitude                    [mag]
#   3 X_IMAGE                Object position along x                                    [pixel]
#   4 Y_IMAGE                Object position along y                                    [pixel]
#   5 X_WORLD                Barycenter position along world x axis                     [deg]
#   6 Y_WORLD                Barycenter position along world y axis                     [deg]
#   7 A_WORLD                Profile RMS along major axis (world units)                 [deg]
#   8 B_WORLD                Profile RMS along minor axis (world units)                 [deg]
#   9 THETA_WORLD            Position angle (CCW/world-x)                               [deg]
#  10 FWHM_WORLD             FWHM assuming a gaussian core                              [deg]
#  11 ELONGATION             A_IMAGE/B_IMAGE                                           
#  12 ELLIPTICITY            1 - B_IMAGE/A_IMAGE                                       
         1 -10.2961     60.3106     22.0082   6.5900537590e+01   6.4121040354e+01    0.4733939     0.226599 -29.11  0.002349671    2.187    0.543
         2 -12.3790     26.4110     56.3012   9.3442605812e+01   6.3048732233e+01      1.38724    0.9276068  -1.50  0.008060161    1.585    0.369
         3 -11.4649     20.8817     46.4447   9.2874870834e+01   6.5455752176e+01     1.335648    0.3710742 -44.86  0.004295971    2.867    0.651
         4 -10.9498     60.3128     46.3330   7.5648741337e+01   6.0573300645e+01     1.689074    0.8145189 -27.49  0.007273333    2.523    0.604
         5 -12.2343    124.9672     27.5234   4.9649368055e+01   4.9974700590e+01    0.6894639    0.4941156  51.79  0.001402642    1.247    0.198
         6 -12.7212    119.4199     37.9888   5.4326677510e+01   4.9976249574e+01    0.8909669    0.6278061 -68.23  0.003175555    1.935    0.483
         7 -11.3203    145.5350     48.1489   5.1892904885e+01   4.2420124284e+01     1.107076    0.4792217 -27.63   0.00423958    2.894    0.654
         8 -11.2863    154.6940     23.6057   4.3124595432e+01   4.3319374284e+01     1.362594    0.7717674  30.08  0.005969596    2.797    0.642
         9 -10.2821    147.7874     16.2559   4.2065709361e+01   4.5761437025e+01    0.5022369    0.2714303  39.56  0.002362434    2.254    0.556
        10 -11.5841    142.3801     27.5802   4.6323629409e+01   4.5831018763e+01     1.355417    0.6579433  30.14   0.00480635    4.016    0.751
        11 -12.2302    130.9237     14.9153   4.4437353194e+01   4.9913924639e+01     1.313022    0.6394274  64.65  0.006253593    1.781    0.438
        12 -11.6196    165.1861     17.8982   4.0041640901e+01   4.1422215900e+01    0.6140165    0.3557842  31.68  0.002827621    2.704    0.630
        13 -12.1739    159.5255     30.0453   4.4194303216e+01   4.1411393079e+01    0.5012988    0.4461157  79.18  0.001286001    1.012    0.012
        14 -13.2029     42.7699     45.4562   8.2562687424e+01   6.3252284620e+01    0.7999445    0.5488245  44.46 0.0009053294    1.837    0.455
        15 -11.4064    136.6519     22.8066   4.5886710500e+01   4.7737143655e+01    0.8909293    0.3641064  52.60  0.003835123    2.139    0.532
        16 -11.1069      7.4942     34.6183   9.5567420439e+01   6.8692180297e+01     2.269857    0.4584335 -49.00  0.009221988    3.309    0.698
        17 -10.5817     46.9317     19.2218   7.0054850367e+01   6.6658920986e+01    0.3166499     0.244354 -11.35  0.001368986    1.197    0.164
        18 -11.8794     27.2013     28.0565   8.3028368907e+01   6.8020046750e+01    0.5385823    0.4011301   7.91  0.002420111    1.209    0.173
        19 -11.9332     48.5064     12.9429   6.6529551642e+01   6.7178648746e+01    0.6411467     0.285094  43.56  0.002785821    2.101    0.524
        20 -12.1762     20.1602     21.4579   8.3833310501e+01   6.9802428578e+01    0.6272447    0.2403156 -41.11  0.002663459    2.350    0.574
        21 -10.8381     13.1554      8.9618   8.1960212989e+01   7.2333914770e+01    0.2916894    0.2243537   9.35  0.001254434    1.195    0.163
        22 -12.2079     17.1682     12.5905   8.1449392316e+01   7.1416089210e+01    0.5947407    0.3077224 -16.80  0.002454388    2.117    0.528
        23 -12.2836     22.7000     11.7871   7.8097912560e+01   7.0914695137e+01    0.4849596    0.3082756   0.26  0.002199629    1.492    0.330
        24 -11.1063    183.2884     25.4609   3.9693700920e+01   3.6278341585e+01    0.5657431    0.3343413  51.37  0.002669582    1.825    0.452
        25 -11.0224    105.9863     20.4523   5.1443488799e+01   5.5111764628e+01    0.4671929     0.405641 -54.88  0.002276122    1.368    0.269
        26 -12.4596    113.5139     25.5626   5.1487305389e+01   5.2849665715e+01    0.8423627    0.3713475  48.55  0.002912952    1.997    0.499
        27 -12.1133     36.2059     17.7176   7.4170289589e+01   6.8412347642e+01    0.6092886    0.4320761 -33.12  0.002653373    1.470    0.320
        28 -10.5593     86.7634      7.4663   5.1339649472e+01   6.0552620976e+01    0.6121296    0.3064813  59.06  0.002837297    1.822    0.451
        29 -11.0707     90.8031     20.9070   5.5513466071e+01   5.8364600258e+01    0.5740554     0.325175 -29.50  0.002432999    1.932    0.482
        30 -11.1687     85.9401     14.4947   5.4363721838e+01   6.0057410893e+01    0.7283134    0.4185793  17.57  0.002563002    2.263    0.558
        31  -9.5076     78.1247      7.5122   5.3749845412e+01   6.2328041346e+01    0.2278352    0.1846761  73.37 0.0008522287    1.525    0.344
        32 -11.1935     74.9510      3.4392   5.2954915911e+01   6.3325736120e+01    0.6285078    0.2585346  47.50  0.003075888    1.944    0.486
        33 -10.8609    178.7534     21.2000   3.9173638976e+01   3.7835660773e+01    0.5525929    0.2622235  48.19   0.00181455    2.459    0.593
        34 -11.8844     68.2838     18.0491   6.1327621175e+01   6.3161473856e+01    0.4537001    0.3694392  22.13  0.001592317    1.060    0.056
        35 -12.1447    237.8773     15.9980   3.2346623996e+01   2.5322013756e+01     1.088839    0.5036857  77.19  0.005866136    2.045    0.511
        36 -11.3906    227.5471     15.1458   3.2967841156e+01   2.7556992160e+01    0.5307332    0.3400405 -85.21  0.001856411    1.374    0.272
        37 -10.1318    245.7699      1.3543   2.9014380060e+01   2.5362094467e+01    0.3258933    0.1320284  63.29 0.0008623147    2.598    0.615
        38 -10.6461    243.9945     13.0243   3.1330276980e+01   2.4431431253e+01    0.2353347    0.1701296 -84.17 0.0003208119    1.171    0.146
        39 -11.8787    247.3279      6.3520   2.9848891143e+01   2.4517503488e+01    0.5651811     0.458492  80.17  0.003316723    1.340    0.254
        40 -10.8870    218.8414      3.3510   3.1205728275e+01   3.0684039005e+01    0.3035072     0.252305 -44.04  0.001084976    1.358    0.264
        41 -11.0886    223.8472      2.0356   3.0573743967e+01   2.9756834176e+01    0.4785064    0.2120048  85.30   0.00201056    2.105    0.525
        42 -11.3189    232.6009      7.2503   3.1000563525e+01   2.7380669290e+01    0.5872428    0.2614697  81.75  0.003097676    2.096    0.523
        43 -11.1028    232.9209      3.0767   3.0157384516e+01   2.7761045932e+01    0.4652096    0.1989033  88.02 0.0004269869    2.279    0.561
        44 -10.6739    211.3413     18.0038   3.4957465767e+01   3.0726481144e+01    0.3212999    0.1921613 -39.55  0.001763865    1.654    0.395
        45  -8.9807    196.0531     18.7890   3.6630602430e+01   3.4077582422e+01    0.5462173    0.2276248  55.62  0.001885884    2.462    0.594
        46 -11.5309    192.4915      7.8006   3.4410259723e+01   3.6067213220e+01    0.6533577    0.4657286  -0.83  0.002832392    2.289    0.563
        47 -12.1672    104.5681     12.6067   4.8942897638e+01   5.6216743321e+01    0.4631543    0.4429176 -28.97  0.001670632    1.212    0.175
        48 -10.0518      5.1087     12.6424   8.8339211272e+01   7.2526612197e+01    0.2781301    0.1871032  27.42  0.001915207    1.703    0.413
        49  -9.1514      5.2686      9.0516   8.6608398762e+01   7.3047548457e+01    0.1569076   0.09411005 -35.43 0.0005782784    1.434    0.303
        50 -11.3762    211.9507      9.5675   3.3065099203e+01   3.1523272237e+01    0.4400699    0.3267745   1.97  0.001843919    2.343    0.573
        51 -10.2250     65.9587     10.4562   5.8840235297e+01   6.4410296415e+01    0.2676199    0.1874419  47.93 0.0008972163    1.336    0.251
        52  -9.8191     62.5499      6.8319   5.8393169450e+01   6.5400586913e+01    0.2584212    0.1565229  21.49  0.001457629    1.684    0.406
        53  -9.8169    168.8032      9.7791   3.7429880716e+01   4.1391100744e+01    0.3108614    0.1506426  53.63  0.001510079    2.020    0.505
        54  -9.1770    162.9478     10.2977   3.8284829043e+01   4.2730042889e+01    0.1853269    0.1445119  71.80 0.0007044879    1.110    0.099
        55 -10.1620    169.4192      2.4575   3.5459432538e+01   4.1937115938e+01    0.2611211    0.1717768 -74.22 9.644333e-05    1.493    0.330
        56 -10.8381    183.8671      5.3411   3.4668371444e+01   3.8295473672e+01    0.4027985    0.3466018 -31.26  0.002186319    1.415    0.293
        57 -11.1156    177.2977      5.9769   3.5501788862e+01   3.9761888487e+01    0.4542607    0.2043263  81.56 0.0009817968    2.152    0.535
        58  -8.9605    153.9524      6.9947   3.8538607506e+01   4.5183676381e+01    0.2495836    0.1573866 -88.54  0.001339581    1.605    0.377
        59  -9.0419    157.5376      6.9640   3.8064429089e+01   4.4333672805e+01    0.2228925    0.1225764  -0.96 0.0009105168    3.320    0.699
        60  -9.5376    158.0231      2.8313   3.6873235604e+01   4.4592123587e+01     0.313887     0.162054  49.67  0.001583994    1.983    0.496
        61 -10.3516    116.5247      2.9499   4.3110371923e+01   5.4344509293e+01    0.3930635    0.1996787  66.53  0.001982974    1.705    0.414
        62 -10.1458    109.8044      1.6324   4.3920984194e+01   5.5984972791e+01    0.3113885    0.1586846  63.83  0.001312481    1.659    0.397
        63 -11.9094    134.5824      2.8503   4.0066946589e+01   5.0140653063e+01    0.4820823    0.2726157  81.59  0.001714337    1.785    0.440
        64 -10.7158    105.3936      1.8844   4.4887275172e+01   5.6960344089e+01    0.3239403    0.1873769  73.85  0.001157601    1.788    0.441
        65 -10.0248    142.8965      3.5521   3.9060152993e+01   4.8115979150e+01    0.3225119    0.2016242  83.82  0.001759825    1.544    0.352
        66  -9.3749     20.9641      3.5620   7.4925745295e+01   7.2172830507e+01    0.1906803    0.1396148 -11.33  0.001288201    1.150    0.130
        67 -11.2064      2.3820      1.9972   8.4954248038e+01   7.4289211200e+01    0.2771414    0.1580167   0.48  0.001420593    1.633    0.387
        68 -10.2828     11.9113      1.4568   7.8899189055e+01   7.3455576023e+01    0.4532326     0.132981  32.76  0.002131338    3.255    0.693
        69 -10.1908    207.4949      2.5179   3.1905049009e+01   3.3232126225e+01    0.2406994    0.1891559  87.43 0.0008370716    1.104    0.094
        70 -10.3069    204.1864      1.6098   3.1974235683e+01   3.4053287384e+01    0.3047853    0.1504046  65.81  0.001124482    1.847    0.459
        71  -8.7058     64.0000      1.9017   5.5672603623e+01   6.5583499067e+01    0.1644399   0.06568354 -23.16 0.0003926964    2.743    0.635
        72  -9.2490    151.8249      1.3724   3.7239730150e+01   4.6186182444e+01    0.2422024    0.1056791  74.78 0.0007717177    2.047    0.512
        73  -9.2551    122.3758      1.3135   4.1536324734e+01   5.3122728072e+01    0.2588704   0.08790921  61.89 0.0007824206    2.271    0.560
        74 -10.5473     41.5009      4.4237   6.5413796218e+01   6.9227870748e+01    0.3757756    0.2059185  11.79  0.001948702    2.159    0.537
        75 -10.6671     82.2257      1.3224   5.0047924560e+01   6.2019972979e+01    0.1978053   0.09412659  55.28 0.0003449713    1.742    0.426
        76  -9.0556     33.7388      1.4538   6.7408844923e+01   7.0709638244e+01     0.153776   0.08772813  27.09 0.0006828039    1.525    0.344
        77  -9.8875    239.6816    146.6265   5.9253059159e+01   5.0761886924e+00    0.2342955    0.1839066 -30.41 0.0006306607    1.130    0.115
        78 -10.2304    142.9673    249.9793   9.6636001299e+01   2.6845436890e+00    0.2012915    0.1663762  34.09  0.001238517    1.014    0.014
        79  -8.9298    107.6878    145.7203   8.7752609288e+01   3.0904931169e+01    0.2129037    0.1462025 -65.88 0.0002905146    1.591    0.372
        80  -9.7156    104.9138    142.9725   8.7941112234e+01   3.2076229848e+01    0.2269942    0.2141058 -85.02 0.0002985279    1.064    0.060
        81  -8.4371     93.9565    147.0000   9.1846759477e+01   3.3019024090e+01    0.2333413   0.08577023  36.05 0.0003920154    2.772    0.639
        82 -11.0520     33.2085    144.4909   1.0905174676e+02   4.1901015618e+01    0.4353682    0.3211761  40.48  0.001622541    1.450    0.310
        83  -8.8521    234.2840    143.6165   5.9498871413e+01   6.5194801094e+00    0.1359091   0.09816056 -62.43 0.0004656744    1.734    0.423
        84  -8.7114     58.7515    142.6653   1.0126879101e+02   3.9420047261e+01    0.1431448    0.1008963 -40.72 0.0006342216    1.556    0.357
        85  -9.5599    132.9772    140.3237   7.9818828564e+01   2.7287464406e+01    0.2923774    0.2263423 -49.53  0.001082051    1.289    0.224
        86 -10.9048     22.8006    127.1511   1.0975938853e+02   4.7168465289e+01    0.2316323    0.2195233  60.19 0.0002678957    1.174    0.148
        87 -11.4910     23.0917    135.4406   1.1080861895e+02   4.5094565427e+01    0.7951426    0.4718287  38.04  0.004189845    1.821    0.451
        88 -11.8565     30.0257    132.9103   1.0836881368e+02   4.5097635608e+01    0.5055184    0.3420154 -88.14 0.0003428746    1.514    0.340
        89 -10.5328    217.1994    138.4404   6.1270119849e+01   1.0540318316e+01    0.3582081    0.3118808 -87.47  0.001360107    1.412    0.292
        90  -9.4296     70.3343    139.3089   9.7220149517e+01   3.8666725576e+01    0.1492604    0.1105998 -27.33 0.0003978235    1.674    0.403
        91 -10.1934     46.7453    135.3349   1.0364609914e+02   4.2740475498e+01    0.5298377    0.3003244 -78.77  0.001832262    1.939    0.484
        92  -9.9103     79.9611    137.2342   9.3948201269e+01   3.7730105758e+01    0.4506018    0.2886553 -22.29  0.001833033    2.423    0.587
        93  -9.8933    245.1001    134.8038   5.6017109495e+01   6.1695806169e+00      0.19393    0.1632936 -53.72 0.0004286101    1.210    0.173
        94 -10.3778     93.1276    129.7395   8.8449137708e+01   3.7393173901e+01    0.4436654    0.2292672 -65.36  0.001650843    2.385    0.581
        95  -9.8921     39.9382    138.0228   1.0613450543e+02   4.2823710044e+01    0.3135224      0.18115  40.79  0.001527657    1.829    0.453
        96 -10.2810     73.9666    132.5247   9.4802244080e+01   3.9822952392e+01    0.3141475    0.2530162 -16.22  0.001589907    1.525    0.344
        97  -9.9101     61.3105    132.2101   9.8620071999e+01   4.1705147450e+01    0.4550475    0.3269274 -14.64  0.002179287    1.897    0.473
        98  -9.0374     38.4323    133.2861   1.0585736331e+02   4.4168465430e+01    0.2348082     0.152337  55.47 0.0009922617    1.741    0.426
        99 -10.1766    103.8254    131.0038   8.5618070829e+01   3.5165355281e+01    0.2386067    0.2179018  36.73 0.0002649125    1.122    0.109
       100 -10.6721      9.7213    128.0244   1.1387467639e+02   4.7954363793e+01    0.4629779    0.2324456 -56.48  0.001999182    1.691    0.409
       101  -9.9789     80.3423    124.2791   9.1102370031e+01   4.0864898166e+01    0.4998584    0.3566901  41.01  0.002425702    1.450    0.310
       102  -8.8013    223.6523    126.7624   5.7666881163e+01   1.1433983361e+01    0.1990603    0.1136953 -47.59 0.0004739449    1.642    0.391
       103  -9.2274     40.9531    126.4746   1.0395684914e+02   4.5599858967e+01    0.2160704    0.1630629 -65.18 0.0003467799    1.184    0.156
       104  -9.5598     53.4889    125.5068   9.9802557961e+01   4.4388543542e+01    0.3004687      0.13029 -62.07  0.001199901    2.128    0.530
       105  -8.9514     59.8377    123.6351   9.7415637999e+01   4.4035580976e+01    0.2497039    0.1671328  50.76 0.0005081516    1.679    0.405
       106  -9.3956     56.4930    122.1024   9.8181445466e+01   4.4852410437e+01     0.265834    0.1835791 -44.36  0.000840118    1.427    0.299
       107  -9.8886     49.5302    123.1551   1.0062471030e+02   4.5453875619e+01    0.3166603    0.2592328   2.45  0.001057882    1.448    0.309
       108 -10.8308     45.0889    119.5892   1.0139500843e+02   4.6850507035e+01    0.5746475    0.3501582 -87.82  0.002015925    2.155    0.536
       109  -9.7192      2.1185    125.9059   1.1591081589e+02   4.8957798311e+01    0.2303018    0.1696755 -89.90 0.0006984891    1.247    0.198
       110  -9.9077    239.1536    124.8216   5.4843754717e+01   8.9074152602e+00    0.1862678    0.1524056 -17.39  0.001091578    1.345    0.256
       111 -12.3599    103.8667    122.4070   8.3596030928e+01   3.7204381407e+01    0.4652127    0.3961802  14.10 0.0006511769    1.337    0.252
       112  -9.8284     18.9601    122.7319   1.1033132151e+02   4.8567334983e+01    0.2153144     0.161821 -71.56 0.0004677473    1.146    0.127
       113  -8.7325    143.5044    122.4609   7.2918922369e+01   2.9100753792e+01    0.1533233    0.1520059 -77.11  0.000200779    1.004    0.004
       114  -8.5188     41.2865    122.3453   1.0313211855e+02   4.6588740722e+01    0.1447843    0.0932203 -39.31 0.0005132733    1.649    0.394
       115  -9.2827     71.3595    120.8988   9.3173483014e+01   4.3082260759e+01    0.2097251    0.1756284 -52.93 0.0005521692    1.128    0.113
       116  -9.1779    221.4760    120.5127   5.6662350548e+01   1.2969982936e+01    0.1393506    0.1243671 -47.06 9.714053e-05    1.021    0.021
       117  -9.2134    148.2244    120.1697   7.1199265610e+01   2.8574498360e+01    0.2613496    0.1751086  -1.20 0.0009473595    2.822    0.646
       118 -10.5728     33.7662    118.8366   1.0496176887e+02   4.8225280052e+01     0.231619    0.1427078 -47.36 0.0008615271    1.525    0.344
       119  -9.2408     58.1424    118.1902   9.6852903603e+01   4.5601210245e+01    0.2168528    0.1848533 -39.58  0.001200428    1.168    0.144
       120  -9.6913    113.5113    115.8414   7.9206576209e+01   3.6856204883e+01    0.2734908    0.2259043  40.62 0.0006409536    1.224    0.183
       121  -9.8894     79.3862    114.6240   8.9196003682e+01   4.3353822392e+01    0.3984465    0.2815518  89.50  0.001762616    2.028    0.507
       122 -12.9845      3.1583    110.2020   1.1368278660e+02   5.2663966757e+01    0.7613319    0.3742127 -67.77  0.000820876    1.623    0.384
       123  -9.4459     66.9951    114.4814   9.3160130953e+01   4.5284545495e+01     0.338273    0.2062986  59.29  0.001435255    2.247    0.555
       124  -9.9114     66.1249    110.8139   9.2613471030e+01   4.6293453927e+01    0.3802407    0.2604939  28.82  0.001866539    1.571    0.363
       125 -11.9440     49.2519     99.7238   9.5842053791e+01   5.1162244280e+01     1.667337    0.7754132 -44.16  0.007098736    2.064    0.516
       126 -11.5887      9.6854     97.3994   1.0956674756e+02   5.5304421925e+01    0.6199858    0.5281275 -86.94  0.001065503    1.231    0.188
       127 -11.8740      7.0386     88.8664   1.0908581130e+02   5.7442656323e+01    0.5975574    0.4392106  32.41  0.002279232    1.617    0.382
       128 -11.4413     18.7100    106.0494   1.0784298756e+02   5.2632432124e+01    0.4086898    0.2424748 -32.30 0.0001865996    1.866    0.464
       129 -11.4518     26.9695     86.4022   1.0104369714e+02   5.6564795412e+01    0.6113728    0.5504609   1.54  0.001391454    1.207    0.171
       130 -12.2285     34.8765     93.7912   9.9703906660e+01   5.4127975868e+01     1.164446    0.6870177 -30.77  0.005709752    1.879    0.468
       131 -12.1922     42.7537     85.6973   9.4850145361e+01   5.5144535277e+01    0.9481819    0.4277162  22.97  0.001846312    2.530    0.605
       132 -11.7731     22.5356     94.9091   1.0447444575e+02   5.4972731896e+01    0.4658548    0.3710892  -2.54  0.002856276    1.414    0.293
       133 -11.5298     18.3359     90.3799   1.0514540608e+02   5.6349150904e+01    0.4473251    0.2643144 -61.72 0.0007165435    1.444    0.307
       134 -11.9277     25.0048    113.7506   1.0699388270e+02   5.0267887951e+01      1.11593     0.424047  10.88   0.00404326    4.213    0.763
       135 -12.0839     25.2355    107.9505   1.0592792105e+02   5.1652828732e+01     1.214717    0.6296435  -8.90  0.005161594    3.076    0.675
       136  -9.2496    126.9520    113.5024   7.4912209849e+01   3.4612496010e+01    0.2330017    0.1529666  43.47 0.0005182762    1.531    0.347
       137 -10.7592    107.4646    111.8486   7.9925545934e+01   3.8964152683e+01    0.7208005    0.5873372 -81.81  0.003497726    1.487    0.328
       138 -10.5671    101.7973    109.3802   8.0961278677e+01   4.0623091981e+01    0.3924773    0.3407309   1.07  0.001234439    1.311    0.237
       139  -9.8763    103.1541    105.8389   7.9630759945e+01   4.1163920037e+01    0.3247142    0.2284806  31.57 0.0005411037    1.524    0.344
       140  -9.8684     94.3440    112.3648   8.3974592078e+01   4.1321790980e+01    0.3516984    0.2792049 -84.64   0.00169023    1.572    0.364
       141  -9.9209     48.9537    112.3921   9.8700638771e+01   4.8166437925e+01    0.2834911    0.2514059  57.74 0.0009661874    1.251    0.200
       142 -10.6756    170.4560    110.4738   6.3751728324e+01   2.5656908242e+01    0.4544344    0.3939658  -6.89  0.001413784    1.376    0.273
       143 -10.4916    175.1350    107.8536   6.2130638175e+01   2.5126243733e+01    0.3219809    0.2644746 -11.73 0.0008527111    1.507    0.336
       144 -10.0377    132.5053    111.5216   7.2938433908e+01   3.3859650304e+01    0.3445618    0.2033313 -59.01  0.001359718    2.034    0.508
       145  -9.9481    128.9998    109.9911   7.3458195408e+01   3.4945923829e+01    0.2206791    0.2193634  80.80  0.001187895    1.004    0.004
       146 -10.3439    120.5926    108.9082   7.5441168602e+01   3.6962894829e+01    0.3550726    0.3006917  20.85  0.001229778    1.318    0.241
       147 -11.5059     79.7262    108.2744   8.7551670738e+01   4.4803287148e+01    0.6502584    0.3544729  31.63  0.001048831    1.979    0.495
       148  -9.1659     58.9755    109.7899   9.4768130164e+01   4.7531718723e+01    0.2312384    0.1536365  59.38 0.0006769221    1.957    0.489
       149 -10.9654    143.4957    106.0131   6.8731273618e+01   3.2616175479e+01    0.3714792     0.298822  80.62  0.001248353    1.490    0.329
       150 -11.4984    145.5065    100.1311   6.6688026072e+01   3.3370624701e+01    0.4221134    0.3722995 -34.92 0.0004003934    1.173    0.147
       151  -9.7604    157.5303    106.0446   6.5448326018e+01   2.9453347319e+01    0.2971455    0.2147637  32.30  0.000819809    1.619    0.382
       152  -8.8214    189.3227    105.0000   5.8668576743e+01   2.2516482461e+01    0.2359548     0.122689 -20.38 0.0007039816    4.262    0.765
       153 -11.7087     88.4425    103.9181   8.3651897626e+01   4.4327907552e+01    0.5857866    0.4136409  39.11  0.001014608    1.449    0.310
       154  -9.7041    180.9696    103.2808   5.9836473212e+01   2.4698742558e+01    0.3408429    0.2205172 -67.63  0.001444559    2.045    0.511
       155  -9.7612     57.2150    102.5618   9.3712044636e+01   4.9487204460e+01    0.2743866    0.1882413 -55.34  0.001048206    1.354    0.261
       156  -9.9520    209.4106     99.4473   5.3879427197e+01   1.9174878426e+01    0.4448814    0.2387039 -27.44  0.001822301    2.403    0.584
       157  -9.4849    120.8084    101.1901   7.3317009995e+01   3.8591141073e+01     0.218718    0.1872551  -0.26  0.001080544    1.375    0.273
       158  -9.9024     80.5302     98.4678   8.4772419631e+01   4.6930280145e+01    0.2943693    0.2404134  -7.70 0.0009489158    1.405    0.288
       159  -9.6856     77.5170     96.5746   8.5267646359e+01   4.7857722981e+01    0.2561342    0.2360429 -28.58 7.582829e-05    1.051    0.049
       160 -11.0230     89.5999     90.0301   7.9484745688e+01   4.7195256426e+01    0.5920097    0.3087164 -39.81   0.00163843    1.979    0.495
       161  -9.3981     92.9923     85.7769   7.7167110547e+01   4.7460270674e+01    0.2057767     0.185497  28.69  0.000431281    1.107    0.096
       162 -10.2639     82.7688     93.4045   8.2660540068e+01   4.7678864131e+01    0.3831481    0.2516908  23.87  0.001040631    1.752    0.429
       163 -10.9413     78.0992     92.9982   8.4103375818e+01   4.8560177426e+01    0.4776699    0.4132583  -1.84  0.002060049    1.236    0.191
       164 -11.2132     67.5142     95.7305   8.8447594528e+01   4.9619206075e+01    0.5002415    0.4103512 -23.98  0.002706847    1.268    0.211
       165 -11.5490     17.0810    100.9998   1.0755305826e+02   5.3956058887e+01    0.5376677    0.3080769  13.24 0.0003549527    2.088    0.521
       166  -9.5974    140.9506     96.5754   6.6830449010e+01   3.5117965386e+01    0.4418229    0.2534573  23.07  0.001465505    3.373    0.704
       167  -9.3807     97.9684     97.3312   7.8903494418e+01   4.4048318315e+01    0.2691268    0.2137761 -78.41 0.0006855735    1.606    0.377
       168 -10.0461    116.8986     93.9528   7.2395606295e+01   4.0944958534e+01    0.4478967    0.3306553  -5.09  0.001983075    1.915    0.478
       169 -11.1291    124.8820     93.7413   7.0153399166e+01   3.9270153541e+01    0.6211929    0.3321525  45.42   0.00153376    1.856    0.461
       170 -11.1626    120.8665     87.2550   6.9389200409e+01   4.1453752915e+01    0.6302233    0.3888189 -47.85  0.002768853    1.677    0.404
       171 -10.3262     42.9817     94.7031   9.6937397085e+01   5.3062729864e+01     0.332001     0.306093  -2.49  0.001584074    1.145    0.127
       172  -9.6410    160.1327     93.6808   6.1648059270e+01   3.1286548849e+01    0.4443214    0.2353039  70.14  0.001530877    3.019    0.669
       173 -10.8167    152.5839     92.3252   6.2948922927e+01   3.3291499208e+01     0.394969    0.3219826  62.82  0.001275594    1.252    0.201
       174  -9.4349    104.1407     93.3097   7.5905496859e+01   4.3708502001e+01    0.2898554    0.1989194 -72.86  0.001078088    2.148    0.534
       175 -10.5342     98.9318     91.1453   7.6868687985e+01   4.5193915161e+01    0.3282889    0.2516005  42.83  0.000697593    1.314    0.239
       176 -10.6223    183.4380     85.5786   5.4953882815e+01   2.7378970189e+01    0.7272595    0.2808744 -47.74  0.002605944    2.660    0.624
       177  -9.9897     66.5738     88.7742   8.6917433775e+01   5.1319875090e+01    0.3187171     0.225175  -7.99   0.00100309    1.805    0.446
       178 -10.4113     67.1055     82.2007   8.4878494826e+01   5.2666558507e+01       0.3995    0.3163615 -38.60  0.002026153    1.195    0.163
       179  -8.9507    111.5732     87.7665   7.2133719695e+01   4.3337814283e+01    0.3664567    0.2196762 -50.14  0.001578039    1.762    0.433
       180 -10.5535    104.5044     87.0022   7.3980585951e+01   4.4950174189e+01    0.4399884    0.2927543 -17.43  0.001856729    2.131    0.531
       181 -10.7636    113.9136     83.6618   7.0264326704e+01   4.3664195396e+01    0.5254613     0.347066 -56.28  0.002351626    1.756    0.430
       182 -10.7419    109.0063     80.9633   7.0864064378e+01   4.5231656854e+01    0.4078407    0.3672616   1.08  0.001695711    1.186    0.157
       183 -11.0873    142.6639     84.4557   6.3066652661e+01   3.7082704804e+01    0.6004353    0.3069612  43.92  0.001044919    2.021    0.505
       184 -10.4396     80.6548     83.8944   8.0654871858e+01   5.0092566079e+01    0.4994274    0.2681248 -38.87  0.002138923    1.909    0.476
       185 -11.6747     75.2873     79.7562   8.1267463284e+01   5.1869814978e+01    0.7597149    0.5225102  63.79  0.001579035    2.179    0.541
       186 -10.1888    165.6907     83.8280   5.7877393967e+01   3.1817699335e+01    0.3699909    0.2969073 -63.70  0.001374963    1.306    0.234
       187 -10.8810     60.6355     83.6220   8.7625191301e+01   5.3318327799e+01    0.3002914    0.2403239 -55.03 0.0004274848    1.270    0.212
       188  -9.8568     46.9001     75.0598   9.0406724290e+01   5.6980866695e+01    0.3882107    0.2083313 -47.66 0.0009885879    1.678    0.404
       189 -11.6501     53.1926     75.8435   8.8194878416e+01   5.6009935566e+01    0.6449182    0.3953157 -52.13  0.003234768    1.580    0.367
       190 -10.8902     58.2144     77.6048   8.6804236611e+01   5.4950475537e+01    0.3720976    0.2776724 -51.80 0.0007043122    1.333    0.250
       191  -9.7682    127.5343     83.0966   6.6414241430e+01   4.0791084595e+01    0.2446861    0.1974829  49.34 0.0008290699    1.215    0.177
       192 -10.8636    103.4767     75.7910   7.0915315456e+01   4.7379871357e+01    0.6210757    0.3683249 -48.34  0.002754671    1.798    0.444
       193 -11.6814     13.9186     74.7191   1.0361174111e+02   6.0192645342e+01    0.5223182    0.3762296 -71.41  0.002745581    1.441    0.306
       194  -9.4687     13.4885     67.5381   1.0213626228e+02   6.1777211541e+01    0.4747495    0.2424343   9.19  0.002454192    2.266    0.559
       195 -12.1797     37.3992     71.6310   9.3230394203e+01   5.8802480725e+01     1.395468    0.5155433  21.72   0.00547998    3.253    0.693
       196  -9.1028    213.6700    248.6520   8.2537892824e+01  -7.3146398485e+00    0.1265867   0.07797737  -0.03 0.0007049219    1.762    0.433
       197  -9.7665    175.0946    247.2645   8.9749495009e+01  -1.6869877241e+00     0.255557    0.2048147  31.41  0.001651506    1.125    0.111
       198 -11.5874     61.2016     36.6585   7.1596488683e+01   6.1957975077e+01    0.5550801    0.4479539 -29.00  0.001818858    1.263    0.208
       199 -11.4169     26.7914     47.4137   9.0432816657e+01   6.4720714258e+01    0.7386382    0.3539429 -16.23  0.003072608    3.246    0.692
       200 -11.3580    127.2538    242.4037   9.8921836625e+01   6.4049855075e+00    0.3869537    0.3304122 -21.59  0.002443771    1.428    0.300
       201 -11.6814      1.9910     71.3641   1.0779318394e+02   6.1632346586e+01    0.6700341    0.2052562 -62.89  0.002924285    2.507    0.601
       202 -12.2917     58.2291     29.9550   7.0048211361e+01   6.3420260259e+01    0.4998462    0.2783877  30.71  0.001157349    1.730    0.422
       203 -11.6561     48.9854     30.5851   7.4080048715e+01   6.4783198616e+01    0.6731138    0.2552251  35.83  0.002417713    2.540    0.606
       204 -11.0530     40.9746     57.0585   8.7342988339e+01   6.1343836576e+01    0.3983459    0.2358999  33.32  0.002112827    1.788    0.441
       205 -11.7173     51.6322     61.5210   8.4402729152e+01   5.9118227783e+01     0.385664    0.3117523  50.49  0.002237601    1.577    0.366
       206 -11.9701     44.6965     60.3233   8.6840853229e+01   6.0256540233e+01    0.7842798    0.4219903 -24.07  0.003262164    2.329    0.571
       207  -9.8211    233.0589     77.5424   4.5619585969e+01   1.7908595920e+01    0.2634459    0.2025062 -52.68  0.001080143    1.122    0.108
       208 -10.4319    126.9342     76.9374   6.4759487326e+01   4.2083176341e+01    0.2967205    0.2638501  22.83  0.000304161    1.209    0.173
       209 -11.6663    123.0472     68.9196   6.3340088808e+01   4.4401178964e+01    0.6183091    0.4870267  41.20  0.001522147    1.251    0.201
       210 -10.3309     94.6276     76.2324   7.3766964402e+01   4.9069149378e+01    0.5651504    0.3437842  37.61  0.002003187    1.653    0.395
       211 -11.5195     85.5778     73.4141   7.5813409100e+01   5.1336778528e+01    0.8392152    0.4688447  38.97  0.003767058    1.784    0.439
       212 -11.6316     76.8082     65.0461   7.6104035619e+01   5.4511970702e+01     1.076108    0.5740995 -54.30   0.00291634    2.388    0.581
       213 -12.1565     74.5396     53.1185   7.2819520160e+01   5.7039798951e+01    0.5779133    0.5413014 -47.86  0.001600271    1.259    0.206
       214 -10.9225     72.6987     47.4875   7.1444024073e+01   5.8299571989e+01    0.3876207    0.2379796 -46.96  0.001933654    1.881    0.468
       215  -8.2679     38.3175     78.6548   9.4757959969e+01   5.7192883648e+01    0.1279602    0.1031001  74.81 0.0007048736    1.722    0.419
       216  -8.8235    134.4950     77.5022   6.3033618582e+01   4.0255496731e+01    0.1484113    0.1434146  73.25 6.006766e-05    1.026    0.026
       217 -13.3668      5.2286     61.9110   1.0437080347e+02   6.3483354682e+01    0.5615492    0.3748054   1.20  0.001789557    1.630    0.387
       218 -12.1897    186.4213     70.6046   5.0663019367e+01   2.9220799278e+01    0.9303209    0.5964725 -42.13  0.003148243    1.517    0.341
       219  -9.9646     75.6104     75.1968   7.9767918465e+01   5.2747226937e+01    0.2536083    0.2488552  79.47  0.001149426    1.184    0.155
       220 -10.0452    184.3923     61.7583   4.8747607051e+01   3.1093893216e+01    0.3035861    0.2163554 -29.03  0.001152018    1.603    0.376
       221 -10.3280     82.2247     48.0748   6.8367080567e+01   5.6451123042e+01    0.7149259    0.3125851 -28.62  0.002803966    2.850    0.649
       222  -9.9041    153.3195     72.7207   5.7391773740e+01   3.6691699906e+01    0.4839791    0.1892556  43.39  0.001634094    3.019    0.669
       223  -9.4196    163.5978    243.7132   9.1549460229e+01   6.0214466537e-01    0.2156134    0.1384301  48.64  0.000894757    1.686    0.407
       224  -9.6148    162.1908     70.7202   5.5038260435e+01   3.4921252449e+01    0.3105121    0.2147904 -68.58  0.001439206    1.743    0.426
       225  -9.8029    172.2939     68.3605   5.2508489946e+01   3.2907591059e+01    0.3343868    0.2538742   0.45   0.00160416    1.971    0.493
       226 -10.4066    170.4335     64.0729   5.1699429272e+01   3.4038540790e+01    0.4839583    0.3367644 -87.12  0.001792003    1.724    0.420
       227 -11.2980    219.7844     66.6490   4.4892341217e+01   2.2360599995e+01    0.5013755    0.3106365  67.41  0.001983891    1.676    0.403
       228 -10.6618     59.1904     62.7495   8.1830910674e+01   5.7804844141e+01    0.4757793    0.3690204 -42.51   0.00177522    1.270    0.213
       229  -9.4389     64.8295     61.8740   7.9393426619e+01   5.7105586002e+01     0.304345    0.1892369 -44.08  0.001126902    1.591    0.372
       230  -9.6880    192.3508     65.7162   4.8501156807e+01   2.8625323176e+01     0.264136    0.1951627 -74.44  0.000692033    1.423    0.297
       231 -10.3882    199.9927     63.9353   4.6933715282e+01   2.7150904770e+01    0.4879636    0.2911223 -84.71   0.00216721    2.229    0.551
       232  -9.7344     84.3471     61.4374   7.2321424636e+01   5.3801057521e+01    0.3573381    0.2750298 -34.73   0.00150417    1.308    0.235
       233 -11.4135     91.4714     63.0320   7.0531728166e+01   5.2148475860e+01    0.8926493    0.3929821  48.21  0.003553797    2.326    0.570
       234 -10.7379     87.6097     56.8991   6.9702950768e+01   5.3967923135e+01    0.5363163    0.2275287 -36.52  0.001519263    2.479    0.597
       235 -10.4972     91.9690     57.4989   6.8513573379e+01   5.3008946129e+01    0.3471881    0.2667388  47.38   0.00110776    1.298    0.229
       236 -11.7297     53.3506     50.0510   7.9781636668e+01   6.0995618408e+01    0.5173356    0.3954295  48.47  0.002235312    1.648    0.393
       237 -11.4786    234.8899     61.0905   4.1886427115e+01   2.0030034423e+01    0.4169759    0.3476796 -70.80  0.001586523    1.053    0.051
       238 -10.3844    244.9616     51.0670   3.8766432584e+01   1.9433718227e+01    0.2364857    0.1674151 -88.50 0.0008575516    1.390    0.281
       239 -10.1979    238.0804     55.8730   4.0445410719e+01   2.0134970889e+01    0.1985171    0.1535775 -52.84  0.001242422    1.117    0.104
       240 -10.4730    240.2741     50.6408   3.9137203363e+01   2.0428184832e+01    0.3069297    0.2450609 -44.67 0.0009447183    1.237    0.192
       241 -10.4125    105.1519     62.1624   6.6090287431e+01   4.9499293642e+01    0.3856404    0.2470986 -53.42  0.001084314    1.897    0.473
       242 -11.0423    106.7021     58.3759   6.4404992129e+01   4.9804191293e+01    0.7057972    0.4497129  67.32  0.002810784    2.104    0.525
       243 -12.3865    120.2152     57.5792   6.0518019065e+01   4.6941885897e+01     1.656128     1.123516 -81.42  0.007120767    2.438    0.590
       244  -9.6667     68.0223    240.6555   1.1118727857e+02   1.5360546764e+01    0.1800681     0.140471  48.32 0.0009612832    1.115    0.103
       245 -10.7836    109.5276     43.4123   5.8606529445e+01   5.1478385635e+01     0.828145    0.4488978 -42.71  0.003518757    2.052    0.513
       246 -11.9980    117.8812     43.9718   5.6678280519e+01   4.9517124024e+01    0.5962672    0.4386138  70.97  0.002477048    1.505    0.335
       247  -9.9253    136.0160    240.4671   9.6820812849e+01   5.4032581658e+00    0.2025259    0.1115272  35.97 0.0004187715    1.558    0.358
       248 -11.6269    114.1718     39.0672   5.5948448606e+01   5.1033157361e+01    0.4261999     0.327132 -32.89 0.0009374836    1.414    0.293
       249  -8.3279    206.2916     61.3271   4.5436563313e+01   2.6126753007e+01    0.1254507    0.1079553  20.12 0.0002896163    1.620    0.383
       250  -9.6740    150.6718     60.7207   5.4532115058e+01   3.9299819283e+01    0.2704034    0.1980128  63.91 0.0007309886    1.324    0.245
       251  -9.3087    147.3312     60.7240   5.5221422124e+01   4.0097875287e+01    0.2408233    0.1744897  29.23 0.0005758199    1.730    0.422
       252 -10.0342    135.4972     50.8622   5.4801999426e+01   4.4422156777e+01     0.420582    0.2403174  43.72  0.001894794    1.789    0.441
       253 -10.4240    136.4788     56.6873   5.6363460979e+01   4.3309381555e+01    0.7514276     0.448851  -7.78  0.002847464    3.169    0.684
       254 -11.1618    148.7372    237.8502   9.3781973835e+01   3.8884709874e+00    0.4752352    0.2653267  30.01  0.001691694    1.660    0.398
       255 -10.8603    134.9672     45.7245   5.3332562170e+01   4.5286491244e+01    0.3983873    0.1991697  58.07 0.0006786781    1.849    0.459
       256 -10.4874    139.7634     43.8045   5.1745274591e+01   4.4410422131e+01    0.3591871    0.2362641  54.73   0.00180648    1.393    0.282
       257 -11.1796    156.6610     53.0376   5.1171205426e+01   3.9033678933e+01     1.026684    0.5480712 -41.54  0.004608307    1.913    0.477
       258  -9.0925    233.3155    236.3024   7.6999169573e+01  -8.1756972197e+00    0.1220852   0.07631116  -1.14  0.000446456    1.618    0.382
       259 -10.8096    198.6766    232.9978   8.2892907012e+01  -2.9310425960e+00    0.3949642    0.3260755   8.55  0.002576155    1.027    0.026
       260  -9.2981     15.3489    233.6242   1.2124185454e+02   2.3028378471e+01    0.2097816    0.1224528 -79.20  0.001104767    1.583    0.368
       261 -10.1480    247.4224    231.9381   7.3828683390e+01  -9.3491866454e+00    0.2329188    0.2132779 -75.24  0.001509043    2.148    0.534
       262 -11.6902    157.2753     42.6994   4.8130192271e+01   4.0345315451e+01     1.100955    0.4358144  69.81  0.003952939    2.985    0.665
       263 -10.1007    242.8327    231.8789   7.4603593209e+01  -8.7741505623e+00    0.2436318    0.2405741   7.84  0.001832931    1.661    0.398
       264 -12.7580    152.9577     35.7609   4.6892278689e+01   4.2294236642e+01    0.3418189    0.2961823  60.35 0.0004499611    1.098    0.089
       265  -9.4761     23.7955    231.8156   1.1948334293e+02   2.2516560343e+01    0.1720254    0.1048919  59.52  0.001055376    1.336    0.252
       266 -10.9030    164.0449     27.6600   4.2852075334e+01   4.0605577254e+01    0.2876473    0.2277817 -76.71 0.0005309844    1.247    0.198
       267 -10.0860     66.7433     54.3602   7.6097176729e+01   5.8161007719e+01    0.4120383    0.2211256 -52.77  0.001827952    2.397    0.583
       268  -9.4748     63.3607     75.7043   8.4327607774e+01   5.4599835768e+01    0.3220089    0.2437595  76.90  0.001580436    2.128    0.530
       269  -8.6632    190.2637    229.6597   8.4003467567e+01  -1.1509287300e+00    0.1124619    0.1023754  72.82 0.0003421693    1.593    0.372
       270  -9.6017    211.4807     53.1383   4.2863674123e+01   2.6174430178e+01    0.2502599    0.1819876  74.41  0.001421584    1.345    0.257
       271 -10.2762    175.1906     49.3531   4.6986149904e+01   3.5113359615e+01    0.3359016    0.2588892  74.37  0.001098896    1.225    0.184
       272 -10.0791    171.5095     47.5177   4.7082774808e+01   3.6253383483e+01    0.3197862    0.2739311  18.12  0.001347447    1.523    0.343
       273  -9.6201    233.8427    223.1493   7.4697354698e+01  -6.3861479368e+00    0.1754189       0.1219  -4.92 0.0008076654    1.339    0.253
       274  -9.6682     91.4338     48.3114   6.5489337611e+01   5.4604024445e+01    0.3026147    0.2165738 -51.12 0.0008165493    1.700    0.412
       275 -10.7836     12.6557     48.0978   9.7297491842e+01   6.5802532454e+01    0.3514284    0.1764437 -32.45  0.001673795    1.820    0.450
       276  -9.3200    153.0196    219.2265   9.0069467241e+01   6.5955427423e+00    0.1876509    0.1025013  36.05 0.0005089134    1.653    0.395
       277 -10.4098    164.6910    212.3056   8.6416648985e+01   5.9571526876e+00    0.2561216    0.2141354  36.53 0.0006963591    1.134    0.118
       278  -9.8527    153.2198    207.5022   8.8112678495e+01   8.8205191355e+00     0.269018    0.2310726 -80.14 0.0007876481    1.465    0.317
       279  -9.4262     61.1294    206.5181   1.0932041619e+02   2.3569729437e+01    0.1935429    0.1652895  85.68 0.0007848938    1.084    0.078
       280 -11.5247     14.0222     23.6094   8.7997444028e+01   7.0056292066e+01    0.2436613    0.1794479 -25.16 0.0001551443    1.104    0.094
       281  -9.3346    123.9503    205.9046   9.4507091400e+01   1.4129866510e+01    0.1962817    0.1767389   8.72            0    1.227    0.185
       282 -10.4226    238.2252    204.4949   7.0645692368e+01  -4.2009906269e+00    0.2402644    0.1556572 -32.77    0.0014081    1.394    0.282
       283  -9.0623    221.9900    206.0000   7.3818869199e+01  -2.0977617094e+00    0.2042425   0.06854418  37.69 0.0008101031    2.996    0.666
       284  -9.1068    196.4870    204.9967   7.8529230406e+01   2.0300163066e+00    0.1936439     0.127059 -40.28 0.0005666426    1.547    0.354
       285 -10.1994    158.8813     62.4771   5.3404010870e+01   3.7055006631e+01    0.5382457    0.2047984  47.02  0.001912609    2.817    0.645
       286  -9.8075    177.2815     43.2622   4.5067712550e+01   3.5458973706e+01     0.329968     0.215529  58.29  0.001708034    1.471    0.320
       287 -10.5412     94.4209     41.1813   6.2034240412e+01   5.5049380082e+01    0.7029419    0.2717284  49.71  0.002813247    2.387    0.581
       288 -10.5805    189.1324     41.2269   4.2881591423e+01   3.2930755901e+01     0.448835    0.1957928 -30.94  0.001534346    2.584    0.613
       289  -9.7323     86.1149     31.1094   6.0798802201e+01   5.8117871213e+01    0.2958179    0.2159116   7.05  0.001322731    1.545    0.353
       290 -10.3185     81.8311     31.6563   6.2349447733e+01   5.8902861037e+01     0.409418    0.2654558 -62.79  0.001859265    2.914    0.657
       291 -10.2908     81.6450     40.1653   6.5649686273e+01   5.7763064995e+01    0.5963928    0.3088413  51.54  0.002726129    2.008    0.502
       292 -10.5015     78.4793     34.4548   6.4524371157e+01   5.9179370632e+01    0.4542694    0.3093326  40.56  0.001891521    1.340    0.254
       293  -9.7529     17.5337     41.8713   9.2967221289e+01   6.6596662761e+01    0.2438153     0.150422 -19.43  0.001229389    1.563    0.360
       294  -9.7844    231.5526     39.2321   3.7616593130e+01   2.3761614130e+01    0.2582573    0.1376311 -51.80  0.001077043    1.626    0.385
       295 -11.2609    201.8824     47.2279   4.2682462936e+01   2.9166858136e+01    0.7635598    0.4502371 -53.12  0.003890166    1.616    0.381
       296 -11.1525    176.8325     36.9308   4.3481178291e+01   3.6401398020e+01    0.4665926    0.3874432  11.50  0.002669462    1.675    0.403
       297 -10.8234    174.6471     31.4829   4.2364363618e+01   3.7606413528e+01    0.6855785    0.2629438  50.85  0.001576659    2.756    0.637
       298 -10.5644    189.1965     27.5199   3.9489959464e+01   3.4650308678e+01    0.5245749    0.3289011  37.67  0.002603833    2.328    0.570
       299 -11.4011      5.6384    200.2600   1.2122931606e+02   3.1109964175e+01    0.7091972    0.1774517 -66.81  0.002922314    3.237    0.691
       300  -9.0030    183.8298     38.1607   4.2825481384e+01   3.4581708080e+01    0.2004859    0.1567383 -76.93  0.000678061    1.216    0.178
       301  -9.5355    133.1005     37.1360   5.1046047761e+01   4.6883682722e+01    0.3626377    0.2356473 -88.09  0.001669436    2.125    0.529
       302  -9.1470    206.6811     37.0507   3.9727360440e+01   2.9447442375e+01    0.1790628    0.1527159 -62.68 0.0007024512    1.096    0.087
       303  -9.2006     94.2088     35.8942   6.0174825731e+01   5.5822727688e+01    0.1904928    0.1774331 -88.73 0.0006124359    1.311    0.237
       304 -12.1459      4.7466    184.3449   1.2037375558e+02   3.4806874776e+01    0.6703647    0.4623279  82.52  0.003606882    1.201    0.167
       305 -11.8294    106.3851     32.4483   5.5615305003e+01   5.3636156775e+01    0.5030821    0.2892902  25.16   0.00200777    2.369    0.578
       306 -10.2932     17.4060    203.1858   1.1888535314e+02   2.9359989580e+01    0.2887987    0.1778545 -61.58  0.001681598    1.690    0.408
       307  -9.3113    240.5060     26.4795   3.4219214263e+01   2.3542328816e+01    0.1496568    0.1430093  62.00 2.472881e-06    1.457    0.314
       308  -9.6042    215.8309     33.3163   3.7900560502e+01   2.7893599851e+01    0.2985274    0.1945605  22.91  0.001350352    3.435    0.709
       309 -10.7911    198.9592     29.2507   3.8778119472e+01   3.2184581594e+01    0.4213979    0.3587788 -48.32  0.002380287    1.230    0.187
       310 -10.6059    245.5003    200.9968   6.8769444474e+01  -4.6743925939e+00    0.1846718     0.151199  11.07 0.0007000878    1.178    0.151
       311  -8.9443    221.6280     30.1665   3.6640566000e+01   2.7029653706e+01    0.1615214    0.1159489 -27.95 0.0009475715    1.709    0.415
       312  -9.2470     99.8707     30.4867   5.6618200076e+01   5.5308984209e+01    0.1997132    0.1200567  52.81 0.0005002276    1.505    0.336
       313 -10.4223    250.3251     27.3615   3.3621157137e+01   2.1483933241e+01    0.3332057    0.1374493 -36.69  0.001683988    2.273    0.560
       314 -10.0119    230.1130     27.6109   3.5324169745e+01   2.5543037401e+01    0.3150165    0.1552463 -39.39   0.00148878    1.877    0.467
       315  -9.3558     42.1257     28.6004   7.6234142606e+01   6.6064522387e+01    0.3128853    0.1606467  13.97  0.001094372    2.701    0.630
       316 -10.2849    213.9413     24.3229   3.6103596309e+01   2.9416666235e+01    0.2844642    0.2523214  85.86  0.001603618    1.183    0.155
       317  -9.2383    216.3915     20.2398   3.4985071839e+01   2.9361244842e+01    0.2237914    0.1663594 -61.15   0.00142508    1.165    0.142
       318  -9.6396     97.2023     26.4387   5.5850792296e+01   5.6372594054e+01    0.2327385    0.1659462 -47.76 0.0009339766    1.723    0.420
       319 -10.8417    234.2818    196.9658   6.9959681132e+01  -2.4637330956e+00    0.3916165    0.2895081  -3.39  0.001569291    1.318    0.241
       320  -8.9002    195.4540    199.9371   7.7814771553e+01   3.0909716202e+00    0.1737642    0.1210006 -67.41 0.0008072993    2.437    0.590
       321  -9.5415     82.7362    196.2296   1.0293310212e+02   2.2891762456e+01    0.3323646    0.2079999  18.89  0.001512379    2.158    0.537
       322  -9.7949    169.9730    191.3257   8.1550984936e+01   9.0890223926e+00    0.3778845    0.2082099  24.79  0.001573646    2.205    0.546
       323  -9.4644     16.1558    191.5159   1.1829939512e+02   3.2140698181e+01    0.1586895    0.1160163  37.96 0.0003673525    1.453    0.312
       324 -10.0934    239.7637    184.7068   6.6723144042e+01  -1.3065188429e+00    0.2763681    0.1935481 -13.87 0.0008704262    1.423    0.297
       325  -9.4768    169.1427     23.8514   4.1103890755e+01   3.9822174014e+01    0.2741939    0.1571378  58.26   0.00139541    1.609    0.379
       326  -9.2497    223.5350     22.0215   3.4731112796e+01   2.7610286643e+01    0.1915489    0.1388151  86.77 0.0007008723    1.228    0.185
       327 -10.2949    214.8724    184.9765   7.1214726366e+01   2.5376800908e+00    0.3514204    0.2487975 -66.23  0.001712692    2.342    0.573
       328  -8.7277    173.5077    184.4956   7.9487806257e+01   9.8084895467e+00     0.142709    0.1343287   6.16 0.0008106314    1.000    0.000
       329 -10.1520    250.2377    178.3625   6.3793676109e+01  -1.8279346301e+00    0.4315455     0.137415 -32.75  0.001607383    3.304    0.697
       330  -9.0481    157.4730    179.5723   8.2106360902e+01   1.3767025215e+01    0.1457374    0.1381912  15.75 8.564856e-05    1.024    0.024
       331  -9.9525     27.9030    176.0531   1.1414641261e+02   3.4652922980e+01    0.2526332    0.1934793  55.03  0.000834231    1.260    0.206
       332  -9.7121    230.7490    175.5326   6.6509228747e+01   1.5987106914e+00    0.3235039    0.1520392  35.40  0.001470295    2.359    0.576
       333 -10.3460     52.1320    173.6069   1.0768083153e+02   3.2531114485e+01     0.523679     0.268418  87.81   0.00211971    2.585    0.613
       334  -9.9215    247.7513    173.9230   6.3348783818e+01  -7.5324863763e-01    0.4024405    0.1677473  26.81  0.001489533    4.218    0.763
       335 -10.1014     38.5773    173.1502   1.1113616664e+02   3.4231623375e+01    0.3539476    0.2112823  55.85  0.001798543    1.681    0.405
       336 -10.6641     35.4103    169.7671   1.1157232184e+02   3.5403450406e+01    0.3394448     0.237466 -58.73  0.001892273    1.403    0.287
       337  -8.9131    170.5404    171.9996   7.7669598121e+01   1.2889158827e+01    0.2161624    0.1422982 -44.28 0.0006345714    1.522    0.343
       338 -12.3108     22.9747    148.8889   1.1251848286e+02   4.1774441597e+01    0.7345021    0.3455516 -51.56   0.00183162    2.079    0.519
       339  -9.0346    191.2826     17.0671   3.6724230386e+01   3.5365874069e+01    0.2841181    0.1447591  36.69  0.001114957    3.823    0.738
       340 -10.8666     15.9714    147.9570   1.1435869919e+02   4.2601831586e+01    0.3766315    0.2817954 -90.00  0.001086464    1.196    0.164
       341 -10.6326    239.9887     32.0700   3.5380622613e+01   2.2950797878e+01    0.4649617    0.2861957 -35.26  0.002238481    1.699    0.411
       342  -9.2810    205.0762     17.4759   3.5427419849e+01   3.2180152139e+01    0.1863755     0.108001  77.23 0.0007307085    1.553    0.356
       343 -10.2151    186.4654     15.1770   3.6785345636e+01   3.6687342167e+01    0.2416505     0.187455  84.67 0.0004817438    1.103    0.093
       344 -11.6124     12.8449    138.5770   1.1419429373e+02   4.5148994408e+01    0.9352408    0.4625865 -65.65  0.004701242    1.652    0.395
       345  -9.7806     74.5418     19.5321   5.9854836555e+01   6.1806676387e+01    0.2506515    0.1703443  32.57  0.001134541    1.324    0.245
       346 -11.6635      9.4129    166.8767   1.1791077480e+02   3.8539798211e+01    0.5042801    0.4137684  78.13  0.002807711    1.084    0.078
       347 -11.7875     13.5561    159.2625   1.1616440807e+02   4.0037941408e+01    0.6935151    0.4612251  85.64  0.002844724    1.367    0.268
       348 -11.5588      3.4946    147.2577   1.1769370319e+02   4.3707767195e+01    0.8251479    0.2506465 -72.33  0.002760566    2.583    0.613
       349  -8.3981     94.6595     12.3182   5.1201030558e+01   5.8422663528e+01    0.1225358   0.09710761 -78.11 0.0004463781    1.712    0.416
       350 -11.6044      2.5652    141.6844   1.1741832190e+02   4.5117127385e+01     0.927058    0.4621709  81.92  0.004480709    2.134    0.531
       351  -9.3791    198.0536    167.9883   7.1081781497e+01   8.5535765363e+00     0.217618    0.2007226 -20.12 0.0007296674    1.017    0.016
       352  -9.1209    152.3949    166.7097   8.0725785124e+01   1.7490017863e+01    0.2014168    0.1406023 -37.71 0.0004422689    1.507    0.336
       353  -9.4892    156.2064    166.1775   7.9726288177e+01   1.6867354836e+01    0.2169454    0.1991521 -16.50 0.0004165925    1.129    0.114
       354 -10.2481     18.7662    164.9834   1.1536990274e+02   3.8201432895e+01    0.3030474    0.2497715 -44.90  0.001777867    1.420    0.296
       355 -10.1312    204.9879    162.9737   6.8695706367e+01   8.2395581962e+00    0.4309111    0.2330889  50.68  0.001569653    2.185    0.542
       356  -9.9099    208.3920    160.2445   6.7482777349e+01   8.1317825252e+00    0.3412134     0.184429 -43.06  0.001545852    1.748    0.428
       357  -9.7351    188.8145    163.9524   7.2114967986e+01   1.1051224201e+01    0.2430841    0.1617736 -15.53  0.001071227    2.005    0.501
       358 -10.7032     28.1798    162.1770   1.1261972366e+02   3.8007657910e+01    0.4715293    0.2052641 -63.98  0.002149416    1.967    0.492
       359  -9.8345     39.1049    161.7330   1.0964323291e+02   3.6986305804e+01    0.4863562    0.2291063  64.30  0.001925012    2.847    0.649
       360 -10.1812    246.3807    159.6114   6.0789867786e+01   1.7978982299e+00    0.3345202    0.1070611 -35.74   0.00125922    2.933    0.659
       361  -9.4599     78.9875    160.1737   9.8460324512e+01   3.2161911776e+01     0.262098    0.2056592 -71.06 0.0009882349    1.248    0.199
       362  -9.4591    224.2115    157.5451   6.4054720124e+01   5.8149108552e+00    0.3441103    0.1714422 -53.91  0.001397548    2.653    0.623
       363  -9.4326    215.4399    157.7114   6.5652150916e+01   7.3294642429e+00    0.2338641    0.1690108  12.54  0.001183927    1.723    0.419
       364 -10.4069    104.8575    154.1705   9.0249888237e+01   2.9367322592e+01    0.3950971    0.3268005 -35.98  0.001991105    1.329    0.248
       365  -9.8670     33.0376    154.5011   1.1040124029e+02   3.9422645436e+01    0.2637314    0.2478274  12.00  0.001199644    1.286    0.223
       366 -10.3755     31.1733    151.6065   1.1055815491e+02   4.0329294417e+01    0.2918426    0.2134243 -35.94  0.001610299    1.645    0.392
       367  -9.2669     74.8236    154.1800   9.8597507686e+01   3.4281764725e+01    0.2180624    0.1830354 -68.06 0.0008423716    1.137    0.121
       368  -9.8823     71.8855    150.7590   9.8839310990e+01   3.5570251119e+01    0.3795754    0.2608881 -35.77  0.001786775    1.758    0.431
       369 -10.6485     41.3858    149.1004   1.0733579688e+02   3.9888962647e+01    0.2448587    0.2222086  30.90  0.000396869    1.247    0.198
       370 -11.3123     46.8673    146.0506   1.0530730200e+02   4.0034416684e+01    0.8042563    0.3267318 -60.85  0.003223969    2.137    0.532
       371 -10.7368     63.3421    150.5142   1.0124725798e+02   3.6833801509e+01    0.4616504    0.3110078   8.30  0.001603361    2.100    0.524
       372  -8.6701     87.4839    150.9789   9.4444958453e+01   3.3111206569e+01    0.2120375     0.115857 -37.43 0.0007432686    2.394    0.582
       373  -9.7073    234.4612    149.7285   6.0723752743e+01   5.4261679055e+00    0.3421648    0.2011491 -23.84  0.001622032    1.950    0.487
       374 -10.8218    249.0016    142.0074   5.6891743479e+01   4.3085007273e+00     0.495421    0.2519405 -25.19  0.002179896    2.449    0.592
