#   1 NUMBER                 Running object number                                     
#   2 MAG_AUTO               Kron-like elliptical aperture magnitude                    [mag]
#   3 X_IMAGE                Object position along x                                    [pixel]
#   4 Y_IMAGE                Object position along y                                    [pixel]
#   5 X_WORLD                Barycenter position along world x axis                     [deg]
#   6 Y_WORLD                Barycenter position along world y axis                     [deg]
#   7 A_WORLD                Profile RMS along major axis (world units)                 [deg]
#   8 B_WORLD                Profile RMS along minor axis (world units)                 [deg]
#   9 THETA_WORLD            Position angle (CCW/world-x)                               [deg]
#  10 FWHM_WORLD             FWHM assuming a gaussian core                              [deg]
#  11 ELONGATION             A_IMAGE/B_IMAGE                                           
#  12 ELLIPTICITY            1 - B_IMAGE/A_IMAGE                                       
         1 -15.1379      7.9228    149.9233   1.4520170091e+02   4.2841477909e+01     7.422357     2.658331  88.56   0.03174673    3.143    0.682
         2 -13.7099    196.1512     28.6082   6.9515515519e+01   3.2491446939e+01     1.540916     1.353021  61.40  0.006625212    1.137    0.121
         3 -13.6704    210.7828      8.6371   6.2408857782e+01   3.1030327367e+01     1.404623    0.9526595  44.51  0.007444763    1.720    0.419
         4 -12.0283      2.7892     10.5865   1.2013870295e+02   7.2514981583e+01    0.9894294     0.166368 -42.44  0.003953772    3.749    0.733
         5 -10.1725     29.6449    249.2151   1.4758097606e+02   2.1329111648e+01    0.2863442    0.1546039 -80.28  0.002041899    1.755    0.430
         6 -11.2594    248.1370    249.5842   1.1053327225e+02  -1.0077119023e+01    0.3938296    0.1748843  37.61  0.002297865    1.844    0.458
         7 -11.7512    151.7104    248.9790   1.2687191279e+02   4.5694738054e+00    0.5312687    0.1493925  37.73  0.002086425    3.350    0.702
         8 -10.9692    139.3009    245.6478   1.2867870029e+02   6.9921899525e+00    0.1848385    0.1567787  79.56 0.0006930392    1.341    0.255
         9 -12.3335    125.0190    248.9782   1.3156991027e+02   8.6989040051e+00    0.4606017    0.3194579  40.21  0.003092214    1.263    0.208
        10 -11.3861     34.8939    245.2292   1.4653960777e+02   2.1413679566e+01    0.5294856    0.3190368 -78.03  0.003889784    1.636    0.389
        11 -10.2162      2.5486    248.4990   1.5166836721e+02   2.4228930089e+01    0.2494151    0.1397923  84.79  0.001917812    1.389    0.280
        12 -10.6235     21.9821    244.6769   1.4855198843e+02   2.2913647820e+01    0.2504252    0.1137168  58.53 0.0009586895    1.602    0.376
        13 -11.6027    172.8842    249.0031   1.2315475949e+02   1.2370040179e+00    0.4265757    0.2066884  51.10  0.002252641    2.049    0.512
        14 -10.6639     98.5238    249.5936   1.3624081331e+02   1.2517373918e+01    0.2067556    0.1929156  19.05  0.001609555    1.563    0.360
        15 -10.5068     11.9465    240.6499   1.4992824190e+02   2.4627672146e+01    0.2159499   0.09380361  61.81  0.001418036    1.692    0.409
        16 -14.4328    103.7260    229.2466   1.3332436825e+02   1.5109251339e+01     8.957064          nan  45.43   0.01666611   14.360    0.930
        17 -11.3387    238.2290    248.0154   1.1189806855e+02  -8.5396035634e+00    0.2393904    0.1798635 -27.39  0.001755951    1.608    0.378
        18  -8.9488    152.5109    213.0653   1.2196757215e+02   9.9293164527e+00    0.1603331    0.1288535 -52.47  0.000326066    1.461    0.315
        19 -12.5877      9.5472    206.9455   1.4868566258e+02   3.0959994329e+01    0.6566436    0.3747657  37.00  0.003427237    1.922    0.480
        20 -11.6667     61.1641    199.8270   1.3849753648e+02   2.6637330011e+01     0.252051    0.2214275 -66.04 0.0005138146    1.398    0.285
        21  -9.6462    191.4841    192.4410   1.1098734242e+02   6.3065149613e+00    0.4729405    0.2668383 -66.35  0.001569826    5.347    0.813
        22 -10.9151     17.1535    198.4369   1.4682458654e+02   3.1886834087e+01    0.2561683    0.1493941  55.59  0.001723406    1.441    0.306
        23 -12.8788     34.6759    234.1957   1.4594276005e+02   2.3341956486e+01    0.2638295    0.2157644 -83.53 0.0007524011    1.394    0.283
        24 -12.0097     67.4738    191.4169   1.3636595760e+02   2.7516657153e+01    0.2523008     0.222251 -71.14 0.0005076288    1.294    0.227
        25 -14.0299     39.6220    227.1068   1.4466349577e+02   2.4048200903e+01    0.8553348    0.5887979  66.41  0.003495869    1.079    0.073
        26  -9.8881     54.4995    229.8067   1.4226769041e+02   2.1786002754e+01    0.2318648    0.1405877  64.94 0.0009665109    1.322    0.244
        27 -13.3096     64.3289    176.5999   1.3536854607e+02   3.1058314342e+01    0.4591641    0.2685699 -47.75  0.001650435    2.192    0.544
        28 -10.9458     77.6276    178.3740   1.3267522133e+02   2.8848856289e+01    0.2276574    0.2003925  82.80  0.000270558    1.064    0.060
        29  -9.8815     99.3895    176.1395   1.2755472806e+02   2.6011902152e+01    0.3344248    0.1956305  69.27  0.001134236    2.133    0.531
        30 -11.9115     85.4722    168.8918   1.2963272112e+02   2.9745335722e+01    0.6523018    0.5895159  26.42  0.004071777    1.381    0.276
        31 -10.0623     97.6126    153.0765   1.2426788701e+02   3.1330510251e+01    0.2956586    0.2682194 -65.60 0.0008353168    1.121    0.108
        32  -9.2570    100.7880    148.8050   1.2273555483e+02   3.1757728555e+01    0.1965866    0.1872395 -40.39 0.0004438328    1.209    0.173
        33 -12.0956     86.3101    152.1477   1.2685389161e+02   3.3341444941e+01    0.2842529    0.2402073 -49.84 0.0007561391    1.302    0.232
        34 -12.3825     67.1709    143.5814   1.3021702717e+02   3.8063843519e+01    0.7011616    0.4298631  64.22  0.003515538    1.839    0.456
        35  -9.9706    109.5785    137.7362   1.1841281393e+02   3.2710629186e+01    0.4329307    0.3018757 -13.06  0.001492195    2.559    0.609
        36 -10.5568     96.6884    134.9965   1.2114169462e+02   3.5577278116e+01    0.2458552    0.2208181 -30.46 0.0004335346    1.303    0.233
        37  -8.5127    181.1642    144.4307   1.0333286620e+02   1.6775629875e+01    0.1959731    0.1401749  59.12 0.0003516458    1.574    0.365
        38 -10.5980     33.0937    132.7036   1.3733844996e+02   4.4518976400e+01    0.3118527    0.1390428  55.28  0.001437659    2.646    0.622
        39  -9.1142    106.6887    124.1409   1.1624612299e+02   3.6299408898e+01    0.1885618    0.1737202 -50.73 0.0002873136    1.089    0.082
        40  -9.5601    167.5328    112.8278   9.8607713239e+01   2.5921548408e+01    0.2868867    0.2352255 -85.52  0.001293336    1.519    0.342
        41  -9.6079    203.2681    111.9296   9.1139746508e+01   1.7829907922e+01    0.2178183    0.1923258 -28.19 0.0006158412    1.102    0.092
        42  -9.3492     38.5620     94.9303   1.2969911878e+02   5.2689199010e+01    0.2007369    0.1639008  60.46 0.0003290563    1.419    0.295
        43 -10.5492    243.4039     85.2158   7.7987943333e+01   1.3185854089e+01    0.2129959    0.1145807 -41.96 0.0009578096    1.698    0.411
        44  -9.1628     68.5387     83.6304   1.1742725654e+02   5.1638189224e+01    0.1911115     0.153827  65.12 0.0004294963    1.551    0.355
        45 -10.0662    157.6814     76.0634   9.0485002205e+01   3.5220191138e+01    0.2237271    0.2026451 -32.07 0.0006900027    1.106    0.096
        46  -9.2749     42.2374     67.1776   1.2195971029e+02   5.8448824417e+01    0.2179231    0.1527521  58.92 0.0008925359    2.049    0.512
        47 -10.6355     56.4722    224.3485   1.4150505222e+02   2.2529505320e+01    0.3257928    0.3078838  14.25  0.002232682    1.693    0.409
        48  -8.4797     32.5402     62.5323   1.2427521446e+02   6.0389780541e+01    0.1232198    0.1038912 -52.32 8.323974e-05    1.083    0.076
        49 -10.9314     13.8896     54.9374   1.2948745255e+02   6.3449787626e+01    0.2356934    0.1542868  39.33  0.001000752    1.986    0.497
        50 -10.7427    173.6245    222.8464   1.1939675619e+02   4.7685340232e+00    0.4017269    0.2614534  48.94  0.002322546    1.418    0.295
        51 -11.9691    139.1653    250.1544   1.2921429672e+02   6.3562660447e+00    0.5101398    0.2177511  42.50  0.002697264    1.818    0.450
        52 -10.2742     46.2699    248.8185   1.4492094477e+02   1.9499427827e+01    0.2205829    0.1092545  62.51  0.001065837    1.587    0.370
        53 -10.7490      2.5582     37.9781   1.2974603470e+02   6.7538734673e+01    0.2278841    0.1356276 -77.29  0.001319765    2.144    0.533
